Frequency,Channel A
(MHz),(dBu)

0.00000000,-45.36678000
0.03051758,-45.81057000
0.06103516,-51.07569000
0.09155273,-59.22058000
0.12207031,-66.10195000
0.15258789,-72.29712000
0.18310547,-73.53239000
0.21362305,-75.57662000
0.24414063,-83.90630000
0.27465820,-80.05280000
0.30517578,-69.98061000
0.33569336,-64.53098000
0.36621094,-62.28193000
0.39672852,-62.46811000
0.42724609,-61.84486000
0.45776367,-59.30544000
0.48828125,-58.63956000
0.51879883,-61.20557000
0.54931641,-70.54786000
0.57983398,-70.62013000
0.61035156,-64.84707000
0.64086914,-66.20554000
0.67138672,-72.19090000
0.70190430,-76.60215000
0.73242188,-74.07876000
0.76293945,-71.24205000
0.79345703,-67.23948000
0.82397461,-64.03064000
0.85449219,-62.56010000
0.88500977,-63.05824000
0.91552734,-65.79961000
0.94604492,-70.65295000
0.97656250,-74.13708000
1.00708008,-75.49011000
1.03759766,-76.16206000
1.06811523,-74.75592000
1.09863281,-74.31906000
1.12915039,-75.23266000
1.15966797,-77.06274000
1.19018555,-80.49167000
1.22070313,-96.44882000
1.25122070,-75.51355000
1.28173828,-70.65568000
1.31225586,-70.59150000
1.34277344,-74.18822000
1.37329102,-79.97957000
1.40380859,-81.39389000
1.43432617,-74.92216000
1.46484375,-70.39828000
1.49536133,-68.74609000
1.52587891,-69.38110000
1.55639648,-72.20717000
1.58691406,-77.81989000
1.61743164,-82.07508000
1.64794922,-79.59289000
1.67846680,-79.83693000
1.70898438,-78.26688000
1.73950195,-77.27758000
1.77001953,-76.25799000
1.80053711,-72.02441000
1.83105469,-70.29047000
1.86157227,-71.74560000
1.89208984,-75.70389000
1.92260742,-74.96877000
1.95312500,-71.63668000
1.98364258,-71.39907000
2.01416016,-74.63199000
2.04467773,-82.24136000
2.07519531,-83.55785000
2.10571289,-79.75607000
2.13623047,-77.92702000
2.16674805,-77.75221000
2.19726563,-79.94993000
2.22778320,-82.75436000
2.25830078,-82.72060000
2.28881836,-85.26398000
2.31933594,-98.87068000
2.34985352,-91.72363000
2.38037109,-92.60253000
2.41088867,-81.37369000
2.44140625,-76.60399000
2.47192383,-76.50709000
2.50244141,-79.09862000
2.53295898,-80.56947000
2.56347656,-79.02875000
2.59399414,-76.42953000
2.62451172,-74.08154000
2.65502930,-72.59419000
2.68554688,-71.66398000
2.71606445,-70.51852000
2.74658203,-70.34792000
2.77709961,-72.47276000
2.80761719,-76.66077000
2.83813477,-78.11464000
2.86865234,-78.25153000
2.89916992,-79.68744000
2.92968750,-78.79401000
2.96020508,-78.00675000
2.99072266,-78.84097000
3.02124023,-80.63193000
3.05175781,-82.81099000
3.08227539,-87.05652000
3.11279297,-93.33498000
3.14331055,-87.76053000
3.17382813,-85.62943000
3.20434570,-84.74046000
3.23486328,-85.05748000
3.26538086,-87.46584000
3.29589844,-98.28614000
3.32641602,-89.18873000
3.35693359,-83.38113000
3.38745117,-82.14993000
3.41796875,-79.87464000
3.44848633,-77.76626000
3.47900391,-79.44232000
3.50952148,-83.75083000
3.54003906,-79.94373000
3.57055664,-79.04269000
3.60107422,-80.11885000
3.63159180,-79.33982000
3.66210938,-78.01185000
3.69262695,-77.00532000
3.72314453,-77.58383000
3.75366211,-78.22299000
3.78417969,-76.32933000
3.81469727,-75.92488000
3.84521484,-79.51374000
3.87573242,-86.41143000
3.90625000,-80.15838000
3.93676758,-79.84961000
3.96728516,-86.78020000
3.99780273,-97.27225000
4.02832031,-91.13141000
4.05883789,-86.79767000
4.08935547,-85.06069000
4.11987305,-84.84911000
4.15039063,-83.93230000
4.18090820,-85.44099000
4.21142578,-89.54111000
4.24194336,-91.99031000
4.27246094,-87.22085000
4.30297852,-84.36118000
4.33349609,-83.99321000
4.36401367,-84.10415000
4.39453125,-82.45734000
4.42504883,-79.64466000
4.45556641,-77.06340000
4.48608398,-75.70031000
4.51660156,-75.79517000
4.54711914,-76.93877000
4.57763672,-79.61449000
4.60815430,-82.34634000
4.63867188,-78.73061000
4.66918945,-77.75313000
4.69970703,-80.83101000
4.73022461,-83.67570000
4.76074219,-84.40236000
4.79125977,-87.65850000
4.82177734,-87.54768000
4.85229492,-90.35654000
4.88281250,-91.11945000
4.91333008,-82.30910000
4.94384766,-80.48166000
4.97436523,-82.97069000
5.00488281,-88.00465000
5.03540039,-88.48621000
5.06591797,-84.29440000
5.09643555,-81.18896000
5.12695313,-81.02986000
5.15747070,-85.15390000
5.18798828,-100.60880000
5.21850586,-100.27730000
5.24902344,-89.72563000
5.27954102,-81.32340000
5.31005859,-80.39112000
5.34057617,-85.49610000
5.37109375,-86.99513000
5.40161133,-85.29982000
5.43212891,-86.71081000
5.46264648,-82.68563000
5.49316406,-80.44052000
5.52368164,-81.74374000
5.55419922,-82.60848000
5.58471680,-78.50462000
5.61523438,-78.18127000
5.64575195,-84.71607000
5.67626953,-90.22994000
5.70678711,-84.02946000
5.73730469,-86.21268000
5.76782227,-86.59738000
5.79833984,-83.79504000
5.82885742,-90.13686000
5.85937500,-86.98404000
5.88989258,-80.71114000
5.92041016,-82.13261000
5.95092773,-88.06321000
5.98144531,-90.47921000
6.01196289,-97.82881000
6.04248047,-86.35298000
6.07299805,-79.56449000
6.10351563,-78.64465000
6.13403320,-82.51118000
6.16455078,-92.13691000
6.19506836,-88.62576000
6.22558594,-87.46599000
6.25610352,-85.21954000
6.28662109,-81.99805000
6.31713867,-82.19652000
6.34765625,-84.80113000
6.37817383,-85.64583000
6.40869141,-89.91764000
6.43920898,-98.95323000
6.46972656,-90.80674000
6.50024414,-98.95071000
6.53076172,-87.34497000
6.56127930,-83.76952000
6.59179688,-84.22389000
6.62231445,-83.43013000
6.65283203,-80.35394000
6.68334961,-79.94467000
6.71386719,-82.88078000
6.74438477,-85.93533000
6.77490234,-83.53046000
6.80541992,-80.68856000
6.83593750,-80.99877000
6.86645508,-85.60609000
6.89697266,-101.82750000
6.92749023,-87.92290000
6.95800781,-81.92450000
6.98852539,-78.59128000
7.01904297,-77.59169000
7.04956055,-79.40709000
7.08007813,-83.84959000
7.11059570,-87.46463000
7.14111328,-87.74052000
7.17163086,-88.88850000
7.20214844,-89.97797000
7.23266602,-86.68851000
7.26318359,-86.40472000
7.29370117,-87.37480000
7.32421875,-85.17885000
7.35473633,-86.58087000
7.38525391,-94.69672000
7.41577148,-103.00280000
7.44628906,-92.56119000
7.47680664,-86.66367000
7.50732422,-87.21410000
7.53784180,-96.09468000
7.56835938,-95.84098000
7.59887695,-88.95895000
7.62939453,-84.16058000
7.65991211,-82.24043000
7.69042969,-82.86093000
7.72094727,-84.97737000
7.75146484,-87.45729000
7.78198242,-87.64794000
7.81250000,-88.02959000
7.84301758,-87.99506000
7.87353516,-85.44032000
7.90405273,-85.07115000
7.93457031,-85.91380000
7.96508789,-84.63214000
7.99560547,-83.05528000
8.02612305,-84.88507000
8.05664063,-95.53598000
8.08715820,-88.24762000
8.11767578,-84.71783000
8.14819336,-86.02919000
8.17871094,-87.78495000
8.20922852,-86.97214000
8.23974609,-87.74227000
8.27026367,-91.62911000
8.30078125,-96.41573000
8.33129883,-95.11730000
8.36181641,-91.36975000
8.39233398,-91.66080000
8.42285156,-98.04549000
8.45336914,-102.95810000
8.48388672,-97.57882000
8.51440430,-94.93211000
8.54492188,-92.68108000
8.57543945,-94.89386000
8.60595703,-103.14740000
8.63647461,-96.52310000
8.66699219,-95.43759000
8.69750977,-100.14730000
8.72802734,-101.85530000
8.75854492,-100.25330000
8.78906250,-94.40064000
8.81958008,-86.91046000
8.85009766,-84.94081000
8.88061523,-86.64672000
8.91113281,-90.30577000
8.94165039,-90.75310000
8.97216797,-88.44510000
9.00268555,-89.10840000
9.03320313,-90.80957000
9.06372070,-91.68748000
9.09423828,-98.19775000
9.12475586,-92.88100000
9.15527344,-89.08916000
9.18579102,-90.12646000
9.21630859,-93.76901000
9.24682617,-92.73751000
9.27734375,-87.71236000
9.30786133,-86.63721000
9.33837891,-88.76923000
9.36889648,-90.87380000
9.39941406,-88.04456000
9.42993164,-84.95630000
9.46044922,-85.18172000
9.49096680,-89.13512000
9.52148438,-94.46075000
9.55200195,-100.07890000
9.58251953,-92.46217000
9.61303711,-88.13358000
9.64355469,-87.99330000
9.67407227,-88.65497000
9.70458984,-89.72337000
9.73510742,-93.79506000
9.76562500,-95.15889000
9.79614258,-88.91344000
9.82666016,-85.82195000
9.85717773,-86.91812000
9.88769531,-94.89559000
9.91821289,-90.71452000
9.94873047,-87.19229000
9.97924805,-87.65702000
10.00976563,-85.98088000
10.04028320,-85.44406000
10.07080078,-87.14134000
10.10131836,-85.56314000
10.13183594,-82.99689000
10.16235352,-82.43964000
10.19287109,-83.77549000
10.22338867,-85.19574000
10.25390625,-85.16608000
10.28442383,-84.58284000
10.31494141,-84.51020000
10.34545898,-85.98095000
10.37597656,-87.44957000
10.40649414,-89.79458000
10.43701172,-89.47322000
10.46752930,-84.77299000
10.49804688,-84.10921000
10.52856445,-89.12327000
10.55908203,-102.46910000
10.58959961,-89.77657000
10.62011719,-88.70761000
10.65063477,-86.67102000
10.68115234,-84.59998000
10.71166992,-85.44191000
10.74218750,-91.35138000
10.77270508,-102.45130000
10.80322266,-89.02152000
10.83374023,-85.32726000
10.86425781,-83.42663000
10.89477539,-83.03497000
10.92529297,-85.32470000
10.95581055,-89.70687000
10.98632813,-89.61282000
11.01684570,-92.92146000
11.04736328,-100.04910000
11.07788086,-95.14233000
11.10839844,-91.47803000
11.13891602,-88.00323000
11.16943359,-86.74065000
11.19995117,-84.26291000
11.23046875,-81.71852000
11.26098633,-81.16568000
11.29150391,-83.12709000
11.32202148,-88.79199000
11.35253906,-103.64930000
11.38305664,-89.71076000
11.41357422,-86.00664000
11.44409180,-86.17699000
11.47460938,-90.62283000
11.50512695,-89.68736000
11.53564453,-86.15973000
11.56616211,-85.60492000
11.59667969,-83.27340000
11.62719727,-82.59123000
11.65771484,-86.56053000
11.68823242,-112.06740000
11.71875000,-88.02430000
11.74926758,-83.27536000
11.77978516,-83.24593000
11.81030273,-84.84024000
11.84082031,-81.51048000
11.87133789,-81.38513000
11.90185547,-83.94791000
11.93237305,-79.82851000
11.96289063,-77.25130000
11.99340820,-78.09895000
12.02392578,-82.30281000
12.05444336,-86.41936000
12.08496094,-84.54729000
12.11547852,-81.80389000
12.14599609,-79.21986000
12.17651367,-78.13593000
12.20703125,-78.39072000
12.23754883,-80.33981000
12.26806641,-84.96652000
12.29858398,-89.00803000
12.32910156,-89.79867000
12.35961914,-94.19456000
12.39013672,-88.83052000
12.42065430,-85.44415000
12.45117188,-85.72960000
12.48168945,-87.53879000
12.51220703,-88.16942000
12.54272461,-89.77737000
12.57324219,-97.61740000
12.60375977,-91.97217000
12.63427734,-89.12795000
12.66479492,-92.27596000
12.69531250,-97.45757000
12.72583008,-87.17042000
12.75634766,-82.35309000
12.78686523,-80.30140000
12.81738281,-79.41627000
12.84790039,-79.01931000
12.87841797,-79.59619000
12.90893555,-81.71433000
12.93945313,-85.26249000
12.96997070,-88.96218000
13.00048828,-86.13016000
13.03100586,-80.77126000
13.06152344,-77.27117000
13.09204102,-75.77388000
13.12255859,-76.56271000
13.15307617,-80.25081000
13.18359375,-86.61243000
13.21411133,-86.24927000
13.24462891,-82.37331000
13.27514648,-81.34233000
13.30566406,-83.55780000
13.33618164,-85.28310000
13.36669922,-82.68158000
13.39721680,-81.75073000
13.42773438,-84.23643000
13.45825195,-82.60410000
13.48876953,-74.36227000
13.51928711,-68.74885000
13.54980469,-66.01128000
13.58032227,-66.09381000
13.61083984,-69.25219000
13.64135742,-76.10280000
13.67187500,-82.43321000
13.70239258,-77.64962000
13.73291016,-71.86800000
13.76342773,-69.82600000
13.79394531,-71.53192000
13.82446289,-77.07937000
13.85498047,-85.22010000
13.88549805,-84.92462000
13.91601563,-81.66238000
13.94653320,-80.73515000
13.97705078,-81.82387000
14.00756836,-84.01150000
14.03808594,-84.84470000
14.06860352,-83.71358000
14.09912109,-85.08241000
14.12963867,-86.51216000
14.16015625,-84.60684000
14.19067383,-85.10086000
14.22119141,-86.63911000
14.25170898,-85.84869000
14.28222656,-84.71429000
14.31274414,-83.71711000
14.34326172,-83.40900000
14.37377930,-86.26123000
14.40429688,-89.82558000
14.43481445,-85.55495000
14.46533203,-84.48833000
14.49584961,-87.90977000
14.52636719,-90.00723000
14.55688477,-82.71458000
14.58740234,-81.33699000
14.61791992,-85.23105000
14.64843750,-98.50867000
14.67895508,-93.29710000
14.70947266,-87.06973000
14.73999023,-82.72308000
14.77050781,-81.80743000
14.80102539,-83.41828000
14.83154297,-84.82049000
14.86206055,-83.92372000
14.89257813,-82.60210000
14.92309570,-83.38146000
14.95361328,-86.36184000
14.98413086,-87.17323000
15.01464844,-88.02156000
15.04516602,-93.95039000
15.07568359,-94.21188000
15.10620117,-90.68756000
15.13671875,-93.51875000
15.16723633,-104.22990000
15.19775391,-86.88674000
15.22827148,-80.80038000
15.25878906,-78.63303000
15.28930664,-79.53538000
15.31982422,-83.57064000
15.35034180,-89.72885000
15.38085938,-91.57205000
15.41137695,-97.90491000
15.44189453,-95.13653000
15.47241211,-89.62184000
15.50292969,-87.50482000
15.53344727,-84.46220000
15.56396484,-85.23438000
15.59448242,-94.88732000
15.62500000,-85.92613000
15.65551758,-82.87545000
15.68603516,-85.44686000
15.71655273,-90.91057000
15.74707031,-90.50057000
15.77758789,-85.62817000
15.80810547,-83.30437000
15.83862305,-84.49075000
15.86914063,-90.06036000
15.89965820,-93.66390000
15.93017578,-88.17596000
15.96069336,-89.04290000
15.99121094,-92.99160000
16.02172852,-93.64033000
16.05224609,-88.44265000
16.08276367,-84.51283000
16.11328125,-84.95062000
16.14379883,-89.23618000
16.17431641,-89.79507000
16.20483398,-89.26102000
16.23535156,-93.91010000
16.26586914,-99.52444000
16.29638672,-96.46811000
16.32690430,-97.68512000
16.35742188,-103.06670000
16.38793945,-95.06482000
16.41845703,-86.91486000
16.44897461,-85.46069000
16.47949219,-91.15220000
16.51000977,-91.77997000
16.54052734,-85.52516000
16.57104492,-85.64038000
16.60156250,-85.62241000
16.63208008,-84.53274000
16.66259766,-85.84884000
16.69311523,-87.56525000
16.72363281,-87.69746000
16.75415039,-88.13958000
16.78466797,-87.66281000
16.81518555,-86.90216000
16.84570313,-87.93649000
16.87622070,-91.29905000
16.90673828,-97.38583000
16.93725586,-99.65237000
16.96777344,-92.38998000
16.99829102,-88.94966000
17.02880859,-87.97089000
17.05932617,-89.46143000
17.08984375,-93.42688000
17.12036133,-96.10871000
17.15087891,-98.60846000
17.18139648,-100.04260000
17.21191406,-95.25440000
17.24243164,-97.50237000
17.27294922,-99.11155000
17.30346680,-91.09041000
17.33398438,-89.63927000
17.36450195,-93.43585000
17.39501953,-109.10650000
17.42553711,-90.12637000
17.45605469,-85.14977000
17.48657227,-83.66543000
17.51708984,-84.01971000
17.54760742,-85.20653000
17.57812500,-87.15636000
17.60864258,-89.66577000
17.63916016,-94.00841000
17.66967773,-99.76492000
17.70019531,-85.55275000
17.73071289,-81.89359000
17.76123047,-82.23392000
17.79174805,-84.65567000
17.82226563,-87.17224000
17.85278320,-89.58345000
17.88330078,-91.28368000
17.91381836,-92.48524000
17.94433594,-94.81520000
17.97485352,-96.44312000
18.00537109,-97.74925000
18.03588867,-100.64910000
18.06640625,-95.84906000
18.09692383,-92.78382000
18.12744141,-91.62489000
18.15795898,-91.32912000
18.18847656,-92.91064000
18.21899414,-98.67699000
18.24951172,-108.72180000
18.28002930,-98.97609000
18.31054688,-95.19562000
18.34106445,-92.90233000
18.37158203,-94.03148000
18.40209961,-101.85170000
18.43261719,-106.42140000
18.46313477,-102.54550000
18.49365234,-96.21857000
18.52416992,-90.70369000
18.55468750,-88.50488000
18.58520508,-88.96629000
18.61572266,-92.38831000
18.64624023,-96.65913000
18.67675781,-94.81497000
18.70727539,-94.88715000
18.73779297,-96.20606000
18.76831055,-93.72688000
18.79882813,-91.38660000
18.82934570,-91.39799000
18.85986328,-94.89061000
18.89038086,-106.44580000
18.92089844,-108.45850000
18.95141602,-107.28060000
18.98193359,-99.56166000
19.01245117,-96.59099000
19.04296875,-101.10580000
19.07348633,-110.18460000
19.10400391,-99.03639000
19.13452148,-98.60596000
19.16503906,-101.50340000
19.19555664,-106.02880000
19.22607422,-102.81180000
19.25659180,-99.14265000
19.28710938,-99.07783000
19.31762695,-101.62200000
19.34814453,-104.23140000
19.37866211,-102.03480000
19.40917969,-96.49460000
19.43969727,-92.22049000
19.47021484,-90.10525000
19.50073242,-90.03551000
19.53125000,-91.93292000
19.56176758,-95.32208000
19.59228516,-97.42776000
19.62280273,-98.77479000
19.65332031,-100.78780000
19.68383789,-95.51785000
19.71435547,-92.81681000
19.74487305,-94.20068000
19.77539063,-99.95474000
19.80590820,-101.88150000
19.83642578,-96.54236000
19.86694336,-94.08288000
19.89746094,-93.40275000
19.92797852,-93.79834000
19.95849609,-95.55522000
19.98901367,-101.80910000
20.01953125,-105.72220000
20.05004883,-96.08745000
20.08056641,-93.09294000
20.11108398,-90.70302000
20.14160156,-89.90566000
20.17211914,-92.18803000
20.20263672,-93.02420000
20.23315430,-91.60069000
20.26367188,-92.18026000
20.29418945,-89.05173000
20.32470703,-86.82143000
20.35522461,-87.27518000
20.38574219,-87.82059000
20.41625977,-89.06281000
20.44677734,-93.71947000
20.47729492,-89.51472000
20.50781250,-84.76837000
20.53833008,-82.06680000
20.56884766,-80.34265000
20.59936523,-79.70153000
20.62988281,-79.87476000
20.66040039,-81.30898000
20.69091797,-86.06369000
20.72143555,-93.53133000
20.75195313,-87.65392000
20.78247070,-86.38972000
20.81298828,-87.96278000
20.84350586,-91.53602000
20.87402344,-94.29169000
20.90454102,-92.10522000
20.93505859,-90.22054000
20.96557617,-88.09861000
20.99609375,-87.03426000
21.02661133,-88.26465000
21.05712891,-90.11043000
21.08764648,-87.89519000
21.11816406,-86.20024000
21.14868164,-88.27462000
21.17919922,-100.07830000
21.20971680,-92.13461000
21.24023438,-87.43577000
21.27075195,-87.78021000
21.30126953,-89.79423000
21.33178711,-90.60902000
21.36230469,-90.07582000
21.39282227,-89.53139000
21.42333984,-90.57382000
21.45385742,-93.81015000
21.48437500,-101.99820000
21.51489258,-99.95564000
21.54541016,-91.89493000
21.57592773,-89.67717000
21.60644531,-88.95509000
21.63696289,-89.26495000
21.66748047,-93.24992000
21.69799805,-102.57200000
21.72851563,-92.72760000
21.75903320,-89.75921000
21.78955078,-90.44608000
21.82006836,-92.45102000
21.85058594,-89.74059000
21.88110352,-88.12343000
21.91162109,-90.33708000
21.94213867,-97.15621000
21.97265625,-98.99097000
22.00317383,-94.45283000
22.03369141,-92.73418000
22.06420898,-93.89119000
22.09472656,-97.44294000
22.12524414,-99.27187000
22.15576172,-104.58950000
22.18627930,-95.06268000
22.21679688,-90.53523000
22.24731445,-90.10175000
22.27783203,-90.51693000
22.30834961,-91.10445000
22.33886719,-94.84577000
22.36938477,-110.53310000
22.39990234,-97.97353000
22.43041992,-90.98267000
22.46093750,-89.07307000
22.49145508,-93.10574000
22.52197266,-97.37450000
22.55249023,-88.94759000
22.58300781,-88.14063000
22.61352539,-91.25507000
22.64404297,-95.45035000
22.67456055,-99.33180000
22.70507813,-103.18890000
22.73559570,-106.95450000
22.76611328,-106.71970000
22.79663086,-108.64560000
22.82714844,-97.47814000
22.85766602,-92.15956000
22.88818359,-90.29674000
22.91870117,-90.04529000
22.94921875,-90.20584000
22.97973633,-91.31046000
23.01025391,-95.30708000
23.04077148,-99.16634000
23.07128906,-101.83040000
23.10180664,-103.93290000
23.13232422,-96.88363000
23.16284180,-92.71442000
23.19335938,-89.10430000
23.22387695,-88.29815000
23.25439453,-90.17595000
23.28491211,-93.15617000
23.31542969,-96.05103000
23.34594727,-102.89070000
23.37646484,-104.80220000
23.40698242,-94.40562000
23.43750000,-91.72282000
23.46801758,-93.17842000
23.49853516,-100.78840000
23.52905273,-96.30853000
23.55957031,-89.90834000
23.59008789,-88.98645000
23.62060547,-92.81190000
23.65112305,-99.08921000
23.68164063,-95.62071000
23.71215820,-97.07066000
23.74267578,-102.77500000
23.77319336,-108.65530000
23.80371094,-103.65700000
23.83422852,-96.48392000
23.86474609,-94.14218000
23.89526367,-95.85655000
23.92578125,-96.32527000
23.95629883,-90.21489000
23.98681641,-88.74107000
24.01733398,-91.48042000
24.04785156,-96.30802000
24.07836914,-98.01731000
24.10888672,-96.72066000
24.13940430,-92.72813000
24.16992188,-88.44410000
24.20043945,-86.70779000
24.23095703,-88.03003000
24.26147461,-92.12426000
24.29199219,-95.96492000
24.32250977,-94.17108000
24.35302734,-91.08352000
24.38354492,-89.45007000
24.41406250,-90.21767000
24.44458008,-93.61665000
24.47509766,-96.22295000
24.50561523,-91.37008000
24.53613281,-89.40048000
24.56665039,-91.29010000
24.59716797,-97.33307000
24.62768555,-107.58360000
24.65820313,-97.50749000
24.68872070,-94.64225000
24.71923828,-95.99850000
24.74975586,-100.53210000
24.78027344,-104.34670000
24.81079102,-100.74490000
24.84130859,-95.61115000
24.87182617,-93.33234000
24.90234375,-94.50584000
24.93286133,-100.58180000
24.96337891,-111.47870000
24.99389648,-109.20790000
25.02441406,-101.95270000
25.05493164,-95.28312000
25.08544922,-94.31700000
25.11596680,-96.36295000
25.14648438,-91.96298000
25.17700195,-89.27541000
25.20751953,-91.61537000
25.23803711,-103.54780000
25.26855469,-94.93800000
25.29907227,-90.87965000
25.32958984,-90.79895000
25.36010742,-93.04050000
25.39062500,-98.39234000
25.42114258,-108.25650000
25.45166016,-103.81110000
25.48217773,-104.36150000
25.51269531,-110.34730000
25.54321289,-117.50570000
25.57373047,-112.28790000
25.60424805,-98.09248000
25.63476563,-92.33289000
25.66528320,-90.72739000
25.69580078,-92.44385000
25.72631836,-97.99165000
25.75683594,-121.22540000
25.78735352,-104.69450000
25.81787109,-116.23180000
25.84838867,-96.48190000
25.87890625,-92.60678000
25.90942383,-95.50874000
25.93994141,-103.92340000
25.97045898,-100.00870000
26.00097656,-98.23280000
26.03149414,-96.87652000
26.06201172,-97.93446000
26.09252930,-98.31158000
26.12304688,-97.87036000
26.15356445,-92.47250000
26.18408203,-88.19993000
26.21459961,-88.09452000
26.24511719,-92.54594000
26.27563477,-101.22120000
26.30615234,-98.18463000
26.33666992,-99.17073000
26.36718750,-103.08360000
26.39770508,-98.54910000
26.42822266,-96.63007000
26.45874023,-98.12310000
26.48925781,-92.54821000
26.51977539,-88.43711000
26.55029297,-88.55859000
26.58081055,-93.33420000
26.61132813,-118.69800000
26.64184570,-96.14470000
26.67236328,-92.41669000
26.70288086,-93.70523000
26.73339844,-99.00558000
26.76391602,-102.98650000
26.79443359,-98.46710000
26.82495117,-92.08459000
26.85546875,-91.26503000
26.88598633,-97.63937000
26.91650391,-101.13060000
26.94702148,-93.76985000
26.97753906,-94.47079000
27.00805664,-98.94913000
27.03857422,-100.63020000
27.06909180,-97.19428000
27.09960938,-95.29488000
27.13012695,-94.86664000
27.16064453,-93.42029000
27.19116211,-91.13837000
27.22167969,-90.73343000
27.25219727,-93.35580000
27.28271484,-100.72470000
27.31323242,-105.88110000
27.34375000,-97.30412000
27.37426758,-96.45654000
27.40478516,-103.57040000
27.43530273,-104.25460000
27.46582031,-98.04475000
27.49633789,-98.95382000
27.52685547,-100.82880000
27.55737305,-99.37954000
27.58789063,-102.28440000
27.61840820,-104.63290000
27.64892578,-92.88860000
27.67944336,-90.02358000
27.70996094,-91.34568000
27.74047852,-96.08451000
27.77099609,-99.76546000
27.80151367,-95.50732000
27.83203125,-92.97263000
27.86254883,-94.00826000
27.89306641,-96.49524000
27.92358398,-95.82169000
27.95410156,-95.77500000
27.98461914,-96.53522000
28.01513672,-96.47811000
28.04565430,-98.01389000
28.07617188,-100.54450000
28.10668945,-98.21722000
28.13720703,-97.13657000
28.16772461,-94.86385000
28.19824219,-92.76756000
28.22875977,-93.86742000
28.25927734,-97.24507000
28.28979492,-96.56349000
28.32031250,-94.87573000
28.35083008,-95.49496000
28.38134766,-97.43321000
28.41186523,-97.73919000
28.44238281,-96.49579000
28.47290039,-94.42630000
28.50341797,-92.53004000
28.53393555,-92.03041000
28.56445313,-92.65972000
28.59497070,-93.12811000
28.62548828,-93.80310000
28.65600586,-96.69597000
28.68652344,-102.28980000
28.71704102,-100.49190000
28.74755859,-97.55367000
28.77807617,-98.66219000
28.80859375,-107.08540000
28.83911133,-101.40660000
28.86962891,-99.19635000
28.90014648,-102.96320000
28.93066406,-109.97900000
28.96118164,-104.99470000
28.99169922,-102.16830000
29.02221680,-98.91678000
29.05273438,-95.48456000
29.08325195,-95.01936000
29.11376953,-95.54536000
29.14428711,-95.95204000
29.17480469,-96.51134000
29.20532227,-97.17973000
29.23583984,-98.45940000
29.26635742,-100.75620000
29.29687500,-105.07170000
29.32739258,-105.61270000
29.35791016,-99.65781000
29.38842773,-97.13264000
29.41894531,-98.68748000
29.44946289,-100.36130000
29.47998047,-96.77058000
29.51049805,-94.27386000
29.54101563,-92.67671000
29.57153320,-91.58739000
29.60205078,-91.59138000
29.63256836,-93.07259000
29.66308594,-96.44012000
29.69360352,-105.31870000
29.72412109,-105.69520000
29.75463867,-104.71160000
29.78515625,-98.12962000
29.81567383,-92.40186000
29.84619141,-92.53011000
29.87670898,-100.02250000
29.90722656,-101.61040000
29.93774414,-94.45569000
29.96826172,-92.97923000
29.99877930,-92.12160000
30.02929688,-90.34020000
30.05981445,-89.39502000
30.09033203,-90.97199000
30.12084961,-96.15828000
30.15136719,-100.91610000
30.18188477,-97.31300000
30.21240234,-97.17239000
30.24291992,-103.52340000
30.27343750,-102.34350000
30.30395508,-94.98069000
30.33447266,-93.79600000
30.36499023,-96.81068000
30.39550781,-105.96600000
30.42602539,-101.05220000
30.45654297,-97.10365000
30.48706055,-95.19325000
30.51757813,-94.36211000
30.54809570,-95.84485000
30.57861328,-96.71558000
30.60913086,-93.27031000
30.63964844,-90.78999000
30.67016602,-89.66281000
30.70068359,-89.58157000
30.73120117,-90.23276000
30.76171875,-91.31445000
30.79223633,-95.31273000
30.82275391,-101.04820000
30.85327148,-93.02885000
30.88378906,-91.46635000
30.91430664,-93.54256000
30.94482422,-97.04723000
30.97534180,-98.69966000
31.00585938,-96.80660000
31.03637695,-94.23416000
31.06689453,-92.88003000
31.09741211,-92.20845000
31.12792969,-92.09628000
31.15844727,-92.57377000
31.18896484,-92.71002000
31.21948242,-94.45733000
31.25000000,-101.02700000
31.28051758,-109.45370000
31.31103516,-100.55100000
31.34155273,-97.68159000
31.37207031,-97.14395000
31.40258789,-98.79297000
31.43310547,-102.67070000
31.46362305,-97.81586000
31.49414063,-93.61800000
31.52465820,-93.29364000
31.55517578,-93.98376000
31.58569336,-92.52170000
31.61621094,-93.17028000
31.64672852,-99.78374000
31.67724609,-98.19975000
31.70776367,-92.87243000
31.73828125,-92.24550000
31.76879883,-93.55926000
31.79931641,-94.23816000
31.82983398,-92.65334000
31.86035156,-90.70400000
31.89086914,-91.07102000
31.92138672,-96.82137000
31.95190430,-104.14450000
31.98242188,-95.36637000
32.01293945,-96.73257000
32.04345703,-105.03820000
32.07397461,-101.18480000
32.10449219,-98.13249000
32.13500977,-98.47973000
32.16552734,-100.20990000
32.19604492,-101.92790000
32.22656250,-102.23910000
32.25708008,-101.89070000
32.28759766,-101.10160000
32.31811523,-97.92858000
32.34863281,-96.00556000
32.37915039,-97.30019000
32.40966797,-99.68647000
32.44018555,-95.12325000
32.47070313,-90.03412000
32.50122070,-87.94394000
32.53173828,-89.07368000
32.56225586,-93.29698000
32.59277344,-98.06940000
32.62329102,-101.25630000
32.65380859,-106.84210000
32.68432617,-107.32660000
32.71484375,-103.57370000
32.74536133,-96.40255000
32.77587891,-93.40176000
32.80639648,-94.94946000
32.83691406,-102.82440000
32.86743164,-106.21370000
32.89794922,-102.29340000
32.92846680,-103.13460000
32.95898438,-101.13130000
32.98950195,-98.32535000
33.02001953,-96.69106000
33.05053711,-95.71252000
33.08105469,-95.29254000
33.11157227,-96.01874000
33.14208984,-99.38454000
33.17260742,-102.88520000
33.20312500,-96.89919000
33.23364258,-94.63074000
33.26416016,-95.94031000
33.29467773,-98.14806000
33.32519531,-98.37291000
33.35571289,-102.78460000
33.38623047,-100.94270000
33.41674805,-95.35690000
33.44726563,-95.50285000
33.47778320,-99.55200000
33.50830078,-104.41210000
33.53881836,-111.27700000
33.56933594,-104.22470000
33.59985352,-100.55780000
33.63037109,-102.26070000
33.66088867,-96.17526000
33.69140625,-93.08717000
33.72192383,-94.68449000
33.75244141,-97.06607000
33.78295898,-95.78362000
33.81347656,-97.25928000
33.84399414,-102.36190000
33.87451172,-101.11710000
33.90502930,-96.25083000
33.93554688,-94.95800000
33.96606445,-96.20960000
33.99658203,-97.23534000
34.02709961,-95.96283000
34.05761719,-94.48660000
34.08813477,-93.05045000
34.11865234,-91.61838000
34.14916992,-92.42631000
34.17968750,-96.29487000
34.21020508,-97.37787000
34.24072266,-96.21210000
34.27124023,-97.92235000
34.30175781,-99.19498000
34.33227539,-98.90807000
34.36279297,-102.86040000
34.39331055,-110.04810000
34.42382813,-101.56510000
34.45434570,-102.77850000
34.48486328,-104.15160000
34.51538086,-96.29991000
34.54589844,-92.57148000
34.57641602,-90.93986000
34.60693359,-91.23889000
34.63745117,-93.78666000
34.66796875,-98.93806000
34.69848633,-106.92020000
34.72900391,-110.74180000
34.75952148,-113.30770000
34.79003906,-100.36100000
34.82055664,-98.17437000
34.85107422,-99.58673000
34.88159180,-97.18627000
34.91210938,-96.06416000
34.94262695,-102.16290000
34.97314453,-101.63630000
35.00366211,-92.35028000
35.03417969,-89.99131000
35.06469727,-90.71394000
35.09521484,-93.05408000
35.12573242,-95.38646000
35.15625000,-98.23053000
35.18676758,-102.32010000
35.21728516,-102.54590000
35.24780273,-104.59420000
35.27832031,-104.12770000
35.30883789,-99.77750000
35.33935547,-100.81420000
35.36987305,-107.29140000
35.40039063,-102.29850000
35.43090820,-94.97896000
35.46142578,-91.71602000
35.49194336,-91.53705000
35.52246094,-93.91556000
35.55297852,-96.79987000
35.58349609,-98.98742000
35.61401367,-104.55700000
35.64453125,-106.87420000
35.67504883,-97.31944000
35.70556641,-94.60591000
35.73608398,-95.98289000
35.76660156,-97.03487000
35.79711914,-95.06313000
35.82763672,-94.13110000
35.85815430,-93.56957000
35.88867188,-92.93900000
35.91918945,-92.63533000
35.94970703,-92.97721000
35.98022461,-94.52132000
36.01074219,-97.11044000
36.04125977,-101.05530000
36.07177734,-102.75610000
36.10229492,-98.96580000
36.13281250,-99.15936000
36.16333008,-101.45600000
36.19384766,-107.19680000
36.22436523,-105.19350000
36.25488281,-99.37022000
36.28540039,-102.02440000
36.31591797,-120.56110000
36.34643555,-104.92650000
36.37695313,-106.18220000
36.40747070,-117.48590000
36.43798828,-108.81150000
36.46850586,-101.31910000
36.49902344,-100.22760000
36.52954102,-103.97880000
36.56005859,-109.13190000
36.59057617,-106.67690000
36.62109375,-103.93960000
36.65161133,-107.83560000
36.68212891,-115.95050000
36.71264648,-106.05610000
36.74316406,-108.37290000
36.77368164,-110.21270000
36.80419922,-107.68810000
36.83471680,-101.56490000
36.86523438,-98.28231000
36.89575195,-97.13673000
36.92626953,-96.40556000
36.95678711,-95.88706000
36.98730469,-95.97417000
37.01782227,-97.56008000
37.04833984,-99.23164000
37.07885742,-96.58410000
37.10937500,-94.83218000
37.13989258,-96.18620000
37.17041016,-100.50040000
37.20092773,-106.57590000
37.23144531,-107.24740000
37.26196289,-101.53240000
37.29248047,-100.16200000
37.32299805,-103.18970000
37.35351563,-112.05270000
37.38403320,-104.25510000
37.41455078,-99.91029000
37.44506836,-99.77953000
37.47558594,-103.68420000
37.50610352,-112.71510000
37.53662109,-116.58590000
37.56713867,-109.87260000
37.59765625,-108.95430000
37.62817383,-111.64860000
37.65869141,-109.86040000
37.68920898,-108.06770000
37.71972656,-102.13520000
37.75024414,-98.28419000
37.78076172,-95.40173000
37.81127930,-93.94833000
37.84179688,-93.55418000
37.87231445,-93.61253000
37.90283203,-95.37421000
37.93334961,-98.56331000
37.96386719,-97.46324000
37.99438477,-96.39088000
38.02490234,-99.13143000
38.05541992,-103.77620000
38.08593750,-101.76870000
38.11645508,-100.94850000
38.14697266,-101.22220000
38.17749023,-101.86800000
38.20800781,-105.24180000
38.23852539,-109.11090000
38.26904297,-99.34666000
38.29956055,-95.73856000
38.33007813,-94.81131000
38.36059570,-94.77859000
38.39111328,-95.85498000
38.42163086,-97.90143000
38.45214844,-98.94014000
38.48266602,-98.39024000
38.51318359,-98.29395000
38.54370117,-98.75739000
38.57421875,-97.74932000
38.60473633,-96.60076000
38.63525391,-96.68973000
38.66577148,-97.73816000
38.69628906,-97.57021000
38.72680664,-95.73933000
38.75732422,-94.31530000
38.78784180,-94.88489000
38.81835938,-98.64829000
38.84887695,-99.59637000
38.87939453,-101.42280000
38.90991211,-94.99471000
38.94042969,-89.69932000
38.97094727,-89.27945000
39.00146484,-92.86903000
39.03198242,-102.24920000
39.06250000,-99.08738000
39.09301758,-93.61428000
39.12353516,-91.54084000
39.15405273,-90.59953000
39.18457031,-89.93069000
39.21508789,-89.89773000
39.24560547,-90.94391000
39.27612305,-93.26794000
39.30664063,-99.27979000
39.33715820,-102.49340000
39.36767578,-94.46288000
39.39819336,-91.00266000
39.42871094,-89.60212000
39.45922852,-90.01492000
39.48974609,-91.79146000
39.52026367,-94.46635000
39.55078125,-97.08961000
39.58129883,-97.64660000
39.61181641,-95.96786000
39.64233398,-95.01610000
39.67285156,-97.41307000
39.70336914,-102.00340000
39.73388672,-102.72990000
39.76440430,-106.49430000
39.79492188,-104.53690000
39.82543945,-102.64330000
39.85595703,-96.62981000
39.88647461,-94.38353000
39.91699219,-95.40247000
39.94750977,-91.25866000
39.97802734,-86.27715000
40.00854492,-84.41302000
40.03906250,-85.14683000
40.06958008,-86.85359000
40.10009766,-87.10693000
40.13061523,-87.34074000
40.16113281,-89.35577000
40.19165039,-94.16886000
40.22216797,-104.94830000
40.25268555,-105.35870000
40.28320313,-100.68590000
40.31372070,-101.35810000
40.34423828,-102.44380000
40.37475586,-100.03070000
40.40527344,-98.79298000
40.43579102,-92.35783000
40.46630859,-87.97532000
40.49682617,-86.67917000
40.52734375,-87.80258000
40.55786133,-89.77086000
40.58837891,-89.82497000
40.61889648,-90.10921000
40.64941406,-93.43945000
40.67993164,-96.89337000
40.71044922,-93.02029000
40.74096680,-91.64368000
40.77148438,-92.91363000
40.80200195,-94.67024000
40.83251953,-90.99017000
40.86303711,-86.13303000
40.89355469,-83.96453000
40.92407227,-84.09039000
40.95458984,-85.61001000
40.98510742,-87.30699000
41.01562500,-87.32033000
41.04614258,-86.93137000
41.07666016,-88.77372000
41.10717773,-95.83619000
41.13769531,-101.55850000
41.16821289,-91.85014000
41.19873047,-91.39962000
41.22924805,-96.05697000
41.25976563,-100.48360000
41.29028320,-98.14098000
41.32080078,-96.78802000
41.35131836,-95.87563000
41.38183594,-95.45030000
41.41235352,-96.04517000
41.44287109,-93.00109000
41.47338867,-89.93016000
41.50390625,-90.97511000
41.53442383,-94.32910000
41.56494141,-93.45864000
41.59545898,-93.48204000
41.62597656,-92.24234000
41.65649414,-90.37139000
41.68701172,-90.05566000
41.71752930,-89.89429000
41.74804688,-91.90602000
41.77856445,-98.53783000
41.80908203,-95.02682000
41.83959961,-93.28009000
41.87011719,-88.56786000
41.90063477,-83.13969000
41.93115234,-80.57071000
41.96166992,-80.81792000
41.99218750,-84.06914000
42.02270508,-91.07384000
42.05322266,-101.19930000
42.08374023,-101.09820000
42.11425781,-101.48710000
42.14477539,-97.12376000
42.17529297,-91.03453000
42.20581055,-88.45781000
42.23632813,-88.26779000
42.26684570,-88.40634000
42.29736328,-89.40487000
42.32788086,-94.09695000
42.35839844,-102.08370000
42.38891602,-93.21824000
42.41943359,-91.18034000
42.44995117,-93.27099000
42.48046875,-95.92406000
42.51098633,-89.04282000
42.54150391,-85.29955000
42.57202148,-85.75188000
42.60253906,-90.28058000
42.63305664,-97.46951000
42.66357422,-105.85420000
42.69409180,-96.62184000
42.72460938,-92.92525000
42.75512695,-96.91953000
42.78564453,-106.62150000
42.81616211,-94.84691000
42.84667969,-94.70433000
42.87719727,-93.96727000
42.90771484,-92.87727000
42.93823242,-95.63927000
42.96875000,-94.37102000
42.99926758,-91.08856000
43.02978516,-90.82905000
43.06030273,-93.62682000
43.09082031,-97.99419000
43.12133789,-95.37923000
43.15185547,-89.48898000
43.18237305,-84.72899000
43.21289063,-82.59193000
43.24340820,-83.13147000
43.27392578,-86.65704000
43.30444336,-94.20070000
43.33496094,-92.83558000
43.36547852,-89.20144000
43.39599609,-89.21271000
43.42651367,-91.01604000
43.45703125,-90.13078000
43.48754883,-87.85855000
43.51806641,-85.36710000
43.54858398,-83.59536000
43.57910156,-83.99559000
43.60961914,-86.91420000
43.64013672,-92.30905000
43.67065430,-93.94821000
43.70117188,-89.85324000
43.73168945,-88.42548000
43.76220703,-89.61921000
43.79272461,-91.59603000
43.82324219,-90.51083000
43.85375977,-87.21503000
43.88427734,-85.68515000
43.91479492,-87.00172000
43.94531250,-91.85273000
43.97583008,-105.64940000
44.00634766,-97.62796000
44.03686523,-92.19463000
44.06738281,-90.21342000
44.09790039,-89.58658000
44.12841797,-89.81205000
44.15893555,-90.50430000
44.18945313,-89.78299000
44.21997070,-88.68500000
44.25048828,-89.62090000
44.28100586,-93.87752000
44.31152344,-111.49590000
44.34204102,-96.04237000
44.37255859,-91.91360000
44.40307617,-93.95473000
44.43359375,-104.57080000
44.46411133,-121.68870000
44.49462891,-101.39570000
44.52514648,-92.57468000
44.55566406,-90.75610000
44.58618164,-93.11166000
44.61669922,-96.01581000
44.64721680,-92.63020000
44.67773438,-88.97650000
44.70825195,-87.02621000
44.73876953,-87.30084000
44.76928711,-90.07672000
44.79980469,-95.16364000
44.83032227,-99.84430000
44.86083984,-95.01466000
44.89135742,-91.99342000
44.92187500,-91.98746000
44.95239258,-94.89986000
44.98291016,-100.03050000
45.01342773,-92.51460000
45.04394531,-87.54324000
45.07446289,-86.39932000
45.10498047,-88.12967000
45.13549805,-91.25179000
45.16601563,-92.36424000
45.19653320,-90.95750000
45.22705078,-90.26366000
45.25756836,-91.69688000
45.28808594,-96.19176000
45.31860352,-108.62890000
45.34912109,-96.58576000
45.37963867,-92.36129000
45.41015625,-93.50839000
45.44067383,-102.82530000
45.47119141,-102.98620000
45.50170898,-97.32159000
45.53222656,-95.06651000
45.56274414,-92.14455000
45.59326172,-91.02813000
45.62377930,-92.60524000
45.65429688,-97.01955000
45.68481445,-93.43698000
45.71533203,-89.11297000
45.74584961,-88.63011000
45.77636719,-90.85088000
45.80688477,-93.74788000
45.83740234,-94.08642000
45.86791992,-91.98566000
45.89843750,-91.40556000
45.92895508,-92.79099000
45.95947266,-94.96319000
45.98999023,-96.36928000
46.02050781,-94.51653000
46.05102539,-92.78188000
46.08154297,-93.77720000
46.11206055,-97.79781000
46.14257813,-102.88800000
46.17309570,-104.93470000
46.20361328,-116.32530000
46.23413086,-101.49760000
46.26464844,-93.91933000
46.29516602,-91.39507000
46.32568359,-91.45720000
46.35620117,-92.32990000
46.38671875,-92.31861000
46.41723633,-91.78161000
46.44775391,-91.45653000
46.47827148,-90.72491000
46.50878906,-88.85162000
46.53930664,-87.13316000
46.56982422,-87.07478000
46.60034180,-89.28053000
46.63085938,-94.30412000
46.66137695,-103.00770000
46.69189453,-98.79928000
46.72241211,-95.03560000
46.75292969,-94.80885000
46.78344727,-96.92747000
46.81396484,-100.12770000
46.84448242,-101.99920000
46.87500000,-103.22230000
46.90551758,-107.55340000
46.93603516,-108.54630000
46.96655273,-104.01740000
46.99707031,-101.94040000
47.02758789,-101.46790000
47.05810547,-99.50790000
47.08862305,-94.67560000
47.11914063,-91.64886000
47.14965820,-91.39011000
47.18017578,-93.66097000
47.21069336,-97.79370000
47.24121094,-101.98240000
47.27172852,-104.32060000
47.30224609,-102.36380000
47.33276367,-99.85564000
47.36328125,-103.03560000
47.39379883,-103.45550000
47.42431641,-94.56384000
47.45483398,-92.13570000
47.48535156,-93.02074000
47.51586914,-95.56873000
47.54638672,-97.52415000
47.57690430,-97.95349000
47.60742188,-98.99567000
47.63793945,-101.42630000
47.66845703,-102.07560000
47.69897461,-102.37270000
47.72949219,-103.64690000
47.76000977,-102.05170000
47.79052734,-97.87926000
47.82104492,-94.81653000
47.85156250,-93.93567000
47.88208008,-95.39197000
47.91259766,-98.76465000
47.94311523,-100.98580000
47.97363281,-101.13770000
48.00415039,-101.45190000
48.03466797,-102.96440000
48.06518555,-99.39195000
48.09570313,-95.23094000
48.12622070,-93.33171000
48.15673828,-92.49841000
48.18725586,-92.07366000
48.21777344,-92.08665000
48.24829102,-93.66594000
48.27880859,-99.74136000
48.30932617,-102.69300000
48.33984375,-93.24841000
48.37036133,-90.37582000
48.40087891,-90.17870000
48.43139648,-91.08516000
48.46191406,-91.82526000
48.49243164,-91.84219000
48.52294922,-91.88595000
48.55346680,-93.55818000
48.58398438,-98.64954000
48.61450195,-113.92200000
48.64501953,-97.98657000
48.67553711,-92.30977000
48.70605469,-89.75915000
48.73657227,-90.33847000
48.76708984,-95.51589000
48.79760742,-106.94170000
48.82812500,-99.01930000
48.85864258,-97.87030000
48.88916016,-99.40423000
48.91967773,-100.49640000
48.95019531,-96.50936000
48.98071289,-95.90244000
49.01123047,-99.62546000
49.04174805,-92.77959000
49.07226563,-89.26299000
49.10278320,-89.38245000
49.13330078,-91.92651000
49.16381836,-97.51799000
49.19433594,-108.91870000
49.22485352,-98.28456000
49.25537109,-96.42354000
49.28588867,-99.01588000
49.31640625,-114.41370000
49.34692383,-95.65836000
49.37744141,-88.90970000
49.40795898,-87.15699000
49.43847656,-88.66996000
49.46899414,-92.63970000
49.49951172,-97.14977000
49.53002930,-97.80532000
49.56054688,-95.65990000
49.59106445,-94.00552000
49.62158203,-92.93161000
49.65209961,-91.13979000
49.68261719,-88.36581000
49.71313477,-86.39905000
49.74365234,-86.74728000
49.77416992,-90.46277000
49.80468750,-100.20610000
49.83520508,-95.72823000
49.86572266,-91.30927000
49.89624023,-91.37833000
49.92675781,-95.72015000
49.95727539,-105.60850000
49.98779297,-109.96500000
50.01831055,-97.06982000
