Frequency,Channel A
(MHz),(dBu)

0.00000000,-27.88636000
0.03051758,-28.21507000
0.06103516,-33.27487000
0.09155273,-42.73884000
0.12207031,-59.19910000
0.15258789,-67.67249000
0.18310547,-66.27370000
0.21362305,-72.71859000
0.24414063,-78.82497000
0.27465820,-71.26315000
0.30517578,-71.99071000
0.33569336,-69.41570000
0.36621094,-64.61517000
0.39672852,-59.12583000
0.42724609,-55.07076000
0.45776367,-53.11832000
0.48828125,-53.16455000
0.51879883,-54.40136000
0.54931641,-54.49695000
0.57983398,-50.67146000
0.61035156,-45.23645000
0.64086914,-41.60129000
0.67138672,-40.77334000
0.70190430,-43.11613000
0.73242188,-49.37787000
0.76293945,-63.05755000
0.79345703,-68.94097000
0.82397461,-65.69112000
0.85449219,-65.65152000
0.88500977,-65.14055000
0.91552734,-64.74693000
0.94604492,-60.24563000
0.97656250,-57.12457000
1.00708008,-56.60292000
1.03759766,-57.54245000
1.06811523,-58.74226000
1.09863281,-60.69186000
1.12915039,-65.02763000
1.15966797,-72.85683000
1.19018555,-73.58975000
1.22070313,-68.65487000
1.25122070,-66.41557000
1.28173828,-65.24895000
1.31225586,-65.36720000
1.34277344,-68.31277000
1.37329102,-75.48270000
1.40380859,-76.86792000
1.43432617,-73.00166000
1.46484375,-74.52602000
1.49536133,-81.52335000
1.52587891,-73.50986000
1.55639648,-68.76714000
1.58691406,-66.79383000
1.61743164,-65.65236000
1.64794922,-63.63173000
1.67846680,-62.03215000
1.70898438,-62.20683000
1.73950195,-63.86297000
1.77001953,-66.67632000
1.80053711,-72.88242000
1.83105469,-83.54475000
1.86157227,-75.14687000
1.89208984,-74.45766000
1.92260742,-75.74973000
1.95312500,-80.40611000
1.98364258,-85.85141000
2.01416016,-85.01923000
2.04467773,-77.37708000
2.07519531,-71.87505000
2.10571289,-69.31115000
2.13623047,-68.18682000
2.16674805,-67.94379000
2.19726563,-69.24096000
2.22778320,-73.68312000
2.25830078,-83.65154000
2.28881836,-80.28019000
2.31933594,-77.61714000
2.34985352,-77.45514000
2.38037109,-78.70638000
2.41088867,-81.39597000
2.44140625,-82.25220000
2.47192383,-80.67017000
2.50244141,-78.54287000
2.53295898,-75.76766000
2.56347656,-73.79360000
2.59399414,-73.26574000
2.62451172,-72.18686000
2.65502930,-70.07452000
2.68554688,-68.81873000
2.71606445,-68.59368000
2.74658203,-69.18667000
2.77709961,-70.76103000
2.80761719,-72.33397000
2.83813477,-71.59456000
2.86865234,-70.70307000
2.89916992,-71.29378000
2.92968750,-72.90182000
2.96020508,-74.38029000
2.99072266,-74.05162000
3.02124023,-72.03515000
3.05175781,-70.57582000
3.08227539,-71.34277000
3.11279297,-74.72016000
3.14331055,-78.21147000
3.17382813,-77.16649000
3.20434570,-76.68776000
3.23486328,-77.83725000
3.26538086,-78.44051000
3.29589844,-78.78299000
3.32641602,-79.11555000
3.35693359,-77.57112000
3.38745117,-77.38353000
3.41796875,-81.13173000
3.44848633,-79.99480000
3.47900391,-73.44048000
3.50952148,-70.47557000
3.54003906,-70.28509000
3.57055664,-71.99695000
3.60107422,-76.21684000
3.63159180,-83.71243000
3.66210938,-82.85536000
3.69262695,-82.57264000
3.72314453,-78.97662000
3.75366211,-80.35149000
3.78417969,-81.36267000
3.81469727,-76.85671000
3.84521484,-75.26523000
3.87573242,-74.21523000
3.90625000,-74.51030000
3.93676758,-75.80931000
3.96728516,-76.49627000
3.99780273,-77.96304000
4.02832031,-81.46239000
4.05883789,-78.86491000
4.08935547,-73.29757000
4.11987305,-70.99857000
4.15039063,-70.62230000
4.18090820,-70.79931000
4.21142578,-71.15239000
4.24194336,-71.54637000
4.27246094,-72.59718000
4.30297852,-76.21688000
4.33349609,-90.00157000
4.36401367,-81.38060000
4.39453125,-77.18495000
4.42504883,-79.31960000
4.45556641,-89.42654000
4.48608398,-84.84676000
4.51660156,-82.00793000
4.54711914,-83.41088000
4.57763672,-82.21478000
4.60815430,-81.19897000
4.63867188,-81.23486000
4.66918945,-81.50943000
4.69970703,-82.23588000
4.73022461,-80.40703000
4.76074219,-77.93884000
4.79125977,-78.94820000
4.82177734,-85.60083000
4.85229492,-83.49853000
4.88281250,-80.08354000
4.91333008,-81.84634000
4.94384766,-89.06807000
4.97436523,-93.71771000
5.00488281,-82.50754000
5.03540039,-77.68796000
5.06591797,-75.69396000
5.09643555,-76.33385000
5.12695313,-79.03174000
5.15747070,-79.84544000
5.18798828,-79.00362000
5.21850586,-79.88867000
5.24902344,-82.58755000
5.27954102,-85.38831000
5.31005859,-84.18678000
5.34057617,-84.97237000
5.37109375,-85.95066000
5.40161133,-80.91731000
5.43212891,-78.07583000
5.46264648,-78.19615000
5.49316406,-81.14807000
5.52368164,-86.18600000
5.55419922,-90.86626000
5.58471680,-86.90781000
5.61523438,-83.40562000
5.64575195,-82.55356000
5.67626953,-85.06410000
5.70678711,-82.87996000
5.73730469,-79.10337000
5.76782227,-79.06176000
5.79833984,-79.81129000
5.82885742,-80.88863000
5.85937500,-85.94150000
5.88989258,-92.10098000
5.92041016,-83.81454000
5.95092773,-80.74496000
5.98144531,-81.64311000
6.01196289,-90.74261000
6.04248047,-84.41167000
6.07299805,-79.25412000
6.10351563,-79.47860000
6.13403320,-85.01458000
6.16455078,-89.91013000
6.19506836,-77.89013000
6.22558594,-74.52054000
6.25610352,-74.71983000
6.28662109,-78.43442000
6.31713867,-85.31041000
6.34765625,-82.86849000
6.37817383,-80.82751000
6.40869141,-80.89257000
6.43920898,-82.24294000
6.46972656,-85.39547000
6.50024414,-85.87752000
6.53076172,-82.38464000
6.56127930,-83.12783000
6.59179688,-96.47919000
6.62231445,-81.87683000
6.65283203,-76.52224000
6.68334961,-75.36894000
6.71386719,-76.44673000
6.74438477,-79.23589000
6.77490234,-82.73454000
6.80541992,-80.66835000
6.83593750,-78.16658000
6.86645508,-78.38255000
6.89697266,-79.79900000
6.92749023,-79.19795000
6.95800781,-76.53109000
6.98852539,-74.98988000
7.01904297,-76.08216000
7.04956055,-80.77254000
7.08007813,-88.04577000
7.11059570,-82.68452000
7.14111328,-79.68648000
7.17163086,-79.51617000
7.20214844,-82.10229000
7.23266602,-88.03058000
7.26318359,-92.40134000
7.29370117,-90.91953000
7.32421875,-90.15555000
7.35473633,-87.06020000
7.38525391,-82.93281000
7.41577148,-79.43933000
7.44628906,-77.36426000
7.47680664,-77.04608000
7.50732422,-78.87968000
7.53784180,-83.55307000
7.56835938,-84.47453000
7.59887695,-79.65968000
7.62939453,-77.53420000
7.65991211,-77.44401000
7.69042969,-78.71230000
7.72094727,-80.40936000
7.75146484,-80.88937000
7.78198242,-79.68347000
7.81250000,-78.36747000
7.84301758,-77.88797000
7.87353516,-78.00208000
7.90405273,-78.17721000
7.93457031,-78.30669000
7.96508789,-78.53556000
7.99560547,-78.93954000
8.02612305,-79.31553000
8.05664063,-79.10880000
8.08715820,-78.48534000
8.11767578,-78.52383000
8.14819336,-80.19464000
8.17871094,-84.73059000
8.20922852,-96.12840000
8.23974609,-93.03062000
8.27026367,-89.43719000
8.30078125,-87.60278000
8.33129883,-85.37171000
8.36181641,-83.44688000
8.39233398,-81.92369000
8.42285156,-81.67168000
8.45336914,-83.27340000
8.48388672,-87.14032000
8.51440430,-89.62070000
8.54492188,-84.12698000
8.57543945,-80.55083000
8.60595703,-79.47781000
8.63647461,-80.36501000
8.66699219,-82.18294000
8.69750977,-82.92241000
8.72802734,-82.56096000
8.75854492,-82.85390000
8.78906250,-84.82693000
8.81958008,-89.00861000
8.85009766,-90.90523000
8.88061523,-88.16169000
8.91113281,-87.62206000
8.94165039,-89.46452000
8.97216797,-90.03666000
9.00268555,-86.47009000
9.03320313,-83.57855000
9.06372070,-82.10677000
9.09423828,-81.98473000
9.12475586,-83.61909000
9.15527344,-85.74170000
9.18579102,-84.51148000
9.21630859,-84.15905000
9.24682617,-86.64897000
9.27734375,-90.66357000
9.30786133,-87.61605000
9.33837891,-81.68784000
9.36889648,-79.14230000
9.39941406,-79.75303000
9.42993164,-83.92651000
9.46044922,-91.12581000
9.49096680,-87.16840000
9.52148438,-84.82067000
9.55200195,-85.25746000
9.58251953,-87.46111000
9.61303711,-91.42741000
9.64355469,-104.91340000
9.67407227,-89.77792000
9.70458984,-84.37294000
9.73510742,-83.41386000
9.76562500,-85.56062000
9.79614258,-88.99482000
9.82666016,-91.21189000
9.85717773,-88.90036000
9.88769531,-85.67249000
9.91821289,-87.10675000
9.94873047,-95.60792000
9.97924805,-93.82674000
10.00976563,-91.08540000
10.04028320,-87.97206000
10.07080078,-83.81515000
10.10131836,-82.33784000
10.13183594,-83.45230000
10.16235352,-87.33553000
10.19287109,-89.35439000
10.22338867,-87.37859000
10.25390625,-87.67892000
10.28442383,-87.07406000
10.31494141,-84.14918000
10.34545898,-82.59076000
10.37597656,-82.82609000
10.40649414,-84.20407000
10.43701172,-87.31857000
10.46752930,-96.99240000
10.49804688,-92.78648000
10.52856445,-84.89705000
10.55908203,-81.62581000
10.58959961,-79.91621000
10.62011719,-79.62958000
10.65063477,-80.41866000
10.68115234,-80.93459000
10.71166992,-81.56255000
10.74218750,-83.02227000
10.77270508,-83.39362000
10.80322266,-81.07101000
10.83374023,-78.96934000
10.86425781,-79.04008000
10.89477539,-81.91217000
10.92529297,-87.56207000
10.95581055,-84.40910000
10.98632813,-80.61599000
11.01684570,-81.55715000
11.04736328,-91.45222000
11.07788086,-86.34431000
11.10839844,-80.13030000
11.13891602,-79.04169000
11.16943359,-79.83112000
11.19995117,-81.03229000
11.23046875,-81.51964000
11.26098633,-80.49321000
11.29150391,-78.80832000
11.32202148,-77.57881000
11.35253906,-76.63909000
11.38305664,-76.11411000
11.41357422,-76.47742000
11.44409180,-76.54353000
11.47460938,-75.79881000
11.50512695,-76.50586000
11.53564453,-79.03504000
11.56616211,-79.14825000
11.59667969,-76.00698000
11.62719727,-74.38889000
11.65771484,-74.81773000
11.68823242,-76.91841000
11.71875000,-80.30849000
11.74926758,-82.31178000
11.77978516,-76.86267000
11.81030273,-73.03362000
11.84082031,-72.52757000
11.87133789,-75.05628000
11.90185547,-79.26961000
11.93237305,-79.52777000
11.96289063,-78.29457000
11.99340820,-78.90155000
12.02392578,-81.11543000
12.05444336,-83.37895000
12.08496094,-83.19434000
12.11547852,-82.22923000
12.14599609,-82.52620000
12.17651367,-85.39462000
12.20703125,-89.05669000
12.23754883,-83.83961000
12.26806641,-81.85217000
12.29858398,-82.30707000
12.32910156,-82.83972000
12.35961914,-82.84911000
12.39013672,-83.19367000
12.42065430,-84.66396000
12.45117188,-87.33459000
12.48168945,-86.04545000
12.51220703,-80.06944000
12.54272461,-75.93529000
12.57324219,-74.32986000
12.60375977,-75.00351000
12.63427734,-77.27235000
12.66479492,-78.83031000
12.69531250,-77.65434000
12.72583008,-75.76510000
12.75634766,-74.83405000
12.78686523,-75.69035000
12.81738281,-79.01627000
12.84790039,-81.98182000
12.87841797,-79.55534000
12.90893555,-78.79831000
12.93945313,-79.71510000
12.96997070,-79.70791000
13.00048828,-77.76128000
13.03100586,-75.34000000
13.06152344,-74.40128000
13.09204102,-75.74607000
13.12255859,-79.18110000
13.15307617,-78.52002000
13.18359375,-75.11009000
13.21411133,-74.19212000
13.24462891,-75.41261000
13.27514648,-77.48625000
13.30566406,-78.20535000
13.33618164,-76.90408000
13.36669922,-76.14182000
13.39721680,-76.92560000
13.42773438,-77.34373000
13.45825195,-75.66122000
13.48876953,-73.00862000
13.51928711,-69.88119000
13.54980469,-67.80296000
13.58032227,-67.85211000
13.61083984,-70.02069000
13.64135742,-73.04881000
13.67187500,-74.45903000
13.70239258,-73.49628000
13.73291016,-72.30650000
13.76342773,-72.51095000
13.79394531,-73.93300000
13.82446289,-75.37206000
13.85498047,-77.14618000
13.88549805,-79.53339000
13.91601563,-78.84438000
13.94653320,-77.61496000
13.97705078,-78.48998000
14.00756836,-81.25818000
14.03808594,-84.69405000
14.06860352,-85.12955000
14.09912109,-83.43411000
14.12963867,-82.02686000
14.16015625,-80.56532000
14.19067383,-79.55932000
14.22119141,-79.40962000
14.25170898,-79.48451000
14.28222656,-79.34399000
14.31274414,-80.05408000
14.34326172,-84.22000000
14.37377930,-89.11003000
14.40429688,-78.55676000
14.43481445,-74.57027000
14.46533203,-73.95314000
14.49584961,-76.16873000
14.52636719,-81.82086000
14.55688477,-95.99744000
14.58740234,-88.66713000
14.61791992,-83.54427000
14.64843750,-81.81931000
14.67895508,-81.31738000
14.70947266,-81.49704000
14.73999023,-82.98080000
14.77050781,-86.62126000
14.80102539,-95.44021000
14.83154297,-90.98895000
14.86206055,-84.63592000
14.89257813,-82.88697000
14.92309570,-82.87144000
14.95361328,-83.77143000
14.98413086,-84.54934000
15.01464844,-81.00704000
15.04516602,-77.95072000
15.07568359,-77.85266000
15.10620117,-81.39545000
15.13671875,-91.72207000
15.16723633,-93.65189000
15.19775391,-84.88370000
15.22827148,-80.69743000
15.25878906,-78.99661000
15.28930664,-78.83031000
15.31982422,-79.76506000
15.35034180,-81.38256000
15.38085938,-82.40616000
15.41137695,-84.27284000
15.44189453,-89.02245000
15.47241211,-86.30844000
15.50292969,-82.14592000
15.53344727,-80.64648000
15.56396484,-80.75561000
15.59448242,-82.35202000
15.62500000,-85.64591000
15.65551758,-88.83167000
15.68603516,-88.98170000
15.71655273,-88.58840000
15.74707031,-87.45683000
15.77758789,-84.75968000
15.80810547,-82.44300000
15.83862305,-82.37589000
15.86914063,-85.32515000
15.89965820,-87.82411000
15.93017578,-83.03069000
15.96069336,-79.27457000
15.99121094,-77.46076000
16.02172852,-77.46988000
16.05224609,-79.15494000
16.08276367,-81.47020000
16.11328125,-82.63615000
16.14379883,-82.89883000
16.17431641,-82.34503000
16.20483398,-80.28159000
16.23535156,-78.65710000
16.26586914,-78.67455000
16.29638672,-80.18104000
16.32690430,-82.58971000
16.35742188,-85.54163000
16.38793945,-87.12243000
16.41845703,-83.84198000
16.44897461,-81.15454000
16.47949219,-80.55655000
16.51000977,-81.23782000
16.54052734,-82.15643000
16.57104492,-82.56883000
16.60156250,-82.83921000
16.63208008,-83.25383000
16.66259766,-83.04055000
16.69311523,-82.07943000
16.72363281,-81.21465000
16.75415039,-80.95345000
16.78466797,-81.42731000
16.81518555,-82.73255000
16.84570313,-83.94337000
16.87622070,-82.80074000
16.90673828,-80.83548000
16.93725586,-79.59850000
16.96777344,-79.01933000
16.99829102,-78.80191000
17.02880859,-78.73986000
17.05932617,-78.98827000
17.08984375,-80.05003000
17.12036133,-82.11736000
17.15087891,-83.47334000
17.18139648,-82.35172000
17.21191406,-81.55101000
17.24243164,-82.38191000
17.27294922,-84.07031000
17.30346680,-85.37614000
17.33398438,-86.25868000
17.36450195,-85.96161000
17.39501953,-83.93259000
17.42553711,-81.75137000
17.45605469,-80.57662000
17.48657227,-80.38495000
17.51708984,-80.94797000
17.54760742,-82.27789000
17.57812500,-83.77522000
17.60864258,-84.03241000
17.63916016,-82.63336000
17.66967773,-80.11862000
17.70019531,-77.63354000
17.73071289,-76.60007000
17.76123047,-77.91013000
17.79174805,-81.89513000
17.82226563,-87.49549000
17.85278320,-89.17957000
17.88330078,-87.19460000
17.91381836,-85.53973000
17.94433594,-84.15833000
17.97485352,-83.15199000
18.00537109,-83.05351000
18.03588867,-83.83356000
18.06640625,-84.86435000
18.09692383,-85.34579000
18.12744141,-85.26405000
18.15795898,-85.35495000
18.18847656,-86.26266000
18.21899414,-87.53242000
18.24951172,-85.89449000
18.28002930,-83.10715000
18.31054688,-82.26630000
18.34106445,-83.64159000
18.37158203,-86.92516000
18.40209961,-89.66516000
18.43261719,-88.13580000
18.46313477,-87.56997000
18.49365234,-90.17124000
18.52416992,-95.88271000
18.55468750,-97.68039000
18.58520508,-92.41843000
18.61572266,-89.43311000
18.64624023,-87.86400000
18.67675781,-86.27026000
18.70727539,-84.92499000
18.73779297,-84.53903000
18.76831055,-85.31174000
18.79882813,-86.88969000
18.82934570,-88.03162000
18.85986328,-87.55508000
18.89038086,-86.34640000
18.92089844,-85.47463000
18.95141602,-85.16664000
18.98193359,-85.51778000
19.01245117,-87.11716000
19.04296875,-91.09564000
19.07348633,-94.51501000
19.10400391,-90.33260000
19.13452148,-88.21811000
19.16503906,-88.50047000
19.19555664,-90.68322000
19.22607422,-94.69168000
19.25659180,-98.84549000
19.28710938,-100.29090000
19.31762695,-105.39080000
19.34814453,-103.86990000
19.37866211,-95.68178000
19.40917969,-93.05637000
19.43969727,-92.73482000
19.47021484,-93.38044000
19.50073242,-94.64371000
19.53125000,-94.92860000
19.56176758,-94.05690000
19.59228516,-94.96779000
19.62280273,-98.83070000
19.65332031,-103.55300000
19.68383789,-102.71380000
19.71435547,-98.95870000
19.74487305,-97.52071000
19.77539063,-98.75607000
19.80590820,-100.70130000
19.83642578,-100.76540000
19.86694336,-99.53475000
19.89746094,-98.03513000
19.92797852,-96.73705000
19.95849609,-97.41945000
19.98901367,-99.92794000
20.01953125,-99.63380000
20.05004883,-98.51508000
20.08056641,-99.36163000
20.11108398,-101.87600000
20.14160156,-97.34607000
20.17211914,-91.54464000
20.20263672,-88.00462000
20.23315430,-86.33994000
20.26367188,-86.58047000
20.29418945,-88.68706000
20.32470703,-92.04346000
20.35522461,-95.37323000
20.38574219,-99.07870000
20.41625977,-101.30300000
20.44677734,-93.38383000
20.47729492,-89.09526000
20.50781250,-88.31051000
20.53833008,-90.06504000
20.56884766,-92.86259000
20.59936523,-95.20366000
20.62988281,-97.79494000
20.66040039,-98.02065000
20.69091797,-94.48645000
20.72143555,-92.78859000
20.75195313,-92.97547000
20.78247070,-93.74545000
20.81298828,-95.03772000
20.84350586,-98.03344000
20.87402344,-94.02817000
20.90454102,-90.16142000
20.93505859,-89.41787000
20.96557617,-90.21862000
20.99609375,-90.12195000
21.02661133,-88.64606000
21.05712891,-87.38610000
21.08764648,-87.15984000
21.11816406,-87.67548000
21.14868164,-87.48498000
21.17919922,-86.02703000
21.20971680,-84.52503000
21.24023438,-84.16657000
21.27075195,-85.54353000
21.30126953,-88.52569000
21.33178711,-91.25756000
21.36230469,-91.88636000
21.39282227,-91.87216000
21.42333984,-91.64234000
21.45385742,-88.97787000
21.48437500,-85.27984000
21.51489258,-83.34225000
21.54541016,-83.14552000
21.57592773,-83.90549000
21.60644531,-84.56814000
21.63696289,-84.77342000
21.66748047,-85.73330000
21.69799805,-88.14236000
21.72851563,-91.03687000
21.75903320,-91.35708000
21.78955078,-88.66324000
21.82006836,-86.15562000
21.85058594,-85.01631000
21.88110352,-85.28024000
21.91162109,-86.03707000
21.94213867,-85.65312000
21.97265625,-84.58496000
22.00317383,-84.26643000
22.03369141,-85.24744000
22.06420898,-87.45301000
22.09472656,-89.63859000
22.12524414,-90.56137000
22.15576172,-91.27732000
22.18627930,-91.89180000
22.21679688,-91.74232000
22.24731445,-89.69695000
22.27783203,-87.31952000
22.30834961,-86.37710000
22.33886719,-87.00548000
22.36938477,-88.84724000
22.39990234,-91.35468000
22.43041992,-94.47090000
22.46093750,-100.30930000
22.49145508,-102.96700000
22.52197266,-95.27195000
22.55249023,-92.02302000
22.58300781,-90.13213000
22.61352539,-88.93166000
22.64404297,-88.85124000
22.67456055,-89.67516000
22.70507813,-90.23902000
22.73559570,-89.87457000
22.76611328,-89.02126000
22.79663086,-87.47994000
22.82714844,-85.35766000
22.85766602,-83.86833000
22.88818359,-83.84366000
22.91870117,-85.49017000
22.94921875,-88.76669000
22.97973633,-93.19408000
23.01025391,-95.73200000
23.04077148,-94.74442000
23.07128906,-93.58102000
23.10180664,-91.99502000
23.13232422,-89.53778000
23.16284180,-87.63496000
23.19335938,-86.88938000
23.22387695,-87.24626000
23.25439453,-88.48945000
23.28491211,-90.41175000
23.31542969,-92.36626000
23.34594727,-93.07814000
23.37646484,-92.66792000
23.40698242,-92.56467000
23.43750000,-93.61319000
23.46801758,-95.72158000
23.49853516,-97.70721000
23.52905273,-97.04858000
23.55957031,-94.41260000
23.59008789,-92.26429000
23.62060547,-91.83567000
23.65112305,-94.07590000
23.68164063,-100.32990000
23.71215820,-110.64110000
23.74267578,-105.74980000
23.77319336,-100.60020000
23.80371094,-95.95788000
23.83422852,-93.12458000
23.86474609,-92.07231000
23.89526367,-91.77789000
23.92578125,-91.41759000
23.95629883,-91.46450000
23.98681641,-93.18355000
24.01733398,-97.66628000
24.04785156,-102.09590000
24.07836914,-97.20130000
24.10888672,-92.71561000
24.13940430,-89.52968000
24.16992188,-87.66700000
24.20043945,-87.25846000
24.23095703,-88.16932000
24.26147461,-90.16669000
24.29199219,-93.52119000
24.32250977,-100.16380000
24.35302734,-101.78120000
24.38354492,-94.46318000
24.41406250,-92.14067000
24.44458008,-92.84973000
24.47509766,-95.74464000
24.50561523,-101.37340000
24.53613281,-107.90630000
24.56665039,-97.71266000
24.59716797,-96.03880000
24.62768555,-101.01530000
24.65820313,-97.48000000
24.68872070,-93.36310000
24.71923828,-95.07697000
24.74975586,-103.44570000
24.78027344,-104.26010000
24.81079102,-96.70143000
24.84130859,-92.29301000
24.87182617,-91.01019000
24.90234375,-92.20325000
24.93286133,-93.63008000
24.96337891,-92.13388000
24.99389648,-90.18772000
25.02441406,-90.56499000
25.05493164,-94.97749000
25.08544922,-104.08800000
25.11596680,-94.43387000
25.14648438,-91.13567000
25.17700195,-90.24223000
25.20751953,-90.16685000
25.23803711,-91.04895000
25.26855469,-93.35719000
25.29907227,-97.47555000
25.32958984,-101.06910000
25.36010742,-97.86510000
25.39062500,-97.17617000
25.42114258,-102.73180000
25.45166016,-106.62540000
25.48217773,-97.64976000
25.51269531,-96.24074000
25.54321289,-100.33590000
25.57373047,-105.76440000
25.60424805,-96.61289000
25.63476563,-95.27573000
25.66528320,-98.41911000
25.69580078,-104.44040000
25.72631836,-107.38210000
25.75683594,-105.08370000
25.78735352,-104.28500000
25.81787109,-108.73930000
25.84838867,-101.55320000
25.87890625,-98.71881000
25.90942383,-99.74807000
25.93994141,-100.29850000
25.97045898,-100.54240000
26.00097656,-95.42189000
26.03149414,-91.45435000
26.06201172,-89.76099000
26.09252930,-89.12392000
26.12304688,-89.32735000
26.15356445,-90.98935000
26.18408203,-94.36984000
26.21459961,-97.18502000
26.24511719,-98.96239000
26.27563477,-106.01610000
26.30615234,-103.46510000
26.33666992,-96.10081000
26.36718750,-93.21870000
26.39770508,-90.83684000
26.42822266,-88.42162000
26.45874023,-87.01317000
26.48925781,-86.81613000
26.51977539,-87.67852000
26.55029297,-89.35350000
26.58081055,-91.15382000
26.61132813,-92.27141000
26.64184570,-93.18715000
26.67236328,-95.32825000
26.70288086,-97.34836000
26.73339844,-95.79027000
26.76391602,-95.49595000
26.79443359,-97.19646000
26.82495117,-97.94900000
26.85546875,-95.88123000
26.88598633,-94.59946000
26.91650391,-95.26653000
26.94702148,-96.56513000
26.97753906,-96.42052000
27.00805664,-93.98767000
27.03857422,-90.77195000
27.06909180,-88.64434000
27.09960938,-88.29593000
27.13012695,-89.99135000
27.16064453,-94.74588000
27.19116211,-99.76219000
27.22167969,-92.20107000
27.25219727,-88.44341000
27.28271484,-86.85533000
27.31323242,-86.29955000
27.34375000,-86.52016000
27.37426758,-87.82120000
27.40478516,-90.83366000
27.43530273,-97.08992000
27.46582031,-100.65250000
27.49633789,-92.97340000
27.52685547,-89.26212000
27.55737305,-87.89143000
27.58789063,-88.32676000
27.61840820,-89.94732000
27.64892578,-91.30013000
27.67944336,-90.94548000
27.70996094,-90.65566000
27.74047852,-91.33915000
27.77099609,-91.76749000
27.80151367,-91.01503000
27.83203125,-90.34689000
27.86254883,-92.50596000
27.89306641,-102.84970000
27.92358398,-98.56446000
27.95410156,-91.82964000
27.98461914,-89.26408000
28.01513672,-87.38591000
28.04565430,-86.18872000
28.07617188,-86.15132000
28.10668945,-87.25831000
28.13720703,-90.02831000
28.16772461,-96.28539000
28.19824219,-110.14580000
28.22875977,-95.68642000
28.25927734,-92.15602000
28.28979492,-93.02513000
28.32031250,-97.95496000
28.35083008,-100.03670000
28.38134766,-97.81033000
28.41186523,-100.11180000
28.44238281,-105.09610000
28.47290039,-95.74612000
28.50341797,-91.81817000
28.53393555,-91.32922000
28.56445313,-92.63195000
28.59497070,-94.16354000
28.62548828,-95.07899000
28.65600586,-96.01632000
28.68652344,-98.04783000
28.71704102,-102.12150000
28.74755859,-103.96770000
28.77807617,-98.91910000
28.80859375,-97.96673000
28.83911133,-105.55510000
28.86962891,-101.60020000
28.90014648,-94.19948000
28.93066406,-92.98033000
28.96118164,-94.16450000
28.99169922,-93.95107000
29.02221680,-91.78123000
29.05273438,-90.90875000
29.08325195,-92.15224000
29.11376953,-94.45883000
29.14428711,-98.36024000
29.17480469,-102.26550000
29.20532227,-95.00619000
29.23583984,-92.34201000
29.26635742,-92.23618000
29.29687500,-92.95203000
29.32739258,-93.48350000
29.35791016,-94.26154000
29.38842773,-96.67098000
29.41894531,-99.94248000
29.44946289,-100.89220000
29.47998047,-108.72950000
29.51049805,-102.10260000
29.54101563,-95.01255000
29.57153320,-93.80080000
29.60205078,-96.58249000
29.63256836,-106.92340000
29.66308594,-106.99550000
29.69360352,-103.16150000
29.72412109,-107.29240000
29.75463867,-99.81813000
29.78515625,-95.66383000
29.81567383,-95.85481000
29.84619141,-100.35620000
29.87670898,-105.37680000
29.90722656,-98.09950000
29.93774414,-94.67849000
29.96826172,-93.64073000
29.99877930,-94.60880000
30.02929688,-98.09773000
30.05981445,-100.80430000
30.09033203,-98.26552000
30.12084961,-96.91792000
30.15136719,-95.33172000
30.18188477,-93.18704000
30.21240234,-92.81969000
30.24291992,-95.58070000
30.27343750,-103.28310000
30.30395508,-104.55170000
30.33447266,-99.93610000
30.36499023,-98.54909000
30.39550781,-98.55266000
30.42602539,-99.64980000
30.45654297,-98.42067000
30.48706055,-94.91928000
30.51757813,-92.09344000
30.54809570,-90.15237000
30.57861328,-89.21507000
30.60913086,-89.80240000
30.63964844,-92.76955000
30.67016602,-98.78699000
30.70068359,-102.87550000
30.73120117,-105.29850000
30.76171875,-100.03460000
30.79223633,-95.19523000
30.82275391,-94.69666000
30.85327148,-97.39951000
30.88378906,-101.83120000
30.91430664,-106.27430000
30.94482422,-121.83100000
30.97534180,-103.47120000
31.00585938,-98.04510000
31.03637695,-97.44879000
31.06689453,-98.49182000
31.09741211,-97.75178000
31.12792969,-97.19910000
31.15844727,-99.68095000
31.18896484,-105.23560000
31.21948242,-103.78410000
31.25000000,-102.68320000
31.28051758,-95.72704000
31.31103516,-90.74940000
31.34155273,-88.30861000
31.37207031,-87.85577000
31.40258789,-89.66144000
31.43310547,-94.64439000
31.46362305,-102.61440000
31.49414063,-100.83940000
31.52465820,-100.65410000
31.55517578,-100.69080000
31.58569336,-98.42513000
31.61621094,-97.60738000
31.64672852,-99.58037000
31.67724609,-105.24270000
31.70776367,-114.75080000
31.73828125,-111.34220000
31.76879883,-101.81440000
31.79931641,-97.91345000
31.82983398,-97.16198000
31.86035156,-99.85872000
31.89086914,-112.68920000
31.92138672,-99.17647000
31.95190430,-96.04157000
31.98242188,-97.06920000
32.01293945,-97.15580000
32.04345703,-96.61540000
32.07397461,-97.98763000
32.10449219,-96.40974000
32.13500977,-92.21820000
32.16552734,-90.17795000
32.19604492,-90.47611000
32.22656250,-92.43959000
32.25708008,-93.99193000
32.28759766,-93.77465000
32.31811523,-94.22743000
32.34863281,-96.40258000
32.37915039,-99.00697000
32.40966797,-99.48354000
32.44018555,-97.33895000
32.47070313,-94.47311000
32.50122070,-93.17245000
32.53173828,-94.29905000
32.56225586,-95.34893000
32.59277344,-93.82160000
32.62329102,-94.52934000
32.65380859,-102.82610000
32.68432617,-100.95100000
32.71484375,-94.17842000
32.74536133,-94.24995000
32.77587891,-97.52657000
32.80639648,-101.56300000
32.83691406,-108.30170000
32.86743164,-116.93940000
32.89794922,-106.05500000
32.92846680,-102.09370000
32.95898438,-98.06432000
32.98950195,-93.05077000
33.02001953,-89.87822000
33.05053711,-88.88108000
33.08105469,-89.50810000
33.11157227,-91.34676000
33.14208984,-94.80002000
33.17260742,-102.89860000
33.20312500,-104.86250000
33.23364258,-97.62788000
33.26416016,-98.42387000
33.29467773,-101.67080000
33.32519531,-94.99992000
33.35571289,-92.18845000
33.38623047,-93.14991000
33.41674805,-96.19249000
33.44726563,-93.29067000
33.47778320,-90.46925000
33.50830078,-90.71909000
33.53881836,-93.40602000
33.56933594,-96.31140000
33.59985352,-95.15140000
33.63037109,-92.33878000
33.66088867,-90.19813000
33.69140625,-89.46052000
33.72192383,-90.57102000
33.75244141,-93.65753000
33.78295898,-98.48843000
33.81347656,-104.05190000
33.84399414,-103.62410000
33.87451172,-99.89282000
33.90502930,-97.72151000
33.93554688,-98.31627000
33.96606445,-105.36740000
33.99658203,-103.36440000
34.02709961,-95.10014000
34.05761719,-92.74944000
34.08813477,-93.44844000
34.11865234,-98.17348000
34.14916992,-106.82400000
34.17968750,-94.99887000
34.21020508,-91.97729000
34.24072266,-92.11362000
34.27124023,-93.07518000
34.30175781,-93.02491000
34.33227539,-93.24976000
34.36279297,-95.79766000
34.39331055,-98.60199000
34.42382813,-93.96351000
34.45434570,-90.41586000
34.48486328,-89.12162000
34.51538086,-90.46439000
34.54589844,-96.88583000
34.57641602,-103.49170000
34.60693359,-93.12482000
34.63745117,-90.98662000
34.66796875,-91.94713000
34.69848633,-96.21562000
34.72900391,-102.24570000
34.75952148,-95.11372000
34.79003906,-93.12177000
34.82055664,-96.42297000
34.85107422,-101.32660000
34.88159180,-95.27139000
34.91210938,-93.04591000
34.94262695,-92.81880000
34.97314453,-93.53458000
35.00366211,-94.23588000
35.03417969,-93.56219000
35.06469727,-92.70163000
35.09521484,-92.72127000
35.12573242,-93.77357000
35.15625000,-95.72736000
35.18676758,-97.22993000
35.21728516,-96.79684000
35.24780273,-95.46706000
35.27832031,-94.16721000
35.30883789,-93.83045000
35.33935547,-95.19640000
35.36987305,-95.05187000
35.40039063,-92.04456000
35.43090820,-91.17807000
35.46142578,-93.50663000
35.49194336,-98.36509000
35.52246094,-96.32544000
35.55297852,-94.15085000
35.58349609,-95.80578000
35.61401367,-101.39270000
35.64453125,-102.28230000
35.67504883,-97.56196000
35.70556641,-94.51616000
35.73608398,-92.42646000
35.76660156,-91.75046000
35.79711914,-92.84335000
35.82763672,-94.50708000
35.85815430,-95.11725000
35.88867188,-95.94867000
35.91918945,-97.22989000
35.94970703,-97.36482000
35.98022461,-96.10620000
36.01074219,-94.94827000
36.04125977,-94.58488000
36.07177734,-95.09334000
36.10229492,-95.85925000
36.13281250,-95.24893000
36.16333008,-93.77182000
36.19384766,-93.74821000
36.22436523,-96.35841000
36.25488281,-97.43053000
36.28540039,-93.76975000
36.31591797,-92.78923000
36.34643555,-95.55935000
36.37695313,-104.77670000
36.40747070,-109.12430000
36.43798828,-103.42180000
36.46850586,-107.16810000
36.49902344,-114.56950000
36.52954102,-101.62610000
36.56005859,-100.29600000
36.59057617,-102.66380000
36.62109375,-97.18271000
36.65161133,-93.92377000
36.68212891,-94.28987000
36.71264648,-97.75478000
36.74316406,-101.81400000
36.77368164,-100.17800000
36.80419922,-98.94933000
36.83471680,-99.75124000
36.86523438,-100.10990000
36.89575195,-97.58045000
36.92626953,-95.56679000
36.95678711,-95.38564000
36.98730469,-97.21063000
37.01782227,-102.40090000
37.04833984,-114.37800000
37.07885742,-101.74880000
37.10937500,-99.57164000
37.13989258,-101.60980000
37.17041016,-107.43680000
37.20092773,-111.00730000
37.23144531,-98.26893000
37.26196289,-93.44139000
37.29248047,-91.41481000
37.32299805,-91.12907000
37.35351563,-92.17043000
37.38403320,-94.78893000
37.41455078,-101.05630000
37.44506836,-108.66380000
37.47558594,-96.79755000
37.50610352,-92.42005000
37.53662109,-90.31273000
37.56713867,-89.89944000
37.59765625,-91.38786000
37.62817383,-95.23114000
37.65869141,-101.09000000
37.68920898,-100.44420000
37.71972656,-100.65220000
37.75024414,-107.12500000
37.78076172,-94.90718000
37.81127930,-89.89638000
37.84179688,-88.79830000
37.87231445,-90.49553000
37.90283203,-94.01620000
37.93334961,-95.95799000
37.96386719,-96.34331000
37.99438477,-98.05061000
38.02490234,-98.09808000
38.05541992,-93.93459000
38.08593750,-90.82719000
38.11645508,-89.82379000
38.14697266,-89.86492000
38.17749023,-89.90818000
38.20800781,-90.56261000
38.23852539,-92.53470000
38.26904297,-95.81481000
38.29956055,-99.55441000
38.33007813,-102.77130000
38.36059570,-100.40330000
38.39111328,-97.03369000
38.42163086,-95.43159000
38.45214844,-95.14294000
38.48266602,-96.22859000
38.51318359,-98.68646000
38.54370117,-102.92690000
38.57421875,-100.79390000
38.60473633,-94.96619000
38.63525391,-92.32468000
38.66577148,-92.10361000
38.69628906,-93.75220000
38.72680664,-96.99311000
38.75732422,-101.75730000
38.78784180,-104.63860000
38.81835938,-99.89934000
38.84887695,-96.22662000
38.87939453,-93.67830000
38.90991211,-90.27279000
38.94042969,-88.20831000
38.97094727,-89.12156000
39.00146484,-94.05102000
39.03198242,-106.33800000
39.06250000,-95.11800000
39.09301758,-90.35997000
39.12353516,-88.70033000
39.15405273,-89.09909000
39.18457031,-91.00219000
39.21508789,-93.69854000
39.24560547,-96.36404000
39.27612305,-97.78564000
39.30664063,-96.54191000
39.33715820,-94.26895000
39.36767578,-93.69719000
39.39819336,-96.40953000
39.42871094,-104.29310000
39.45922852,-103.53850000
39.48974609,-99.92967000
39.52026367,-99.54037000
39.55078125,-99.56245000
39.58129883,-97.79995000
39.61181641,-93.87845000
39.64233398,-89.44392000
39.67285156,-86.76695000
39.70336914,-86.40624000
39.73388672,-88.74042000
39.76440430,-94.82415000
39.79492188,-106.16060000
39.82543945,-97.45811000
39.85595703,-93.88309000
39.88647461,-93.53093000
39.91699219,-95.76092000
39.94750977,-97.69790000
39.97802734,-94.78355000
40.00854492,-92.46113000
40.03906250,-92.35291000
40.06958008,-93.63272000
40.10009766,-93.74686000
40.13061523,-91.18124000
40.16113281,-88.57597000
40.19165039,-87.70589000
40.22216797,-88.59520000
40.25268555,-91.31142000
40.28320313,-97.87063000
40.31372070,-99.79202000
40.34423828,-92.87605000
40.37475586,-91.44874000
40.40527344,-92.29320000
40.43579102,-93.36119000
40.46630859,-94.01401000
40.49682617,-94.48468000
40.52734375,-95.79210000
40.55786133,-100.56750000
40.58837891,-109.09510000
40.61889648,-98.33296000
40.64941406,-94.73836000
40.67993164,-95.99623000
40.71044922,-100.18110000
40.74096680,-98.49103000
40.77148438,-96.30950000
40.80200195,-94.11955000
40.83251953,-90.28937000
40.86303711,-86.83086000
40.89355469,-85.07086000
40.92407227,-84.78677000
40.95458984,-85.41935000
40.98510742,-86.47687000
41.01562500,-87.74866000
41.04614258,-89.72356000
41.07666016,-93.76527000
41.10717773,-96.85989000
41.13769531,-91.83257000
41.16821289,-89.87412000
41.19873047,-91.59309000
41.22924805,-94.05167000
41.25976563,-90.94428000
41.29028320,-89.70343000
41.32080078,-92.31233000
41.35131836,-93.44357000
41.38183594,-88.07557000
41.41235352,-86.31860000
41.44287109,-87.82167000
41.47338867,-90.36250000
41.50390625,-90.08270000
41.53442383,-88.18590000
41.56494141,-88.94167000
41.59545898,-93.68861000
41.62597656,-92.88702000
41.65649414,-90.72849000
41.68701172,-90.73433000
41.71752930,-91.01922000
41.74804688,-91.13020000
41.77856445,-89.37516000
41.80908203,-87.52728000
41.83959961,-87.26810000
41.87011719,-89.20776000
41.90063477,-93.30672000
41.93115234,-94.49212000
41.96166992,-92.00875000
41.99218750,-90.17827000
42.02270508,-89.73873000
42.05322266,-91.54397000
42.08374023,-97.19703000
42.11425781,-104.01300000
42.14477539,-93.62555000
42.17529297,-89.98552000
42.20581055,-88.20998000
42.23632813,-85.72897000
42.26684570,-83.39932000
42.29736328,-82.55456000
42.32788086,-83.75822000
42.35839844,-86.88277000
42.38891602,-88.46519000
42.41943359,-87.30415000
42.44995117,-87.35242000
42.48046875,-90.32876000
42.51098633,-101.07540000
42.54150391,-95.10708000
42.57202148,-91.00563000
42.60253906,-90.86397000
42.63305664,-90.04597000
42.66357422,-87.79961000
42.69409180,-86.30821000
42.72460938,-87.10632000
42.75512695,-91.14160000
42.78564453,-94.09148000
42.81616211,-89.18755000
42.84667969,-86.27290000
42.87719727,-85.38622000
42.90771484,-86.32916000
42.93823242,-88.87394000
42.96875000,-91.69628000
42.99926758,-92.40469000
43.02978516,-91.68143000
43.06030273,-91.64497000
43.09082031,-91.15556000
43.12133789,-88.46275000
43.15185547,-85.53959000
43.18237305,-83.64433000
43.21289063,-83.41681000
43.24340820,-85.68376000
43.27392578,-91.64766000
43.30444336,-103.72130000
43.33496094,-101.41620000
43.36547852,-92.20086000
43.39599609,-90.28725000
43.42651367,-94.02403000
43.45703125,-95.65053000
43.48754883,-88.34342000
43.51806641,-84.57800000
43.54858398,-83.31007000
43.57910156,-84.41833000
43.60961914,-88.03676000
43.64013672,-93.28453000
43.67065430,-93.18575000
43.70117188,-90.78310000
43.73168945,-91.67286000
43.76220703,-99.66767000
43.79272461,-97.96617000
43.82324219,-89.44623000
43.85375977,-86.10955000
43.88427734,-85.12434000
43.91479492,-86.35158000
43.94531250,-90.09677000
43.97583008,-97.20209000
44.00634766,-98.75951000
44.03686523,-94.62783000
44.06738281,-94.80773000
44.09790039,-97.13515000
44.12841797,-95.60059000
44.15893555,-91.34194000
44.18945313,-87.53618000
44.21997070,-85.32990000
44.25048828,-85.08152000
44.28100586,-86.36841000
44.31152344,-87.81760000
44.34204102,-87.70667000
44.37255859,-86.34029000
44.40307617,-85.41904000
44.43359375,-85.90030000
44.46411133,-87.57906000
44.49462891,-88.52271000
44.52514648,-87.98499000
44.55566406,-88.48270000
44.58618164,-91.42215000
44.61669922,-97.33835000
44.64721680,-102.58300000
44.67773438,-96.56014000
44.70825195,-93.81409000
44.73876953,-94.92680000
44.76928711,-98.47861000
44.79980469,-97.77446000
44.83032227,-94.04331000
44.86083984,-91.88477000
44.89135742,-91.97694000
44.92187500,-92.83595000
44.95239258,-93.41170000
44.98291016,-98.47128000
45.01342773,-96.21246000
45.04394531,-90.67018000
45.07446289,-90.30113000
45.10498047,-92.93819000
45.13549805,-96.82872000
45.16601563,-95.74439000
45.19653320,-90.76694000
45.22705078,-88.23074000
45.25756836,-88.14830000
45.28808594,-89.30531000
45.31860352,-89.40395000
45.34912109,-88.01942000
45.37963867,-87.67682000
45.41015625,-90.04259000
45.44067383,-97.82451000
45.47119141,-102.19620000
45.50170898,-92.38818000
45.53222656,-89.75811000
45.56274414,-89.98830000
45.59326172,-92.09868000
45.62377930,-95.43555000
45.65429688,-99.05333000
45.68481445,-97.70262000
45.71533203,-96.96107000
45.74584961,-98.43692000
45.77636719,-97.24758000
45.80688477,-93.08472000
45.83740234,-91.21997000
45.86791992,-92.92840000
45.89843750,-96.31053000
45.92895508,-94.79610000
45.95947266,-92.40385000
45.98999023,-90.30067000
46.02050781,-88.80968000
46.05102539,-89.58243000
46.08154297,-94.16782000
46.11206055,-105.03220000
46.14257813,-100.28320000
46.17309570,-100.78390000
46.20361328,-108.74160000
46.23413086,-105.20530000
46.26464844,-103.95580000
46.29516602,-108.73230000
46.32568359,-99.47020000
46.35620117,-92.19379000
46.38671875,-90.13551000
46.41723633,-92.88623000
46.44775391,-99.24780000
46.47827148,-93.26172000
46.50878906,-90.25665000
46.53930664,-90.22382000
46.56982422,-92.08535000
46.60034180,-95.80703000
46.63085938,-101.63560000
46.66137695,-95.26661000
46.69189453,-91.39243000
46.72241211,-91.24039000
46.75292969,-93.21472000
46.78344727,-95.08658000
46.81396484,-99.22020000
46.84448242,-107.77240000
46.87500000,-98.76103000
46.90551758,-98.40920000
46.93603516,-102.95460000
46.96655273,-110.56640000
46.99707031,-104.76320000
47.02758789,-98.28140000
47.05810547,-95.43220000
47.08862305,-95.30359000
47.11914063,-98.35062000
47.14965820,-108.03560000
47.18017578,-104.99590000
47.21069336,-101.64590000
47.24121094,-107.47620000
47.27172852,-104.15030000
47.30224609,-98.77938000
47.33276367,-100.11840000
47.36328125,-104.70450000
47.39379883,-100.76390000
47.42431641,-97.19099000
47.45483398,-94.53094000
47.48535156,-93.00620000
47.51586914,-93.65041000
47.54638672,-94.79900000
47.57690430,-93.92763000
47.60742188,-95.02647000
47.63793945,-100.73300000
47.66845703,-113.83940000
47.69897461,-102.73440000
47.72949219,-97.22427000
47.76000977,-95.63911000
47.79052734,-98.49957000
47.82104492,-102.88120000
47.85156250,-98.31699000
47.88208008,-97.59958000
47.91259766,-100.22470000
47.94311523,-104.28170000
47.97363281,-106.71620000
48.00415039,-103.45940000
48.03466797,-99.32392000
48.06518555,-97.19257000
48.09570313,-96.88196000
48.12622070,-99.51439000
48.15673828,-104.69950000
48.18725586,-96.31224000
48.21777344,-92.52779000
48.24829102,-92.19444000
48.27880859,-94.73940000
48.30932617,-101.51390000
48.33984375,-103.62500000
48.37036133,-97.62722000
48.40087891,-95.82922000
48.43139648,-96.12325000
48.46191406,-98.05235000
48.49243164,-101.54730000
48.52294922,-102.74810000
48.55346680,-99.73644000
48.58398438,-98.09447000
48.61450195,-99.45889000
48.64501953,-101.79070000
48.67553711,-96.26431000
48.70605469,-92.93307000
48.73657227,-93.30534000
48.76708984,-97.73822000
48.79760742,-107.81440000
48.82812500,-111.76150000
48.85864258,-113.53820000
48.88916016,-106.24570000
48.91967773,-107.14610000
48.95019531,-105.13910000
48.98071289,-96.28539000
49.01123047,-91.21649000
49.04174805,-89.06436000
49.07226563,-89.38476000
49.10278320,-91.73046000
49.13330078,-95.54256000
49.16381836,-99.93293000
49.19433594,-103.55970000
49.22485352,-104.51770000
49.25537109,-100.88730000
49.28588867,-98.16806000
49.31640625,-95.24156000
49.34692383,-90.62650000
49.37744141,-87.79464000
49.40795898,-87.50943000
49.43847656,-89.25856000
49.46899414,-92.08705000
49.49951172,-94.90758000
49.53002930,-97.26620000
49.56054688,-98.84830000
49.59106445,-98.11279000
49.62158203,-95.91748000
49.65209961,-92.95075000
49.68261719,-89.51808000
49.71313477,-88.25375000
49.74365234,-90.21136000
49.77416992,-93.12760000
49.80468750,-92.07431000
49.83520508,-91.47586000
49.86572266,-92.53213000
49.89624023,-95.65933000
49.92675781,-103.19090000
49.95727539,-104.31210000
49.98779297,-93.68038000
50.01831055,-88.95444000
