Frequency,Channel A
(MHz),(dBu)

0.00000000,-25.03485000
0.03051758,-25.47651000
0.06103516,-30.90875000
0.09155273,-40.88748000
0.12207031,-52.53497000
0.15258789,-59.41250000
0.18310547,-67.32185000
0.21362305,-70.14795000
0.24414063,-64.44176000
0.27465820,-62.33855000
0.30517578,-60.99935000
0.33569336,-61.29344000
0.36621094,-64.02853000
0.39672852,-71.70874000
0.42724609,-65.77375000
0.45776367,-62.16360000
0.48828125,-60.62058000
0.51879883,-60.45492000
0.54931641,-64.76817000
0.57983398,-71.23607000
0.61035156,-60.52013000
0.64086914,-58.91685000
0.67138672,-63.84575000
0.70190430,-69.86764000
0.73242188,-59.77915000
0.76293945,-58.79823000
0.79345703,-62.18232000
0.82397461,-66.70234000
0.85449219,-70.07226000
0.88500977,-81.37505000
0.91552734,-67.27721000
0.94604492,-64.23184000
0.97656250,-64.30051000
1.00708008,-64.77734000
1.03759766,-64.92519000
1.06811523,-65.65953000
1.09863281,-67.39748000
1.12915039,-68.51971000
1.15966797,-69.31284000
1.19018555,-70.94782000
1.22070313,-69.23675000
1.25122070,-68.02744000
1.28173828,-69.68877000
1.31225586,-70.94290000
1.34277344,-70.24149000
1.37329102,-69.77122000
1.40380859,-68.43559000
1.43432617,-69.41208000
1.46484375,-70.56810000
1.49536133,-66.44132000
1.52587891,-65.24032000
1.55639648,-67.14634000
1.58691406,-68.71812000
1.61743164,-69.05125000
1.64794922,-69.52783000
1.67846680,-67.85863000
1.70898438,-68.16438000
1.73950195,-71.90926000
1.77001953,-69.55109000
1.80053711,-65.89999000
1.83105469,-65.46197000
1.86157227,-67.75669000
1.89208984,-71.43178000
1.92260742,-71.09882000
1.95312500,-69.92515000
1.98364258,-71.03622000
2.01416016,-73.42483000
2.04467773,-73.90240000
2.07519531,-73.23573000
2.10571289,-73.18801000
2.13623047,-72.19484000
2.16674805,-70.12017000
2.19726563,-69.43356000
2.22778320,-71.48305000
2.25830078,-74.35243000
2.28881836,-71.49193000
2.31933594,-70.08810000
2.34985352,-71.89842000
2.38037109,-73.74448000
2.41088867,-70.86324000
2.44140625,-68.58184000
2.47192383,-68.68645000
2.50244141,-70.99140000
2.53295898,-71.52287000
2.56347656,-69.46939000
2.59399414,-69.78397000
2.62451172,-71.79002000
2.65502930,-69.58764000
2.68554688,-66.98657000
2.71606445,-67.00032000
2.74658203,-69.48849000
2.77709961,-71.62618000
2.80761719,-70.31055000
2.83813477,-69.61427000
2.86865234,-69.42039000
2.89916992,-69.03535000
2.92968750,-68.80956000
2.96020508,-68.71379000
2.99072266,-69.17426000
3.02124023,-69.37534000
3.05175781,-68.27747000
3.08227539,-67.67928000
3.11279297,-68.24395000
3.14331055,-68.90257000
3.17382813,-69.57304000
3.20434570,-69.96581000
3.23486328,-68.70116000
3.26538086,-67.94268000
3.29589844,-68.09497000
3.32641602,-67.70858000
3.35693359,-67.41267000
3.38745117,-67.64425000
3.41796875,-67.09668000
3.44848633,-66.35171000
3.47900391,-66.82462000
3.50952148,-68.13968000
3.54003906,-68.10960000
3.57055664,-66.92216000
3.60107422,-66.69973000
3.63159180,-67.99453000
3.66210938,-69.77956000
3.69262695,-69.18064000
3.72314453,-66.99132000
3.75366211,-65.54164000
3.78417969,-65.34539000
3.81469727,-66.05952000
3.84521484,-66.67290000
3.87573242,-67.03981000
3.90625000,-67.75676000
3.93676758,-67.47721000
3.96728516,-65.57706000
3.99780273,-64.17125000
4.02832031,-64.16123000
4.05883789,-65.36821000
4.08935547,-66.23977000
4.11987305,-65.30675000
4.15039063,-64.48724000
4.18090820,-64.79606000
4.21142578,-65.55999000
4.24194336,-66.06343000
4.27246094,-66.68639000
4.30297852,-67.18791000
4.33349609,-66.42010000
4.36401367,-65.61433000
4.39453125,-66.45905000
4.42504883,-69.34729000
4.45556641,-71.80984000
4.48608398,-70.75581000
4.51660156,-70.48311000
4.54711914,-72.31747000
4.57763672,-74.81982000
4.60815430,-73.61543000
4.63867188,-70.84186000
4.66918945,-69.33229000
4.69970703,-68.91826000
4.73022461,-69.13094000
4.76074219,-70.12906000
4.79125977,-71.73410000
4.82177734,-71.58108000
4.85229492,-70.43204000
4.88281250,-70.59972000
4.91333008,-71.25475000
4.94384766,-71.65877000
4.97436523,-72.68254000
5.00488281,-73.66174000
5.03540039,-73.99771000
5.06591797,-74.56407000
5.09643555,-74.55146000
5.12695313,-73.85028000
5.15747070,-74.16606000
5.18798828,-75.51288000
5.21850586,-75.80275000
5.24902344,-76.35912000
5.27954102,-81.26942000
5.31005859,-81.52711000
5.34057617,-75.61654000
5.37109375,-74.53985000
5.40161133,-74.61855000
5.43212891,-71.73963000
5.46264648,-68.48058000
5.49316406,-66.75069000
5.52368164,-66.51855000
5.55419922,-67.14507000
5.58471680,-67.14492000
5.61523438,-66.14933000
5.64575195,-65.30169000
5.67626953,-64.71376000
5.70678711,-64.12927000
5.73730469,-63.71216000
5.76782227,-63.39822000
5.79833984,-63.01497000
5.82885742,-62.94788000
5.85937500,-63.44888000
5.88989258,-64.11643000
5.92041016,-64.59500000
5.95092773,-65.02463000
5.98144531,-65.50311000
6.01196289,-66.02172000
6.04248047,-66.64076000
6.07299805,-67.15164000
6.10351563,-67.24104000
6.13403320,-67.53331000
6.16455078,-68.90443000
6.19506836,-71.15353000
6.22558594,-72.53720000
6.25610352,-72.44263000
6.28662109,-72.19951000
6.31713867,-72.54031000
6.34765625,-73.93810000
6.37817383,-75.39028000
6.40869141,-73.56213000
6.43920898,-71.53818000
6.46972656,-71.17428000
6.50024414,-71.81770000
6.53076172,-72.98383000
6.56127930,-74.89395000
6.59179688,-76.60280000
6.62231445,-76.78582000
6.65283203,-77.99997000
6.68334961,-78.07323000
6.71386719,-75.69070000
6.74438477,-75.28242000
6.77490234,-76.75497000
6.80541992,-78.48663000
6.83593750,-79.42048000
6.86645508,-79.64293000
6.89697266,-79.41962000
6.92749023,-81.16769000
6.95800781,-83.45499000
6.98852539,-77.40615000
7.01904297,-74.54100000
7.04956055,-75.13316000
7.08007813,-79.09433000
7.11059570,-91.47605000
7.14111328,-85.61208000
7.17163086,-79.47858000
7.20214844,-78.48141000
7.23266602,-80.57327000
7.26318359,-84.56527000
7.29370117,-89.06184000
7.32421875,-117.08400000
7.35473633,-87.67348000
7.38525391,-84.07128000
7.41577148,-84.93051000
7.44628906,-89.06122000
7.47680664,-102.96730000
7.50732422,-90.47291000
7.53784180,-84.17339000
7.56835938,-83.05699000
7.59887695,-87.36188000
7.62939453,-97.82729000
7.65991211,-83.45882000
7.69042969,-80.25016000
7.72094727,-80.54050000
7.75146484,-83.26685000
7.78198242,-87.89804000
7.81250000,-96.51225000
7.84301758,-90.58183000
7.87353516,-81.49872000
7.90405273,-78.25932000
7.93457031,-78.59447000
7.96508789,-82.16607000
7.99560547,-89.64563000
8.02612305,-101.48540000
8.05664063,-95.35257000
8.08715820,-90.11766000
8.11767578,-86.74431000
8.14819336,-85.90755000
8.17871094,-87.22948000
8.20922852,-90.98933000
8.23974609,-100.37610000
8.27026367,-90.56847000
8.30078125,-85.00587000
8.33129883,-83.81973000
8.36181641,-86.01335000
8.39233398,-90.81261000
8.42285156,-96.96320000
8.45336914,-103.97400000
8.48388672,-90.91406000
8.51440430,-86.10599000
8.54492188,-84.87387000
8.57543945,-87.19803000
8.60595703,-96.20113000
8.63647461,-99.05666000
8.66699219,-92.86172000
8.69750977,-95.32584000
8.72802734,-115.62210000
8.75854492,-92.97337000
8.78906250,-87.57996000
8.81958008,-85.83596000
8.85009766,-86.50319000
8.88061523,-90.79026000
8.91113281,-106.30640000
8.94165039,-88.28210000
8.97216797,-84.21312000
9.00268555,-83.53535000
9.03320313,-84.87962000
9.06372070,-87.46513000
9.09423828,-90.18414000
9.12475586,-92.80766000
9.15527344,-91.48032000
9.18579102,-89.54031000
9.21630859,-88.58982000
9.24682617,-86.98829000
9.27734375,-85.65495000
9.30786133,-85.16923000
9.33837891,-83.95235000
9.36889648,-83.47665000
9.39941406,-86.03787000
9.42993164,-89.59838000
9.46044922,-86.99218000
9.49096680,-85.02430000
9.52148438,-84.31355000
9.55200195,-84.12984000
9.58251953,-85.67100000
9.61303711,-88.67255000
9.64355469,-83.05360000
9.67407227,-79.25079000
9.70458984,-79.21756000
9.73510742,-82.97932000
9.76562500,-89.73881000
9.79614258,-85.56589000
9.82666016,-83.12432000
9.85717773,-84.43205000
9.88769531,-88.18432000
9.91821289,-87.44183000
9.94873047,-85.33672000
9.97924805,-84.44014000
10.00976563,-83.79428000
10.04028320,-83.75701000
10.07080078,-83.87157000
10.10131836,-82.55660000
10.13183594,-80.85278000
10.16235352,-80.84698000
10.19287109,-83.80817000
10.22338867,-92.26137000
10.25390625,-97.94254000
10.28442383,-87.86963000
10.31494141,-84.70287000
10.34545898,-84.45672000
10.37597656,-85.75468000
10.40649414,-87.90224000
10.43701172,-91.02176000
10.46752930,-94.57501000
10.49804688,-88.98015000
10.52856445,-84.19628000
10.55908203,-82.54532000
10.58959961,-82.39870000
10.62011719,-83.03237000
10.65063477,-85.53838000
10.68115234,-88.30388000
10.71166992,-84.31105000
10.74218750,-81.60738000
10.77270508,-80.84892000
10.80322266,-81.30929000
10.83374023,-83.33721000
10.86425781,-87.21623000
10.89477539,-87.32976000
10.92529297,-84.11349000
10.95581055,-83.54356000
10.98632813,-82.55208000
11.01684570,-79.04136000
11.04736328,-77.67483000
11.07788086,-78.70375000
11.10839844,-80.34755000
11.13891602,-82.51608000
11.16943359,-89.21930000
11.19995117,-83.43730000
11.23046875,-77.36205000
11.26098633,-75.53945000
11.29150391,-76.10973000
11.32202148,-78.09218000
11.35253906,-81.74533000
11.38305664,-89.82841000
11.41357422,-93.45088000
11.44409180,-84.14521000
11.47460938,-81.10954000
11.50512695,-81.86583000
11.53564453,-88.82222000
11.56616211,-90.35666000
11.59667969,-83.89088000
11.62719727,-84.57172000
11.65771484,-93.30226000
11.68823242,-82.57465000
11.71875000,-77.90042000
11.74926758,-77.41983000
11.77978516,-78.76678000
11.81030273,-80.59097000
11.84082031,-82.73044000
11.87133789,-84.71686000
11.90185547,-86.55846000
11.93237305,-85.53639000
11.96289063,-82.45591000
11.99340820,-80.88426000
12.02392578,-79.82991000
12.05444336,-80.02117000
12.08496094,-82.82257000
12.11547852,-83.34837000
12.14599609,-80.46864000
12.17651367,-80.22548000
12.20703125,-81.60718000
12.23754883,-81.83239000
12.26806641,-81.63226000
12.29858398,-83.51741000
12.32910156,-88.75975000
12.35961914,-89.32644000
12.39013672,-87.65655000
12.42065430,-93.17679000
12.45117188,-97.04211000
12.48168945,-87.25989000
12.51220703,-84.77027000
12.54272461,-85.07472000
12.57324219,-88.77190000
12.60375977,-97.57584000
12.63427734,-88.17944000
12.66479492,-85.24748000
12.69531250,-85.41728000
12.72583008,-87.22630000
12.75634766,-87.45610000
12.78686523,-83.71818000
12.81738281,-81.95667000
12.84790039,-81.22093000
12.87841797,-81.15211000
12.90893555,-82.34419000
12.93945313,-82.83418000
12.96997070,-81.31245000
13.00048828,-79.78440000
13.03100586,-80.24954000
13.06152344,-82.62260000
13.09204102,-83.52754000
13.12255859,-80.45291000
13.15307617,-77.24405000
13.18359375,-75.88463000
13.21411133,-76.58404000
13.24462891,-79.35096000
13.27514648,-84.34035000
13.30566406,-85.25697000
13.33618164,-81.71263000
13.36669922,-79.46674000
13.39721680,-79.39399000
13.42773438,-81.76103000
13.45825195,-82.38835000
13.48876953,-76.42076000
13.51928711,-70.56433000
13.54980469,-68.00300000
13.58032227,-68.73820000
13.61083984,-72.65150000
13.64135742,-78.33780000
13.67187500,-80.88093000
13.70239258,-83.10632000
13.73291016,-83.54265000
13.76342773,-80.03119000
13.79394531,-77.92178000
13.82446289,-77.42747000
13.85498047,-78.24121000
13.88549805,-81.03574000
13.91601563,-89.40365000
13.94653320,-89.49937000
13.97705078,-84.16656000
14.00756836,-82.37336000
14.03808594,-77.14159000
14.06860352,-74.72084000
14.09912109,-76.36460000
14.12963867,-83.71443000
14.16015625,-86.92288000
14.19067383,-82.06809000
14.22119141,-82.54475000
14.25170898,-84.03751000
14.28222656,-83.29973000
14.31274414,-81.86861000
14.34326172,-83.39120000
14.37377930,-96.20984000
14.40429688,-81.45061000
14.43481445,-76.74981000
14.46533203,-77.37975000
14.49584961,-81.81422000
14.52636719,-81.25648000
14.55688477,-80.03252000
14.58740234,-83.58734000
14.61791992,-99.95447000
14.64843750,-82.75006000
14.67895508,-78.19318000
14.70947266,-79.47860000
14.73999023,-83.57914000
14.77050781,-77.07974000
14.80102539,-74.81419000
14.83154297,-76.45470000
14.86206055,-76.89484000
14.89257813,-75.01122000
14.92309570,-76.96614000
14.95361328,-80.22189000
14.98413086,-75.15702000
15.01464844,-74.20718000
15.04516602,-77.91103000
15.07568359,-85.53725000
15.10620117,-85.34328000
15.13671875,-77.68599000
15.16723633,-75.83051000
15.19775391,-76.09117000
15.22827148,-70.20233000
15.25878906,-67.32996000
15.28930664,-68.50391000
15.31982422,-74.02385000
15.35034180,-78.68331000
15.38085938,-75.28784000
15.41137695,-76.03324000
15.44189453,-81.77690000
15.47241211,-82.84301000
15.50292969,-76.77847000
15.53344727,-76.13591000
15.56396484,-79.79449000
15.59448242,-80.28992000
15.62500000,-77.71079000
15.65551758,-79.95333000
15.68603516,-84.34705000
15.71655273,-80.62157000
15.74707031,-81.06213000
15.77758789,-89.58619000
15.80810547,-85.89330000
15.83862305,-81.74514000
15.86914063,-83.02383000
15.89965820,-87.13776000
15.93017578,-85.49976000
15.96069336,-80.53217000
15.99121094,-78.38546000
16.02172852,-80.12366000
16.05224609,-91.34845000
16.08276367,-84.52049000
16.11328125,-79.91735000
16.14379883,-81.36462000
16.17431641,-84.84175000
16.20483398,-81.74232000
16.23535156,-79.57700000
16.26586914,-81.08524000
16.29638672,-83.61259000
16.32690430,-81.44035000
16.35742188,-82.02356000
16.38793945,-87.98359000
16.41845703,-89.69413000
16.44897461,-87.83474000
16.47949219,-91.97796000
16.51000977,-97.89584000
16.54052734,-94.57722000
16.57104492,-95.31104000
16.60156250,-97.89113000
16.63208008,-94.78163000
16.66259766,-95.16844000
16.69311523,-97.34813000
16.72363281,-89.92957000
16.75415039,-87.95442000
16.78466797,-88.76549000
16.81518555,-84.18552000
16.84570313,-81.74300000
16.87622070,-84.05789000
16.90673828,-92.30211000
16.93725586,-85.26286000
16.96777344,-81.62219000
16.99829102,-81.82657000
17.02880859,-84.45039000
17.05932617,-86.36001000
17.08984375,-86.89874000
17.12036133,-90.23540000
17.15087891,-89.53349000
17.18139648,-87.52006000
17.21191406,-91.40857000
17.24243164,-93.85510000
17.27294922,-88.55907000
17.30346680,-88.89466000
17.33398438,-93.81448000
17.36450195,-98.83116000
17.39501953,-98.30708000
17.42553711,-103.18630000
17.45605469,-101.67460000
17.48657227,-100.85450000
17.51708984,-130.54260000
17.54760742,-97.34021000
17.57812500,-93.88425000
17.60864258,-95.35542000
17.63916016,-100.26990000
17.66967773,-99.76231000
17.70019531,-87.40241000
17.73071289,-83.20851000
17.76123047,-83.71327000
17.79174805,-89.25999000
17.82226563,-99.59278000
17.85278320,-93.82363000
17.88330078,-92.91419000
17.91381836,-95.40102000
17.94433594,-100.95730000
17.97485352,-96.01308000
18.00537109,-92.77950000
18.03588867,-93.31722000
18.06640625,-96.50216000
18.09692383,-103.26780000
18.12744141,-101.07990000
18.15795898,-97.62712000
18.18847656,-101.16410000
18.21899414,-105.56360000
18.24951172,-101.83870000
18.28002930,-101.77330000
18.31054688,-95.19649000
18.34106445,-91.50135000
18.37158203,-92.03116000
18.40209961,-97.62706000
18.43261719,-107.61300000
18.46313477,-98.44370000
18.49365234,-92.66756000
18.52416992,-90.87807000
18.55468750,-93.24887000
18.58520508,-99.24789000
18.61572266,-100.51470000
18.64624023,-96.82571000
18.67675781,-94.96751000
18.70727539,-95.60525000
18.73779297,-96.33923000
18.76831055,-94.06929000
18.79882813,-91.45728000
18.82934570,-91.11375000
18.85986328,-92.50900000
18.89038086,-94.41336000
18.92089844,-99.83653000
18.95141602,-102.66230000
18.98193359,-94.40853000
19.01245117,-92.57572000
19.04296875,-95.55055000
19.07348633,-108.92030000
19.10400391,-99.66330000
19.13452148,-96.31786000
19.16503906,-96.42571000
19.19555664,-98.04956000
19.22607422,-102.49160000
19.25659180,-107.08700000
19.28710938,-98.38779000
19.31762695,-96.70755000
19.34814453,-101.61320000
19.37866211,-107.30000000
19.40917969,-96.75214000
19.43969727,-93.28627000
19.47021484,-91.46156000
19.50073242,-90.41103000
19.53125000,-90.97224000
19.56176758,-93.94633000
19.59228516,-98.27819000
19.62280273,-100.82330000
19.65332031,-103.81720000
19.68383789,-107.92010000
19.71435547,-109.99940000
19.74487305,-105.65580000
19.77539063,-100.14360000
19.80590820,-96.86823000
19.83642578,-96.82140000
19.86694336,-100.35210000
19.89746094,-98.96114000
19.92797852,-96.11324000
19.95849609,-97.96662000
19.98901367,-108.15390000
20.01953125,-105.63730000
20.05004883,-99.00707000
20.08056641,-95.88233000
20.11108398,-93.97444000
20.14160156,-92.18883000
20.17211914,-90.26501000
20.20263672,-89.47038000
20.23315430,-90.11995000
20.26367188,-92.39717000
20.29418945,-97.88980000
20.32470703,-105.50430000
20.35522461,-91.93633000
20.38574219,-88.09874000
20.41625977,-88.79494000
20.44677734,-92.88420000
20.47729492,-89.79070000
20.50781250,-84.56635000
20.53833008,-82.30597000
20.56884766,-83.35090000
20.59936523,-88.18323000
20.62988281,-90.51903000
20.66040039,-91.56497000
20.69091797,-103.91280000
20.72143555,-99.03828000
20.75195313,-96.11152000
20.78247070,-93.03183000
20.81298828,-94.18997000
20.84350586,-105.38050000
20.87402344,-100.72170000
20.90454102,-96.17603000
20.93505859,-102.30040000
20.96557617,-98.51098000
20.99609375,-92.93761000
21.02661133,-96.03122000
21.05712891,-100.11950000
21.08764648,-95.72652000
21.11816406,-96.92969000
21.14868164,-97.49424000
21.17919922,-95.84969000
21.20971680,-93.51251000
21.24023438,-91.32008000
21.27075195,-91.83891000
21.30126953,-96.57692000
21.33178711,-105.70630000
21.36230469,-100.15530000
21.39282227,-93.35869000
21.42333984,-90.74711000
21.45385742,-90.43613000
21.48437500,-89.81976000
21.51489258,-89.54384000
21.54541016,-90.29110000
21.57592773,-92.14790000
21.60644531,-94.50958000
21.63696289,-94.07372000
21.66748047,-93.29964000
21.69799805,-94.01626000
21.72851563,-93.72588000
21.75903320,-91.98183000
21.78955078,-91.84468000
21.82006836,-93.01341000
21.85058594,-92.95208000
21.88110352,-91.46298000
21.91162109,-90.49407000
21.94213867,-91.36933000
21.97265625,-94.23476000
22.00317383,-97.75081000
22.03369141,-104.31850000
22.06420898,-106.16400000
22.09472656,-100.24990000
22.12524414,-119.73000000
22.15576172,-92.70457000
22.18627930,-88.62309000
22.21679688,-91.01250000
22.24731445,-94.10804000
22.27783203,-88.08483000
22.30834961,-86.14120000
22.33886719,-86.85783000
22.36938477,-89.43288000
22.39990234,-93.57204000
22.43041992,-93.38860000
22.46093750,-89.61435000
22.49145508,-88.09289000
22.52197266,-89.37506000
22.55249023,-94.18045000
22.58300781,-101.00330000
22.61352539,-97.54289000
22.64404297,-95.30264000
22.67456055,-94.38379000
22.70507813,-94.38989000
22.73559570,-95.74191000
22.76611328,-95.77353000
22.79663086,-93.03737000
22.82714844,-91.42084000
22.85766602,-91.28581000
22.88818359,-91.72561000
22.91870117,-92.08931000
22.94921875,-93.62100000
22.97973633,-99.05952000
23.01025391,-103.67130000
23.04077148,-101.95950000
23.07128906,-101.79410000
23.10180664,-97.37149000
23.13232422,-93.58379000
23.16284180,-91.39046000
23.19335938,-91.97591000
23.22387695,-95.73535000
23.25439453,-95.84556000
23.28491211,-93.27171000
23.31542969,-92.55455000
23.34594727,-93.11563000
23.37646484,-94.40871000
23.40698242,-94.49840000
23.43750000,-96.93492000
23.46801758,-116.39680000
23.49853516,-94.92482000
23.52905273,-91.75642000
23.55957031,-93.50449000
23.59008789,-98.77998000
23.62060547,-100.57260000
23.65112305,-101.23000000
23.68164063,-108.88200000
23.71215820,-99.27406000
23.74267578,-95.67900000
23.77319336,-96.63286000
23.80371094,-102.56590000
23.83422852,-103.95470000
23.86474609,-95.18383000
23.89526367,-92.63978000
23.92578125,-93.45001000
23.95629883,-97.27007000
23.98681641,-105.12280000
24.01733398,-104.77600000
24.04785156,-100.01780000
24.07836914,-97.72917000
24.10888672,-94.28196000
24.13940430,-90.10297000
24.16992188,-87.47475000
24.20043945,-87.16759000
24.23095703,-89.34918000
24.26147461,-94.10712000
24.29199219,-102.87600000
24.32250977,-111.97560000
24.35302734,-101.30960000
24.38354492,-99.04042000
24.41406250,-97.84787000
24.44458008,-95.48883000
24.47509766,-92.08314000
24.50561523,-89.21811000
24.53613281,-88.43629000
24.56665039,-90.73930000
24.59716797,-96.31990000
24.62768555,-96.88422000
24.65820313,-98.59306000
24.68872070,-114.53480000
24.71923828,-94.48525000
24.74975586,-89.95350000
24.78027344,-88.06313000
24.81079102,-87.41725000
24.84130859,-88.27023000
24.87182617,-90.82924000
24.90234375,-92.38660000
24.93286133,-91.33193000
24.96337891,-91.96857000
24.99389648,-96.57310000
25.02441406,-104.70730000
25.05493164,-98.19383000
25.08544922,-97.50835000
25.11596680,-102.10470000
25.14648438,-107.50790000
25.17700195,-100.10020000
25.20751953,-97.19449000
25.23803711,-95.73552000
25.26855469,-95.77364000
25.29907227,-100.25750000
25.32958984,-113.18160000
25.36010742,-98.11339000
25.39062500,-97.09483000
25.42114258,-100.36370000
25.45166016,-94.39407000
25.48217773,-90.02791000
25.51269531,-88.98001000
25.54321289,-90.43593000
25.57373047,-93.92659000
25.60424805,-99.27356000
25.63476563,-111.21020000
25.66528320,-99.39282000
25.69580078,-94.74406000
25.72631836,-94.28954000
25.75683594,-94.30291000
25.78735352,-92.24783000
25.81787109,-90.34581000
25.84838867,-89.29965000
25.87890625,-88.64785000
25.90942383,-88.09126000
25.93994141,-88.27045000
25.97045898,-90.11572000
26.00097656,-93.54282000
26.03149414,-95.79258000
26.06201172,-92.96695000
26.09252930,-89.13937000
26.12304688,-87.15142000
26.15356445,-87.18952000
26.18408203,-89.89254000
26.21459961,-98.75151000
26.24511719,-93.28571000
26.27563477,-87.39600000
26.30615234,-85.85612000
26.33666992,-86.55751000
26.36718750,-88.36772000
26.39770508,-90.97523000
26.42822266,-93.22361000
26.45874023,-90.29006000
26.48925781,-87.07470000
26.51977539,-86.67377000
26.55029297,-89.92531000
26.58081055,-99.19438000
26.61132813,-101.27660000
26.64184570,-95.48195000
26.67236328,-93.93011000
26.70288086,-96.22208000
26.73339844,-96.85760000
26.76391602,-92.83063000
26.79443359,-93.86229000
26.82495117,-101.86310000
26.85546875,-94.25592000
26.88598633,-91.51692000
26.91650391,-94.27679000
26.94702148,-96.91191000
26.97753906,-90.55305000
27.00805664,-87.57532000
27.03857422,-87.75934000
27.06909180,-91.56464000
27.09960938,-99.97890000
27.13012695,-91.28835000
27.16064453,-86.39632000
27.19116211,-84.76070000
27.22167969,-86.10299000
27.25219727,-92.05505000
27.28271484,-99.04705000
27.31323242,-91.67491000
27.34375000,-91.10912000
27.37426758,-93.18272000
27.40478516,-94.60283000
27.43530273,-94.56216000
27.46582031,-95.26929000
27.49633789,-97.54829000
27.52685547,-97.64050000
27.55737305,-94.25240000
27.58789063,-92.59955000
27.61840820,-93.54315000
27.64892578,-94.35683000
27.67944336,-91.79931000
27.70996094,-90.49268000
27.74047852,-91.51604000
27.77099609,-93.05801000
27.80151367,-90.88142000
27.83203125,-88.42754000
27.86254883,-89.08583000
27.89306641,-94.72310000
27.92358398,-104.33580000
27.95410156,-95.84846000
27.98461914,-95.25862000
28.01513672,-95.92905000
28.04565430,-92.54012000
28.07617188,-89.29604000
28.10668945,-88.21379000
28.13720703,-89.23102000
28.16772461,-91.95693000
28.19824219,-94.16103000
28.22875977,-93.04117000
28.25927734,-91.59428000
28.28979492,-91.20472000
28.32031250,-91.54681000
28.35083008,-92.06021000
28.38134766,-92.49628000
28.41186523,-93.38087000
28.44238281,-93.33133000
28.47290039,-90.88543000
28.50341797,-89.61628000
28.53393555,-91.18521000
28.56445313,-97.05589000
28.59497070,-100.24960000
28.62548828,-92.61766000
28.65600586,-90.25034000
28.68652344,-91.24498000
28.71704102,-95.86799000
28.74755859,-102.30660000
28.77807617,-93.88749000
28.80859375,-89.53314000
28.83911133,-88.18176000
28.86962891,-89.30054000
28.90014648,-92.77579000
28.93066406,-96.54273000
28.96118164,-97.28455000
28.99169922,-99.33626000
29.02221680,-104.09330000
29.05273438,-101.31700000
29.08325195,-95.96046000
29.11376953,-93.31551000
29.14428711,-93.72720000
29.17480469,-97.38868000
29.20532227,-102.59420000
29.23583984,-101.70690000
29.26635742,-97.44976000
29.29687500,-96.42533000
29.32739258,-100.92120000
29.35791016,-110.83370000
29.38842773,-99.15935000
29.41894531,-98.58392000
29.44946289,-105.88380000
29.47998047,-98.64163000
29.51049805,-92.02183000
29.54101563,-89.41018000
29.57153320,-89.17092000
29.60205078,-90.94112000
29.63256836,-94.35135000
29.66308594,-95.86831000
29.69360352,-94.95647000
29.72412109,-94.93150000
29.75463867,-93.42818000
29.78515625,-92.02771000
29.81567383,-92.51881000
29.84619141,-95.27164000
29.87670898,-99.94583000
29.90722656,-103.31550000
29.93774414,-113.73650000
29.96826172,-106.34160000
29.99877930,-101.57490000
30.02929688,-103.60050000
30.05981445,-105.80270000
30.09033203,-101.78770000
30.12084961,-101.47350000
30.15136719,-104.55400000
30.18188477,-105.85130000
30.21240234,-103.83310000
30.24291992,-103.14390000
30.27343750,-110.03200000
30.30395508,-100.74990000
30.33447266,-95.80537000
30.36499023,-96.93428000
30.39550781,-106.05860000
30.42602539,-106.24120000
30.45654297,-97.70531000
30.48706055,-92.84081000
30.51757813,-90.62025000
30.54809570,-91.42289000
30.57861328,-95.65532000
30.60913086,-101.05930000
30.63964844,-99.58760000
30.67016602,-100.38020000
30.70068359,-103.25760000
30.73120117,-101.90310000
30.76171875,-95.97963000
30.79223633,-91.03110000
30.82275391,-88.58680000
30.85327148,-88.62529000
30.88378906,-90.77709000
30.91430664,-93.52116000
30.94482422,-93.88390000
30.97534180,-92.23313000
31.00585938,-91.70129000
31.03637695,-93.40420000
31.06689453,-96.60535000
31.09741211,-98.43537000
31.12792969,-94.93568000
31.15844727,-91.57339000
31.18896484,-91.16492000
31.21948242,-95.06410000
31.25000000,-109.47710000
31.28051758,-94.66365000
31.31103516,-92.08733000
31.34155273,-94.23740000
31.37207031,-99.71724000
31.40258789,-101.27450000
31.43310547,-95.47668000
31.46362305,-92.62714000
31.49414063,-92.74348000
31.52465820,-94.40430000
31.55517578,-94.23535000
31.58569336,-92.64497000
31.61621094,-92.09705000
31.64672852,-92.87015000
31.67724609,-94.08115000
31.70776367,-93.32147000
31.73828125,-91.95361000
31.76879883,-93.04337000
31.79931641,-96.50880000
31.82983398,-95.67748000
31.86035156,-93.32897000
31.89086914,-93.91753000
31.92138672,-100.90350000
31.95190430,-101.79700000
31.98242188,-95.96473000
32.01293945,-99.13098000
32.04345703,-95.38845000
32.07397461,-90.48981000
32.10449219,-90.02733000
32.13500977,-93.04216000
32.16552734,-100.02000000
32.19604492,-100.59030000
32.22656250,-95.01965000
32.25708008,-92.50121000
32.28759766,-93.37868000
32.31811523,-100.50870000
32.34863281,-97.73147000
32.37915039,-92.93852000
32.40966797,-93.76459000
32.44018555,-97.31609000
32.47070313,-99.28420000
32.50122070,-97.35760000
32.53173828,-92.89256000
32.56225586,-90.47467000
32.59277344,-90.76421000
32.62329102,-93.13493000
32.65380859,-93.94354000
32.68432617,-92.30564000
32.71484375,-92.51946000
32.74536133,-96.52184000
32.77587891,-106.83180000
32.80639648,-105.82740000
32.83691406,-103.24410000
32.86743164,-98.10530000
32.89794922,-97.91811000
32.92846680,-105.17190000
32.95898438,-99.90907000
32.98950195,-96.89419000
33.02001953,-100.02430000
33.05053711,-107.41840000
33.08105469,-98.72010000
33.11157227,-95.84138000
33.14208984,-97.45869000
33.17260742,-102.23220000
33.20312500,-104.96840000
33.23364258,-107.91030000
33.26416016,-105.24300000
33.29467773,-99.56683000
33.32519531,-95.52737000
33.35571289,-94.53215000
33.38623047,-98.04430000
33.41674805,-101.64180000
33.44726563,-96.65287000
33.47778320,-96.73494000
33.50830078,-103.17280000
33.53881836,-102.88910000
33.56933594,-95.82180000
33.59985352,-93.93642000
33.63037109,-94.66887000
33.66088867,-96.93771000
33.69140625,-99.08766000
33.72192383,-99.22289000
33.75244141,-99.49089000
33.78295898,-101.30570000
33.81347656,-101.19120000
33.84399414,-95.66314000
33.87451172,-91.52504000
33.90502930,-89.97978000
33.93554688,-91.53860000
33.96606445,-99.02718000
33.99658203,-103.51690000
34.02709961,-96.18501000
34.05761719,-97.39270000
34.08813477,-102.77040000
34.11865234,-107.57230000
34.14916992,-106.30370000
34.17968750,-104.25730000
34.21020508,-103.35220000
34.24072266,-104.62820000
34.27124023,-108.43950000
34.30175781,-106.90810000
34.33227539,-101.76080000
34.36279297,-99.28586000
34.39331055,-100.90150000
34.42382813,-103.72580000
34.45434570,-98.88966000
34.48486328,-97.38359000
34.51538086,-101.36320000
34.54589844,-106.96100000
34.57641602,-104.18020000
34.60693359,-105.16160000
34.63745117,-95.72363000
34.66796875,-92.37026000
34.69848633,-92.61751000
34.72900391,-94.92646000
34.75952148,-97.57272000
34.79003906,-99.25804000
34.82055664,-99.76376000
34.85107422,-100.35250000
34.88159180,-102.37620000
34.91210938,-103.10280000
34.94262695,-98.68384000
34.97314453,-93.61637000
35.00366211,-91.31308000
35.03417969,-92.45726000
35.06469727,-98.47194000
35.09521484,-110.36820000
35.12573242,-98.87837000
35.15625000,-94.23012000
35.18676758,-92.74356000
35.21728516,-94.64123000
35.24780273,-100.49510000
35.27832031,-109.51450000
35.30883789,-106.75880000
35.33935547,-105.21780000
35.36987305,-100.14660000
35.40039063,-98.83998000
35.43090820,-102.04910000
35.46142578,-101.93550000
35.49194336,-100.96130000
35.52246094,-105.85080000
35.55297852,-104.77400000
35.58349609,-100.23560000
35.61401367,-100.51560000
35.64453125,-100.89280000
35.67504883,-99.88646000
35.70556641,-102.41680000
35.73608398,-101.17220000
35.76660156,-97.55563000
35.79711914,-96.83430000
35.82763672,-94.95625000
35.85815430,-95.38165000
35.88867188,-105.28910000
35.91918945,-99.55225000
35.94970703,-94.23604000
35.98022461,-93.43903000
36.01074219,-94.84077000
36.04125977,-101.41070000
36.07177734,-106.73680000
36.10229492,-98.99494000
36.13281250,-100.32410000
36.16333008,-103.19710000
36.19384766,-97.82212000
36.22436523,-95.06013000
36.25488281,-94.70883000
36.28540039,-95.09383000
36.31591797,-96.00838000
36.34643555,-97.48878000
36.37695313,-99.38989000
36.40747070,-104.12590000
36.43798828,-104.73730000
36.46850586,-96.47810000
36.49902344,-94.56834000
36.52954102,-96.98439000
36.56005859,-98.66481000
36.59057617,-96.21152000
36.62109375,-97.06985000
36.65161133,-103.06490000
36.68212891,-103.07440000
36.71264648,-99.24340000
36.74316406,-96.55862000
36.77368164,-94.36595000
36.80419922,-94.60776000
36.83471680,-96.40779000
36.86523438,-97.43069000
36.89575195,-97.57533000
36.92626953,-97.89656000
36.95678711,-98.91443000
36.98730469,-100.46940000
37.01782227,-102.91790000
37.04833984,-105.82320000
37.07885742,-104.11930000
37.10937500,-102.07310000
37.13989258,-100.04140000
37.17041016,-96.32702000
37.20092773,-94.21635000
37.23144531,-95.64662000
37.26196289,-103.22270000
37.29248047,-97.67303000
37.32299805,-93.71863000
37.35351563,-94.39343000
37.38403320,-97.10456000
37.41455078,-101.40850000
37.44506836,-103.41680000
37.47558594,-97.05624000
37.50610352,-95.37617000
37.53662109,-96.55747000
37.56713867,-97.55664000
37.59765625,-97.89528000
37.62817383,-100.10020000
37.65869141,-104.77200000
37.68920898,-111.20440000
37.71972656,-107.23530000
37.75024414,-108.41300000
37.78076172,-118.79840000
37.81127930,-103.99570000
37.84179688,-102.00890000
37.87231445,-103.33160000
37.90283203,-98.05366000
37.93334961,-94.07181000
37.96386719,-93.30185000
37.99438477,-95.44967000
38.02490234,-101.85920000
38.05541992,-112.98220000
38.08593750,-106.30150000
38.11645508,-107.14910000
38.14697266,-111.68240000
38.17749023,-107.02780000
38.20800781,-96.68266000
38.23852539,-93.86702000
38.26904297,-95.93698000
38.29956055,-99.36553000
38.33007813,-97.65690000
38.36059570,-97.80432000
38.39111328,-101.87390000
38.42163086,-110.73780000
38.45214844,-100.70280000
38.48266602,-98.37930000
38.51318359,-98.02261000
38.54370117,-98.19208000
38.57421875,-101.50260000
38.60473633,-108.67030000
38.63525391,-109.78600000
38.66577148,-107.99190000
38.69628906,-101.10190000
38.72680664,-98.15154000
38.75732422,-96.85838000
38.78784180,-94.64485000
38.81835938,-92.00402000
38.84887695,-90.42144000
38.87939453,-90.03310000
38.90991211,-89.53300000
38.94042969,-88.88789000
38.97094727,-89.53729000
39.00146484,-90.60686000
39.03198242,-90.49664000
39.06250000,-91.63445000
39.09301758,-94.25137000
39.12353516,-92.96334000
39.15405273,-91.04784000
39.18457031,-91.30286000
39.21508789,-93.09221000
39.24560547,-95.25369000
39.27612305,-97.76859000
39.30664063,-99.26353000
39.33715820,-94.57207000
39.36767578,-90.78518000
39.39819336,-89.28886000
39.42871094,-89.66093000
39.45922852,-90.93355000
39.48974609,-89.86052000
39.52026367,-87.80611000
39.55078125,-88.38844000
39.58129883,-92.70215000
39.61181641,-101.45340000
39.64233398,-108.00380000
39.67285156,-97.55435000
39.70336914,-95.36639000
39.73388672,-99.75776000
39.76440430,-105.35150000
39.79492188,-99.76547000
39.82543945,-102.43830000
39.85595703,-101.06160000
39.88647461,-97.53190000
39.91699219,-97.39914000
39.94750977,-96.76978000
39.97802734,-95.42625000
40.00854492,-94.10041000
40.03906250,-93.30165000
40.06958008,-95.25764000
40.10009766,-97.15660000
40.13061523,-93.18973000
40.16113281,-93.94413000
40.19165039,-101.65690000
40.22216797,-92.45607000
40.25268555,-87.95490000
40.28320313,-87.30388000
40.31372070,-90.00587000
40.34423828,-96.28078000
40.37475586,-95.35100000
40.40527344,-93.52946000
40.43579102,-93.14682000
40.46630859,-92.06211000
40.49682617,-92.72229000
40.52734375,-95.26300000
40.55786133,-94.09977000
40.58837891,-92.46406000
40.61889648,-93.66371000
40.64941406,-97.64351000
40.67993164,-104.79300000
40.71044922,-118.55570000
40.74096680,-101.04730000
40.77148438,-96.55272000
40.80200195,-96.42992000
40.83251953,-101.00510000
40.86303711,-106.38650000
40.89355469,-97.15826000
40.92407227,-93.80278000
40.95458984,-92.79976000
40.98510742,-92.30524000
41.01562500,-92.23972000
41.04614258,-91.85852000
41.07666016,-90.64758000
41.10717773,-90.03775000
41.13769531,-91.45585000
41.16821289,-92.23014000
41.19873047,-88.56556000
41.22924805,-87.50046000
41.25976563,-88.57504000
41.29028320,-90.21886000
41.32080078,-93.89293000
41.35131836,-92.87607000
41.38183594,-89.17482000
41.41235352,-88.61103000
41.44287109,-90.30266000
41.47338867,-93.19076000
41.50390625,-92.26032000
41.53442383,-88.02853000
41.56494141,-85.22129000
41.59545898,-84.02294000
41.62597656,-83.90884000
41.65649414,-84.77845000
41.68701172,-87.66857000
41.71752930,-94.21361000
41.74804688,-93.35081000
41.77856445,-89.41398000
41.80908203,-87.51212000
41.83959961,-86.26236000
41.87011719,-86.99177000
41.90063477,-91.61569000
41.93115234,-93.76563000
41.96166992,-88.63041000
41.99218750,-88.99266000
42.02270508,-94.46954000
42.05322266,-91.67416000
42.08374023,-87.57191000
42.11425781,-86.14951000
42.14477539,-85.97723000
42.17529297,-85.79086000
42.20581055,-84.25308000
42.23632813,-82.33492000
42.26684570,-80.96066000
42.29736328,-80.65978000
42.32788086,-81.96735000
42.35839844,-85.21867000
42.38891602,-91.09925000
42.41943359,-99.58275000
42.44995117,-100.99620000
42.48046875,-102.35380000
42.51098633,-90.36504000
42.54150391,-88.46238000
42.57202148,-93.99515000
42.60253906,-90.99356000
42.63305664,-86.13239000
42.66357422,-85.50477000
42.69409180,-85.79575000
42.72460938,-86.19534000
42.75512695,-87.96784000
42.78564453,-91.22735000
42.81616211,-90.01207000
42.84667969,-86.75872000
42.87719727,-85.78717000
42.90771484,-86.69399000
42.93823242,-88.09293000
42.96875000,-88.02578000
42.99926758,-86.31390000
43.02978516,-84.81406000
43.06030273,-85.19890000
43.09082031,-88.54247000
43.12133789,-96.25192000
43.15185547,-96.62215000
43.18237305,-87.93304000
43.21289063,-84.67236000
43.24340820,-85.01064000
43.27392578,-87.94129000
43.30444336,-91.12031000
43.33496094,-90.63549000
43.36547852,-89.36337000
43.39599609,-90.92666000
43.42651367,-97.73433000
43.45703125,-101.03250000
43.48754883,-88.78211000
43.51806641,-83.99596000
43.54858398,-82.93665000
43.57910156,-85.22797000
43.60961914,-91.28028000
43.64013672,-102.87000000
43.67065430,-98.98247000
43.70117188,-92.94643000
43.73168945,-91.35855000
43.76220703,-91.76296000
43.79272461,-91.86520000
43.82324219,-90.50716000
43.85375977,-88.84757000
43.88427734,-88.70911000
43.91479492,-91.39869000
43.94531250,-99.11351000
43.97583008,-103.77470000
44.00634766,-95.36561000
44.03686523,-92.02522000
44.06738281,-91.37982000
44.09790039,-92.26395000
44.12841797,-91.79374000
44.15893555,-90.16855000
44.18945313,-88.11668000
44.21997070,-87.31407000
44.25048828,-90.00331000
44.28100586,-99.31898000
44.31152344,-106.58660000
44.34204102,-98.55599000
44.37255859,-91.07789000
44.40307617,-88.06695000
44.43359375,-87.87437000
44.46411133,-88.55753000
44.49462891,-88.19360000
44.52514648,-86.82244000
44.55566406,-86.21712000
44.58618164,-87.23011000
44.61669922,-89.97565000
44.64721680,-94.08813000
44.67773438,-92.79585000
44.70825195,-89.26942000
44.73876953,-88.97281000
44.76928711,-92.31034000
44.79980469,-100.83870000
44.83032227,-94.89082000
44.86083984,-89.76421000
44.89135742,-88.53804000
44.92187500,-89.61628000
44.95239258,-91.33673000
44.98291016,-91.55031000
45.01342773,-90.55518000
45.04394531,-90.83257000
45.07446289,-94.07613000
45.10498047,-100.81360000
45.13549805,-104.66890000
45.16601563,-97.99302000
45.19653320,-93.26431000
45.22705078,-92.38806000
45.25756836,-95.85281000
45.28808594,-102.64850000
45.31860352,-95.74356000
45.34912109,-92.65448000
45.37963867,-93.17082000
45.41015625,-97.79443000
45.44067383,-112.08390000
45.47119141,-100.22280000
45.50170898,-94.07504000
45.53222656,-91.11516000
45.56274414,-91.01517000
45.59326172,-93.24275000
45.62377930,-95.77336000
45.65429688,-94.85654000
45.68481445,-91.50058000
45.71533203,-89.24931000
45.74584961,-89.18242000
45.77636719,-91.13643000
45.80688477,-93.89263000
45.83740234,-95.83748000
45.86791992,-98.17394000
45.89843750,-101.93420000
45.92895508,-106.67470000
45.95947266,-111.90080000
45.98999023,-97.19703000
46.02050781,-90.91636000
46.05102539,-88.91593000
46.08154297,-90.24969000
46.11206055,-93.82257000
46.14257813,-94.75717000
46.17309570,-92.04040000
46.20361328,-90.05093000
46.23413086,-90.17223000
46.26464844,-93.79991000
46.29516602,-103.49590000
46.32568359,-93.33038000
46.35620117,-88.91452000
46.38671875,-88.23381000
46.41723633,-90.52062000
46.44775391,-96.38131000
46.47827148,-104.69290000
46.50878906,-96.44611000
46.53930664,-93.56637000
46.56982422,-94.71564000
46.60034180,-97.94397000
46.63085938,-95.57021000
46.66137695,-91.14310000
46.69189453,-88.17107000
46.72241211,-87.30853000
46.75292969,-88.86642000
46.78344727,-92.90160000
46.81396484,-98.49738000
46.84448242,-99.15480000
46.87500000,-97.07973000
46.90551758,-96.33333000
46.93603516,-96.89151000
46.96655273,-99.46957000
46.99707031,-100.86350000
47.02758789,-98.27651000
47.05810547,-98.97140000
47.08862305,-104.42060000
47.11914063,-110.99970000
47.14965820,-111.97690000
47.18017578,-107.80450000
47.21069336,-104.33430000
47.24121094,-103.05180000
47.27172852,-102.14130000
47.30224609,-100.47570000
47.33276367,-98.67035000
47.36328125,-100.72530000
47.39379883,-113.45130000
47.42431641,-98.11853000
47.45483398,-93.89809000
47.48535156,-93.36747000
47.51586914,-95.64026000
47.54638672,-101.67330000
47.57690430,-104.48160000
47.60742188,-100.80400000
47.63793945,-100.49320000
47.66845703,-100.99850000
47.69897461,-99.95497000
47.72949219,-96.69443000
47.76000977,-93.83235000
47.79052734,-91.57286000
47.82104492,-89.58824000
47.85156250,-88.64266000
47.88208008,-89.00462000
47.91259766,-90.50392000
47.94311523,-92.94495000
47.97363281,-96.16725000
48.00415039,-99.73492000
48.03466797,-101.64820000
48.06518555,-99.10336000
48.09570313,-94.45161000
48.12622070,-91.44420000
48.15673828,-90.40589000
48.18725586,-90.80354000
48.21777344,-92.14914000
48.24829102,-94.46331000
48.27880859,-98.66803000
48.30932617,-110.08290000
48.33984375,-101.60150000
48.37036133,-93.14137000
48.40087891,-89.89160000
48.43139648,-89.55115000
48.46191406,-91.18884000
48.49243164,-94.95564000
48.52294922,-105.34940000
48.55346680,-99.27451000
48.58398438,-94.16419000
48.61450195,-93.36442000
48.64501953,-94.43511000
48.67553711,-95.54510000
48.70605469,-96.69223000
48.73657227,-99.82513000
48.76708984,-100.33750000
48.79760742,-98.85482000
48.82812500,-102.14520000
48.85864258,-107.33670000
48.88916016,-104.04630000
48.91967773,-103.36340000
48.95019531,-102.27210000
48.98071289,-96.52961000
49.01123047,-90.47894000
49.04174805,-87.09166000
49.07226563,-86.32465000
49.10278320,-88.02109000
49.13330078,-92.25297000
49.16381836,-99.71082000
49.19433594,-107.55770000
49.22485352,-107.41730000
49.25537109,-106.52820000
49.28588867,-98.11863000
49.31640625,-92.47997000
49.34692383,-89.28497000
49.37744141,-88.90364000
49.40795898,-91.84164000
49.43847656,-97.96660000
49.46899414,-97.01394000
49.49951172,-92.65365000
49.53002930,-90.25110000
49.56054688,-89.59710000
49.59106445,-90.42584000
49.62158203,-92.34745000
49.65209961,-91.90617000
49.68261719,-88.66032000
49.71313477,-87.56893000
49.74365234,-89.85649000
49.77416992,-97.01172000
49.80468750,-110.78920000
49.83520508,-100.16270000
49.86572266,-100.29400000
49.89624023,-111.88630000
49.92675781,-103.05140000
49.95727539,-100.94620000
49.98779297,-102.79080000
50.01831055,-93.85741000
