Frequency,Channel A
(MHz),(dBu)

0.00000000,-29.16139000
0.03051758,-29.60988000
0.06103516,-35.04334000
0.09155273,-44.60143000
0.12207031,-52.51180000
0.15258789,-55.77662000
0.18310547,-57.49542000
0.21362305,-58.10480000
0.24414063,-57.42615000
0.27465820,-56.71767000
0.30517578,-56.69215000
0.33569336,-56.33671000
0.36621094,-54.66660000
0.39672852,-52.76438000
0.42724609,-52.34530000
0.45776367,-54.32758000
0.48828125,-58.52135000
0.51879883,-62.66050000
0.54931641,-62.63188000
0.57983398,-58.12546000
0.61035156,-53.86354000
0.64086914,-53.07186000
0.67138672,-47.83140000
0.70190430,-44.90395000
0.73242188,-46.43409000
0.76293945,-52.32168000
0.79345703,-61.29736000
0.82397461,-63.15515000
0.85449219,-58.98498000
0.88500977,-56.60259000
0.91552734,-55.55196000
0.94604492,-55.50567000
0.97656250,-56.63375000
1.00708008,-58.34489000
1.03759766,-59.33574000
1.06811523,-59.32215000
1.09863281,-58.99850000
1.12915039,-59.49561000
1.15966797,-61.64583000
1.19018555,-65.83731000
1.22070313,-69.56597000
1.25122070,-65.15070000
1.28173828,-61.21801000
1.31225586,-59.82968000
1.34277344,-60.28723000
1.37329102,-61.69771000
1.40380859,-63.54342000
1.43432617,-65.32117000
1.46484375,-66.17278000
1.49536133,-66.20821000
1.52587891,-66.22018000
1.55639648,-66.14709000
1.58691406,-65.09231000
1.61743164,-62.83699000
1.64794922,-60.63440000
1.67846680,-59.14570000
1.70898438,-58.21518000
1.73950195,-57.81547000
1.77001953,-58.21497000
1.80053711,-59.61001000
1.83105469,-62.23617000
1.86157227,-65.74377000
1.89208984,-66.57782000
1.92260742,-64.52788000
1.95312500,-63.29967000
1.98364258,-63.86311000
2.01416016,-65.85744000
2.04467773,-67.30694000
2.07519531,-66.17433000
2.10571289,-64.01318000
2.13623047,-62.94605000
2.16674805,-63.37122000
2.19726563,-64.36360000
2.22778320,-64.74570000
2.25830078,-64.69968000
2.28881836,-64.98593000
2.31933594,-65.83162000
2.34985352,-66.55959000
2.38037109,-66.43279000
2.41088867,-65.95278000
2.44140625,-65.71310000
2.47192383,-65.43751000
2.50244141,-64.66026000
2.53295898,-63.98464000
2.56347656,-64.23876000
2.59399414,-65.57075000
2.62451172,-67.31750000
2.65502930,-67.87939000
2.68554688,-66.38765000
2.71606445,-64.16179000
2.74658203,-62.40334000
2.77709961,-61.41732000
2.80761719,-61.26585000
2.83813477,-62.04429000
2.86865234,-63.46693000
2.89916992,-64.49856000
2.92968750,-64.43864000
2.96020508,-63.54266000
2.99072266,-62.54203000
3.02124023,-62.14925000
3.05175781,-62.46595000
3.08227539,-63.11279000
3.11279297,-63.46621000
3.14331055,-63.07475000
3.17382813,-62.26372000
3.20434570,-61.72357000
3.23486328,-61.66665000
3.26538086,-61.59784000
3.29589844,-60.92552000
3.32641602,-59.92676000
3.35693359,-59.20828000
3.38745117,-59.00114000
3.41796875,-59.27115000
3.44848633,-59.84810000
3.47900391,-60.36552000
3.50952148,-60.44450000
3.54003906,-60.04467000
3.57055664,-59.36878000
3.60107422,-58.68175000
3.63159180,-58.24340000
3.66210938,-58.16749000
3.69262695,-58.36251000
3.72314453,-58.64073000
3.75366211,-58.79936000
3.78417969,-58.60801000
3.81469727,-58.03591000
3.84521484,-57.45691000
3.87573242,-57.25524000
3.90625000,-57.46941000
3.93676758,-57.89525000
3.96728516,-58.34523000
3.99780273,-58.71193000
4.02832031,-58.94009000
4.05883789,-59.06310000
4.08935547,-59.16444000
4.11987305,-59.32167000
4.15039063,-59.61960000
4.18090820,-60.09365000
4.21142578,-60.61569000
4.24194336,-61.05098000
4.27246094,-61.60210000
4.30297852,-62.57462000
4.33349609,-63.54827000
4.36401367,-63.58592000
4.39453125,-63.14839000
4.42504883,-63.21209000
4.45556641,-64.01952000
4.48608398,-65.35059000
4.51660156,-66.81664000
4.54711914,-68.05888000
4.57763672,-68.66331000
4.60815430,-68.12878000
4.63867188,-66.63277000
4.66918945,-65.13795000
4.69970703,-64.41008000
4.73022461,-64.80081000
4.76074219,-66.46767000
4.79125977,-69.28275000
4.82177734,-71.67447000
4.85229492,-71.43448000
4.88281250,-70.22430000
4.91333008,-68.89182000
4.94384766,-67.29185000
4.97436523,-65.92368000
5.00488281,-65.29588000
5.03540039,-65.41516000
5.06591797,-66.08351000
5.09643555,-67.25532000
5.12695313,-68.70428000
5.15747070,-69.52657000
5.18798828,-69.08344000
5.21850586,-68.18856000
5.24902344,-67.86149000
5.27954102,-68.60078000
5.31005859,-70.82350000
5.34057617,-75.62292000
5.37109375,-82.84237000
5.40161133,-76.32298000
5.43212891,-73.07465000
5.46264648,-73.40261000
5.49316406,-77.89876000
5.52368164,-83.16249000
5.55419922,-72.92039000
5.58471680,-68.13813000
5.61523438,-65.69867000
5.64575195,-64.66740000
5.67626953,-64.62834000
5.70678711,-64.98163000
5.73730469,-64.54913000
5.76782227,-62.80932000
5.79833984,-60.77669000
5.82885742,-59.26426000
5.85937500,-58.49401000
5.88989258,-58.41645000
5.92041016,-58.83078000
5.95092773,-59.48460000
5.98144531,-60.19287000
6.01196289,-60.74272000
6.04248047,-60.77228000
6.07299805,-60.23680000
6.10351563,-59.58716000
6.13403320,-59.22453000
6.16455078,-59.37342000
6.19506836,-60.21603000
6.22558594,-61.86738000
6.25610352,-64.14815000
6.28662109,-66.11476000
6.31713867,-66.36089000
6.34765625,-65.22432000
6.37817383,-64.05451000
6.40869141,-63.59845000
6.43920898,-64.15649000
6.46972656,-65.80527000
6.50024414,-68.48722000
6.53076172,-72.09784000
6.56127930,-75.89221000
6.59179688,-76.09953000
6.62231445,-73.77258000
6.65283203,-72.32623000
6.68334961,-71.96779000
6.71386719,-72.69443000
6.74438477,-75.05800000
6.77490234,-80.09885000
6.80541992,-84.45366000
6.83593750,-79.97147000
6.86645508,-76.78468000
6.89697266,-74.99621000
6.92749023,-74.65346000
6.95800781,-76.10677000
6.98852539,-79.14442000
7.01904297,-83.22673000
7.04956055,-88.30173000
7.08007813,-86.34026000
7.11059570,-81.41433000
7.14111328,-78.01435000
7.17163086,-76.15279000
7.20214844,-75.92593000
7.23266602,-77.13357000
7.26318359,-78.85181000
7.29370117,-79.56299000
7.32421875,-80.24663000
7.35473633,-83.75993000
7.38525391,-96.24585000
7.41577148,-85.40157000
7.44628906,-80.45631000
7.47680664,-79.10882000
7.50732422,-79.83527000
7.53784180,-82.14466000
7.56835938,-84.62059000
7.59887695,-84.46938000
7.62939453,-82.33410000
7.65991211,-81.31763000
7.69042969,-82.57922000
7.72094727,-85.28857000
7.75146484,-85.37362000
7.78198242,-83.35316000
7.81250000,-82.43875000
7.84301758,-82.96898000
7.87353516,-84.77212000
7.90405273,-88.28746000
7.93457031,-88.78747000
7.96508789,-84.04016000
7.99560547,-81.51178000
8.02612305,-80.68666000
8.05664063,-80.19855000
8.08715820,-79.16505000
8.11767578,-78.18073000
8.14819336,-78.38796000
8.17871094,-80.61523000
8.20922852,-85.95183000
8.23974609,-96.97256000
8.27026367,-89.49667000
8.30078125,-84.57894000
8.33129883,-81.99676000
8.36181641,-80.71865000
8.39233398,-80.61887000
8.42285156,-81.67062000
8.45336914,-84.01488000
8.48388672,-88.17608000
8.51440430,-92.09167000
8.54492188,-88.98792000
8.57543945,-87.17247000
8.60595703,-88.03729000
8.63647461,-90.07057000
8.66699219,-91.31758000
8.69750977,-93.87709000
8.72802734,-99.14476000
8.75854492,-91.84911000
8.78906250,-86.52653000
8.81958008,-83.58562000
8.85009766,-82.36001000
8.88061523,-82.80788000
8.91113281,-84.77452000
8.94165039,-87.54684000
8.97216797,-89.99397000
9.00268555,-91.75182000
9.03320313,-90.84034000
9.06372070,-87.12684000
9.09423828,-84.38488000
9.12475586,-83.02846000
9.15527344,-82.39374000
9.18579102,-82.40157000
9.21630859,-83.59249000
9.24682617,-86.54736000
9.27734375,-89.48242000
9.30786133,-86.69274000
9.33837891,-84.21628000
9.36889648,-82.62379000
9.39941406,-80.65846000
9.42993164,-79.69926000
9.46044922,-80.57717000
9.49096680,-82.20125000
9.52148438,-81.85959000
9.55200195,-80.23857000
9.58251953,-79.74466000
9.61303711,-81.54553000
9.64355469,-86.07240000
9.67407227,-86.27869000
9.70458984,-82.59985000
9.73510742,-80.72177000
9.76562500,-79.53280000
9.79614258,-78.47739000
9.82666016,-77.85877000
9.85717773,-78.18993000
9.88769531,-79.70256000
9.91821289,-81.90617000
9.94873047,-82.59323000
9.97924805,-81.20189000
10.00976563,-79.96388000
10.04028320,-79.43884000
10.07080078,-79.34933000
10.10131836,-79.39553000
10.13183594,-79.55001000
10.16235352,-80.25738000
10.19287109,-82.27626000
10.22338867,-83.94196000
10.25390625,-79.62495000
10.28442383,-75.64334000
10.31494141,-73.81013000
10.34545898,-73.65016000
10.37597656,-74.71205000
10.40649414,-76.71584000
10.43701172,-79.75616000
10.46752930,-84.59085000
10.49804688,-90.68488000
10.52856445,-89.93881000
10.55908203,-89.54510000
10.58959961,-89.49398000
10.62011719,-85.72084000
10.65063477,-82.65944000
10.68115234,-81.65554000
10.71166992,-82.18960000
10.74218750,-83.11390000
10.77270508,-83.77454000
10.80322266,-85.43420000
10.83374023,-90.91134000
10.86425781,-88.51062000
10.89477539,-82.85814000
10.92529297,-81.38337000
10.95581055,-82.31787000
10.98632813,-85.23876000
11.01684570,-88.18758000
11.04736328,-86.88236000
11.07788086,-86.20899000
11.10839844,-86.07320000
11.13891602,-84.59920000
11.16943359,-83.94184000
11.19995117,-85.30554000
11.23046875,-87.94917000
11.26098633,-84.79249000
11.29150391,-79.08453000
11.32202148,-75.38425000
11.35253906,-73.70734000
11.38305664,-73.49898000
11.41357422,-73.60909000
11.44409180,-73.54251000
11.47460938,-74.36080000
11.50512695,-77.64536000
11.53564453,-84.77371000
11.56616211,-78.92308000
11.59667969,-74.73913000
11.62719727,-73.73360000
11.65771484,-73.99186000
11.68823242,-74.14151000
11.71875000,-74.45885000
11.74926758,-77.03761000
11.77978516,-83.94019000
11.81030273,-78.36868000
11.84082031,-74.92892000
11.87133789,-75.19756000
11.90185547,-77.09109000
11.93237305,-78.60577000
11.96289063,-78.69706000
11.99340820,-78.53603000
12.02392578,-78.93620000
12.05444336,-80.03397000
12.08496094,-81.67587000
12.11547852,-81.88725000
12.14599609,-80.74023000
12.17651367,-80.72227000
12.20703125,-81.73230000
12.23754883,-81.64215000
12.26806641,-79.88111000
12.29858398,-78.45584000
12.32910156,-78.29060000
12.35961914,-78.03964000
12.39013672,-76.27061000
12.42065430,-75.41467000
12.45117188,-77.49441000
12.48168945,-84.67517000
12.51220703,-87.70114000
12.54272461,-81.84500000
12.57324219,-80.82366000
12.60375977,-81.97654000
12.63427734,-84.01613000
12.66479492,-83.97522000
12.69531250,-82.94658000
12.72583008,-82.98430000
12.75634766,-83.56471000
12.78686523,-85.18310000
12.81738281,-83.35362000
12.84790039,-79.39823000
12.87841797,-78.03521000
12.90893555,-79.06915000
12.93945313,-80.97134000
12.96997070,-80.83253000
13.00048828,-78.65281000
13.03100586,-77.86475000
13.06152344,-81.21719000
13.09204102,-88.22636000
13.12255859,-80.24464000
13.15307617,-77.69003000
13.18359375,-77.82630000
13.21411133,-77.97706000
13.24462891,-76.72474000
13.27514648,-74.86367000
13.30566406,-73.12958000
13.33618164,-71.76980000
13.36669922,-70.96793000
13.39721680,-71.37653000
13.42773438,-73.73168000
13.45825195,-78.17929000
13.48876953,-75.63287000
13.51928711,-69.24991000
13.54980469,-66.38583000
13.58032227,-66.93480000
13.61083984,-70.34909000
13.64135742,-73.21080000
13.67187500,-73.36869000
13.70239258,-73.41032000
13.73291016,-73.42719000
13.76342773,-73.97037000
13.79394531,-75.60760000
13.82446289,-76.60950000
13.85498047,-75.83453000
13.88549805,-76.19196000
13.91601563,-77.47374000
13.94653320,-78.27237000
13.97705078,-80.18059000
14.00756836,-82.93756000
14.03808594,-82.69859000
14.06860352,-82.51515000
14.09912109,-83.46634000
14.12963867,-83.71667000
14.16015625,-82.77581000
14.19067383,-82.11212000
14.22119141,-82.42954000
14.25170898,-82.87019000
14.28222656,-81.84056000
14.31274414,-79.26347000
14.34326172,-76.80778000
14.37377930,-75.73895000
14.40429688,-76.40662000
14.43481445,-78.57275000
14.46533203,-81.69129000
14.49584961,-82.38304000
14.52636719,-78.28483000
14.55688477,-75.32355000
14.58740234,-74.44873000
14.61791992,-75.58658000
14.64843750,-78.97522000
14.67895508,-84.39439000
14.70947266,-86.53154000
14.73999023,-86.80914000
14.77050781,-92.31023000
14.80102539,-94.78279000
14.83154297,-86.48574000
14.86206055,-83.73809000
14.89257813,-82.93690000
14.92309570,-83.11539000
14.95361328,-83.74849000
14.98413086,-83.86220000
15.01464844,-82.82646000
15.04516602,-81.47916000
15.07568359,-81.13013000
15.10620117,-81.95969000
15.13671875,-82.13184000
15.16723633,-81.55638000
15.19775391,-80.01048000
15.22827148,-77.56490000
15.25878906,-77.42508000
15.28930664,-80.46584000
15.31982422,-84.69205000
15.35034180,-87.98214000
15.38085938,-96.25238000
15.41137695,-85.16270000
15.44189453,-79.87920000
15.47241211,-77.56997000
15.50292969,-76.79829000
15.53344727,-77.37611000
15.56396484,-79.66402000
15.59448242,-84.07317000
15.62500000,-89.39162000
15.65551758,-90.46604000
15.68603516,-87.70096000
15.71655273,-84.22458000
15.74707031,-81.57234000
15.77758789,-80.15909000
15.80810547,-79.81187000
15.83862305,-80.07143000
15.86914063,-80.92696000
15.89965820,-82.70380000
15.93017578,-85.01428000
15.96069336,-87.22922000
15.99121094,-88.22665000
16.02172852,-86.20354000
16.05224609,-83.57547000
16.08276367,-81.75182000
16.11328125,-80.80601000
16.14379883,-80.44465000
16.17431641,-80.29957000
16.20483398,-80.69391000
16.23535156,-82.41485000
16.26586914,-85.72625000
16.29638672,-89.47731000
16.32690430,-91.25794000
16.35742188,-90.70032000
16.38793945,-88.43692000
16.41845703,-85.79626000
16.44897461,-84.31946000
16.47949219,-84.04314000
16.51000977,-84.56023000
16.54052734,-86.01714000
16.57104492,-88.31598000
16.60156250,-88.64999000
16.63208008,-86.06648000
16.66259766,-83.80165000
16.69311523,-82.55570000
16.72363281,-82.10736000
16.75415039,-82.17151000
16.78466797,-82.56723000
16.81518555,-83.53623000
16.84570313,-85.68121000
16.87622070,-89.30291000
16.90673828,-93.58758000
16.93725586,-95.79999000
16.96777344,-94.30607000
16.99829102,-92.77258000
17.02880859,-92.07364000
17.05932617,-91.07426000
17.08984375,-89.20177000
17.12036133,-87.04771000
17.15087891,-85.69609000
17.18139648,-86.03024000
17.21191406,-88.18531000
17.24243164,-90.36165000
17.27294922,-91.14320000
17.30346680,-91.92268000
17.33398438,-93.16100000
17.36450195,-94.96907000
17.39501953,-92.33943000
17.42553711,-87.89551000
17.45605469,-84.76884000
17.48657227,-83.04160000
17.51708984,-82.61514000
17.54760742,-83.46234000
17.57812500,-85.59152000
17.60864258,-88.48222000
17.63916016,-92.11632000
17.66967773,-93.33370000
17.70019531,-84.94104000
17.73071289,-81.13155000
17.76123047,-80.86165000
17.79174805,-82.84085000
17.82226563,-84.72780000
17.85278320,-85.21771000
17.88330078,-85.87196000
17.91381836,-87.85526000
17.94433594,-92.47476000
17.97485352,-98.49699000
18.00537109,-92.92787000
18.03588867,-89.32527000
18.06640625,-87.73245000
18.09692383,-87.40503000
18.12744141,-88.10643000
18.15795898,-89.29257000
18.18847656,-90.37899000
18.21899414,-92.60727000
18.24951172,-97.98862000
18.28002930,-96.25020000
18.31054688,-92.39254000
18.34106445,-91.70789000
18.37158203,-93.03124000
18.40209961,-96.22063000
18.43261719,-97.14513000
18.46313477,-95.13267000
18.49365234,-95.25380000
18.52416992,-98.30737000
18.55468750,-106.47810000
18.58520508,-108.41090000
18.61572266,-100.07940000
18.64624023,-97.02538000
18.67675781,-96.16975000
18.70727539,-97.13085000
18.73779297,-99.11376000
18.76831055,-98.93944000
18.79882813,-96.23315000
18.82934570,-94.45662000
18.85986328,-94.81187000
18.89038086,-96.82205000
18.92089844,-100.05850000
18.95141602,-104.39430000
18.98193359,-101.15930000
19.01245117,-97.27075000
19.04296875,-95.46322000
19.07348633,-93.91310000
19.10400391,-92.27644000
19.13452148,-91.08028000
19.16503906,-90.87190000
19.19555664,-91.72761000
19.22607422,-93.47733000
19.25659180,-96.59374000
19.28710938,-102.13910000
19.31762695,-101.00440000
19.34814453,-95.22544000
19.37866211,-91.35846000
19.40917969,-89.19624000
19.43969727,-88.77548000
19.47021484,-90.04818000
19.50073242,-93.10225000
19.53125000,-98.16882000
19.56176758,-101.14460000
19.59228516,-98.51777000
19.62280273,-97.34062000
19.65332031,-96.83555000
19.68383789,-94.96774000
19.71435547,-93.36002000
19.74487305,-93.22694000
19.77539063,-94.33639000
19.80590820,-96.41320000
19.83642578,-99.47876000
19.86694336,-102.91940000
19.89746094,-105.63480000
19.92797852,-110.06740000
19.95849609,-116.74340000
19.98901367,-103.03630000
20.01953125,-98.53168000
20.05004883,-97.00525000
20.08056641,-96.37803000
20.11108398,-95.51693000
20.14160156,-94.73118000
20.17211914,-95.04353000
20.20263672,-97.60928000
20.23315430,-101.81920000
20.26367188,-95.78953000
20.29418945,-91.29074000
20.32470703,-89.51343000
20.35522461,-87.34633000
20.38574219,-84.51481000
20.41625977,-83.73611000
20.44677734,-86.27461000
20.47729492,-90.45412000
20.50781250,-85.95623000
20.53833008,-83.15543000
20.56884766,-83.42192000
20.59936523,-86.11255000
20.62988281,-90.41127000
20.66040039,-93.81407000
20.69091797,-94.85585000
20.72143555,-94.59618000
20.75195313,-92.92961000
20.78247070,-90.65197000
20.81298828,-89.32915000
20.84350586,-89.76762000
20.87402344,-91.40123000
20.90454102,-91.81255000
20.93505859,-90.48911000
20.96557617,-89.07870000
20.99609375,-87.87465000
21.02661133,-87.18225000
21.05712891,-87.71507000
21.08764648,-90.40490000
21.11816406,-95.77441000
21.14868164,-94.49663000
21.17919922,-90.71350000
21.20971680,-89.85000000
21.24023438,-91.93390000
21.27075195,-99.91933000
21.30126953,-96.44191000
21.33178711,-89.59214000
21.36230469,-87.19362000
21.39282227,-86.46565000
21.42333984,-86.33987000
21.45385742,-87.04614000
21.48437500,-89.72772000
21.51489258,-96.54687000
21.54541016,-119.11530000
21.57592773,-101.25220000
21.60644531,-102.82340000
21.63696289,-119.53070000
21.66748047,-103.23450000
21.69799805,-95.59988000
21.72851563,-91.41585000
21.75903320,-88.98037000
21.78955078,-87.67350000
21.82006836,-87.44727000
21.85058594,-88.60155000
21.88110352,-91.29962000
21.91162109,-94.10866000
21.94213867,-92.44936000
21.97265625,-88.95921000
22.00317383,-86.52699000
22.03369141,-85.36467000
22.06420898,-85.47115000
22.09472656,-86.75714000
22.12524414,-88.55887000
22.15576172,-89.26361000
22.18627930,-88.81970000
22.21679688,-88.91312000
22.24731445,-89.57510000
22.27783203,-88.52554000
22.30834961,-86.14111000
22.33886719,-84.90540000
22.36938477,-85.60388000
22.39990234,-88.26828000
22.43041992,-92.07471000
22.46093750,-94.60178000
22.49145508,-94.51170000
22.52197266,-92.31004000
22.55249023,-89.15898000
22.58300781,-87.29591000
22.61352539,-87.35709000
22.64404297,-88.65803000
22.67456055,-89.98174000
22.70507813,-91.52943000
22.73559570,-94.25381000
22.76611328,-97.62524000
22.79663086,-98.43337000
22.82714844,-95.26132000
22.85766602,-94.04277000
22.88818359,-96.57784000
22.91870117,-102.16920000
22.94921875,-101.35110000
22.97973633,-95.48049000
23.01025391,-92.94841000
23.04077148,-92.52744000
23.07128906,-93.15052000
23.10180664,-97.20573000
23.13232422,-97.55470000
23.16284180,-91.52892000
23.19335938,-91.07471000
23.22387695,-94.68949000
23.25439453,-98.06551000
23.28491211,-95.73117000
23.31542969,-93.23479000
23.34594727,-92.22485000
23.37646484,-93.99266000
23.40698242,-102.71060000
23.43750000,-96.13819000
23.46801758,-89.01793000
23.49853516,-86.21133000
23.52905273,-85.68147000
23.55957031,-86.77207000
23.59008789,-88.81664000
23.62060547,-90.95872000
23.65112305,-92.58525000
23.68164063,-93.84197000
23.71215820,-95.23856000
23.74267578,-97.23607000
23.77319336,-103.40990000
23.80371094,-98.06906000
23.83422852,-90.97630000
23.86474609,-89.44464000
23.89526367,-91.53020000
23.92578125,-96.36120000
23.95629883,-104.21620000
23.98681641,-106.34140000
24.01733398,-110.32400000
24.04785156,-100.43820000
24.07836914,-94.19521000
24.10888672,-91.02470000
24.13940430,-87.92438000
24.16992188,-85.68782000
24.20043945,-85.68675000
24.23095703,-88.66269000
24.26147461,-95.33951000
24.29199219,-100.75850000
24.32250977,-100.26200000
24.35302734,-101.64470000
24.38354492,-100.91720000
24.41406250,-95.76488000
24.44458008,-90.78330000
24.47509766,-87.36233000
24.50561523,-85.90236000
24.53613281,-86.86169000
24.56665039,-90.71696000
24.59716797,-97.32225000
24.62768555,-102.66810000
24.65820313,-108.34080000
24.68872070,-116.16620000
24.71923828,-101.38250000
24.74975586,-95.60643000
24.78027344,-92.56442000
24.81079102,-90.78617000
24.84130859,-89.87820000
24.87182617,-90.06100000
24.90234375,-89.96804000
24.93286133,-88.62534000
24.96337891,-87.97137000
24.99389648,-88.78279000
25.02441406,-90.52555000
25.05493164,-92.31991000
25.08544922,-94.31239000
25.11596680,-98.01778000
25.14648438,-97.17108000
25.17700195,-91.32095000
25.20751953,-88.91745000
25.23803711,-89.23776000
25.26855469,-91.40487000
25.29907227,-94.34242000
25.32958984,-96.64742000
25.36010742,-96.47009000
25.39062500,-94.38678000
25.42114258,-93.54717000
25.45166016,-94.93671000
25.48217773,-95.58864000
25.51269531,-94.49887000
25.54321289,-97.44209000
25.57373047,-103.03970000
25.60424805,-94.34646000
25.63476563,-91.42953000
25.66528320,-91.65318000
25.69580078,-94.03152000
25.72631836,-96.89137000
25.75683594,-97.30818000
25.78735352,-96.76247000
25.81787109,-96.94948000
25.84838867,-100.09950000
25.87890625,-110.68580000
25.90942383,-100.68200000
25.93994141,-94.71292000
25.97045898,-92.36214000
26.00097656,-91.48800000
26.03149414,-90.78098000
26.06201172,-90.54773000
26.09252930,-91.87809000
26.12304688,-95.96772000
26.15356445,-104.23490000
26.18408203,-120.99740000
26.21459961,-101.94440000
26.24511719,-93.12956000
26.27563477,-89.64542000
26.30615234,-89.29374000
26.33666992,-90.54668000
26.36718750,-91.00697000
26.39770508,-91.02051000
26.42822266,-93.02613000
26.45874023,-99.50494000
26.48925781,-106.21180000
26.51977539,-101.58040000
26.55029297,-102.20440000
26.58081055,-99.17782000
26.61132813,-99.00815000
26.64184570,-101.86760000
26.67236328,-99.15086000
26.70288086,-96.12514000
26.73339844,-94.04282000
26.76391602,-92.71321000
26.79443359,-93.24220000
26.82495117,-97.09657000
26.85546875,-109.07190000
26.88598633,-100.36850000
26.91650391,-94.87640000
26.94702148,-93.69453000
26.97753906,-94.40793000
27.00805664,-95.04568000
27.03857422,-94.77441000
27.06909180,-93.01541000
27.09960938,-91.42686000
27.13012695,-90.86755000
27.16064453,-90.91376000
27.19116211,-90.84817000
27.22167969,-90.92007000
27.25219727,-91.61597000
27.28271484,-93.46040000
27.31323242,-98.17891000
27.34375000,-109.81230000
27.37426758,-107.31170000
27.40478516,-99.89673000
27.43530273,-94.25078000
27.46582031,-91.76261000
27.49633789,-91.84337000
27.52685547,-93.81778000
27.55737305,-96.48018000
27.58789063,-98.23215000
27.61840820,-99.90358000
27.64892578,-102.51250000
27.67944336,-107.28630000
27.70996094,-102.10970000
27.74047852,-95.96614000
27.77099609,-93.60279000
27.80151367,-92.90363000
27.83203125,-92.46262000
27.86254883,-91.70335000
27.89306641,-90.91679000
27.92358398,-90.74292000
27.95410156,-91.18758000
27.98461914,-91.79978000
28.01513672,-92.63904000
28.04565430,-93.74805000
28.07617188,-93.27312000
28.10668945,-91.16291000
28.13720703,-89.32693000
28.16772461,-88.22839000
28.19824219,-88.11467000
28.22875977,-89.23615000
28.25927734,-91.28140000
28.28979492,-92.87727000
28.32031250,-92.53974000
28.35083008,-91.53695000
28.38134766,-92.02716000
28.41186523,-94.55690000
28.44238281,-96.33984000
28.47290039,-93.30882000
28.50341797,-90.46045000
28.53393555,-89.42013000
28.56445313,-89.65942000
28.59497070,-90.10081000
28.62548828,-90.16410000
28.65600586,-90.43125000
28.68652344,-91.39363000
28.71704102,-93.02341000
28.74755859,-95.87432000
28.77807617,-100.57360000
28.80859375,-102.52550000
28.83911133,-105.18520000
28.86962891,-106.35040000
28.90014648,-100.82290000
28.93066406,-99.12998000
28.96118164,-97.51344000
28.99169922,-94.25378000
29.02221680,-91.78944000
29.05273438,-90.72885000
29.08325195,-90.35061000
29.11376953,-90.16282000
29.14428711,-90.63504000
29.17480469,-92.45690000
29.20532227,-95.54577000
29.23583984,-97.31915000
29.26635742,-97.09563000
29.29687500,-97.56917000
29.32739258,-96.55466000
29.35791016,-94.77397000
29.38842773,-95.28439000
29.41894531,-95.89661000
29.44946289,-93.14792000
29.47998047,-92.05388000
29.51049805,-93.68697000
29.54101563,-97.18614000
29.57153320,-101.65870000
29.60205078,-104.94880000
29.63256836,-104.45250000
29.66308594,-101.49100000
29.69360352,-98.60531000
29.72412109,-97.58437000
29.75463867,-99.43622000
29.78515625,-107.05990000
29.81567383,-99.49589000
29.84619141,-93.38981000
29.87670898,-92.63585000
29.90722656,-96.23074000
29.93774414,-99.47768000
29.96826172,-99.13708000
29.99877930,-96.06468000
30.02929688,-93.13203000
30.05981445,-93.94911000
30.09033203,-98.45718000
30.12084961,-98.65984000
30.15136719,-93.78174000
30.18188477,-91.66959000
30.21240234,-92.36646000
30.24291992,-95.45885000
30.27343750,-98.14889000
30.30395508,-98.40977000
30.33447266,-97.81029000
30.36499023,-99.53739000
30.39550781,-100.85140000
30.42602539,-94.59393000
30.45654297,-92.11723000
30.48706055,-92.39311000
30.51757813,-93.22620000
30.54809570,-93.25027000
30.57861328,-93.81720000
30.60913086,-95.66537000
30.63964844,-97.63856000
30.67016602,-98.68382000
30.70068359,-99.11491000
30.73120117,-96.72408000
30.76171875,-93.54443000
30.79223633,-92.55642000
30.82275391,-93.14635000
30.85327148,-94.51242000
30.88378906,-96.13939000
30.91430664,-95.91742000
30.94482422,-95.80880000
30.97534180,-95.29913000
31.00585938,-91.94378000
31.03637695,-90.12656000
31.06689453,-90.63179000
31.09741211,-92.86946000
31.12792969,-96.47163000
31.15844727,-99.96254000
31.18896484,-98.89275000
31.21948242,-96.43355000
31.25000000,-94.61192000
31.28051758,-93.32246000
31.31103516,-91.47323000
31.34155273,-88.95375000
31.37207031,-87.59299000
31.40258789,-87.99498000
31.43310547,-89.58409000
31.46362305,-90.71487000
31.49414063,-90.02334000
31.52465820,-88.71005000
31.55517578,-88.45868000
31.58569336,-89.85688000
31.61621094,-93.01527000
31.64672852,-96.45347000
31.67724609,-95.12832000
31.70776367,-93.71001000
31.73828125,-94.43679000
31.76879883,-95.40336000
31.79931641,-95.00589000
31.82983398,-95.85146000
31.86035156,-100.24700000
31.89086914,-100.20600000
31.92138672,-96.62059000
31.95190430,-98.18506000
31.98242188,-105.73070000
32.01293945,-102.46090000
32.04345703,-98.99747000
32.07397461,-98.02322000
32.10449219,-96.79036000
32.13500977,-95.46375000
32.16552734,-95.89298000
32.19604492,-100.04200000
32.22656250,-102.81350000
32.25708008,-96.78246000
32.28759766,-96.29132000
32.31811523,-100.15110000
32.34863281,-97.29065000
32.37915039,-94.90887000
32.40966797,-97.90261000
32.44018555,-114.35450000
32.47070313,-101.47280000
32.50122070,-97.34764000
32.53173828,-95.68539000
32.56225586,-95.93764000
32.59277344,-99.60236000
32.62329102,-108.38060000
32.65380859,-107.62310000
32.68432617,-101.22510000
32.71484375,-97.10176000
32.74536133,-95.59499000
32.77587891,-96.72805000
32.80639648,-98.66524000
32.83691406,-96.45384000
32.86743164,-94.20647000
32.89794922,-94.39469000
32.92846680,-97.52736000
32.95898438,-104.94120000
32.98950195,-103.11790000
33.02001953,-98.48053000
33.05053711,-95.77549000
33.08105469,-93.37020000
33.11157227,-92.08101000
33.14208984,-92.04427000
33.17260742,-92.36668000
33.20312500,-91.78728000
33.23364258,-90.12787000
33.26416016,-88.94492000
33.29467773,-89.39674000
33.32519531,-90.95440000
33.35571289,-91.61678000
33.38623047,-91.65834000
33.41674805,-92.60273000
33.44726563,-94.99153000
33.47778320,-98.46256000
33.50830078,-103.85960000
33.53881836,-104.16050000
33.56933594,-95.36191000
33.59985352,-91.54491000
33.63037109,-90.12269000
33.66088867,-89.20704000
33.69140625,-88.34099000
33.72192383,-88.69068000
33.75244141,-90.39148000
33.78295898,-92.27957000
33.81347656,-93.45542000
33.84399414,-93.68641000
33.87451172,-93.44826000
33.90502930,-93.95718000
33.93554688,-94.81983000
33.96606445,-93.21281000
33.99658203,-90.57636000
34.02709961,-89.13539000
34.05761719,-89.24516000
34.08813477,-91.11813000
34.11865234,-94.38316000
34.14916992,-95.14000000
34.17968750,-94.23116000
34.21020508,-95.22561000
34.24072266,-97.38556000
34.27124023,-100.42560000
34.30175781,-104.73850000
34.33227539,-103.19310000
34.36279297,-101.86060000
34.39331055,-100.47910000
34.42382813,-99.04103000
34.45434570,-99.93946000
34.48486328,-104.68720000
34.51538086,-111.74600000
34.54589844,-102.31980000
34.57641602,-100.36720000
34.60693359,-103.20080000
34.63745117,-101.06270000
34.66796875,-97.12281000
34.69848633,-95.94016000
34.72900391,-96.25881000
34.75952148,-99.42079000
34.79003906,-102.12100000
34.82055664,-96.29295000
34.85107422,-94.62239000
34.88159180,-96.25613000
34.91210938,-99.25632000
34.94262695,-98.87389000
34.97314453,-95.67300000
35.00366211,-94.04502000
35.03417969,-95.20272000
35.06469727,-99.47594000
35.09521484,-102.19610000
35.12573242,-101.05860000
35.15625000,-102.57290000
35.18676758,-105.98110000
35.21728516,-112.16460000
35.24780273,-112.99820000
35.27832031,-107.94430000
35.30883789,-106.43290000
35.33935547,-105.82080000
35.36987305,-104.38230000
35.40039063,-101.40580000
35.43090820,-97.49290000
35.46142578,-94.12716000
35.49194336,-91.84245000
35.52246094,-90.50128000
35.55297852,-90.03168000
35.58349609,-90.63827000
35.61401367,-92.65266000
35.64453125,-96.31858000
35.67504883,-101.91400000
35.70556641,-111.43490000
35.73608398,-120.03750000
35.76660156,-113.06140000
35.79711914,-104.44150000
35.82763672,-98.04939000
35.85815430,-95.26807000
35.88867188,-95.15562000
35.91918945,-96.55658000
35.94970703,-97.36256000
35.98022461,-96.58462000
36.01074219,-94.90189000
36.04125977,-93.49769000
36.07177734,-93.02921000
36.10229492,-93.16380000
36.13281250,-92.83919000
36.16333008,-91.32202000
36.19384766,-90.68855000
36.22436523,-92.87467000
36.25488281,-99.24399000
36.28540039,-106.19540000
36.31591797,-103.86250000
36.34643555,-102.02300000
36.37695313,-98.85811000
36.40747070,-97.07915000
36.43798828,-96.77464000
36.46850586,-96.63827000
36.49902344,-95.84290000
36.52954102,-95.36699000
36.56005859,-96.21922000
36.59057617,-98.93573000
36.62109375,-104.20560000
36.65161133,-112.38770000
36.68212891,-110.70250000
36.71264648,-106.49140000
36.74316406,-101.33100000
36.77368164,-98.26512000
36.80419922,-98.06248000
36.83471680,-97.28177000
36.86523438,-93.71649000
36.89575195,-91.01059000
36.92626953,-89.68510000
36.95678711,-89.84758000
36.98730469,-92.13483000
37.01782227,-97.20761000
37.04833984,-100.96710000
37.07885742,-96.75678000
37.10937500,-93.49777000
37.13989258,-92.37954000
37.17041016,-93.27083000
37.20092773,-95.73467000
37.23144531,-99.36288000
37.26196289,-102.45110000
37.29248047,-99.70703000
37.32299805,-97.27834000
37.35351563,-96.53352000
37.38403320,-96.91217000
37.41455078,-95.81616000
37.44506836,-95.01308000
37.47558594,-97.95808000
37.50610352,-106.13510000
37.53662109,-102.09790000
37.56713867,-98.29030000
37.59765625,-95.61574000
37.62817383,-92.96341000
37.65869141,-91.23321000
37.68920898,-90.56046000
37.71972656,-90.26168000
37.75024414,-89.88487000
37.78076172,-89.91708000
37.81127930,-90.68163000
37.84179688,-91.36590000
37.87231445,-91.52930000
37.90283203,-92.31239000
37.93334961,-95.07608000
37.96386719,-103.08300000
37.99438477,-107.76330000
38.02490234,-99.61334000
38.05541992,-98.92426000
38.08593750,-100.63950000
38.11645508,-103.69250000
38.14697266,-107.48770000
38.17749023,-115.28850000
38.20800781,-103.05530000
38.23852539,-99.40607000
38.26904297,-98.24759000
38.29956055,-96.99326000
38.33007813,-96.07121000
38.36059570,-97.02032000
38.39111328,-100.66340000
38.42163086,-104.18160000
38.45214844,-99.73167000
38.48266602,-93.44556000
38.51318359,-90.52994000
38.54370117,-90.98715000
38.57421875,-93.60658000
38.60473633,-94.50164000
38.63525391,-94.56985000
38.66577148,-95.01984000
38.69628906,-94.66625000
38.72680664,-95.70159000
38.75732422,-96.74088000
38.78784180,-97.04103000
38.81835938,-100.68700000
38.84887695,-102.71580000
38.87939453,-106.58900000
38.90991211,-97.26472000
38.94042969,-91.26244000
38.97094727,-90.90024000
39.00146484,-95.44028000
39.03198242,-99.18826000
39.06250000,-93.81792000
39.09301758,-92.37901000
39.12353516,-91.91447000
39.15405273,-90.07218000
39.18457031,-88.71681000
39.21508789,-88.81171000
39.24560547,-90.20105000
39.27612305,-93.11842000
39.30664063,-100.64280000
39.33715820,-105.22590000
39.36767578,-96.20152000
39.39819336,-96.21663000
39.42871094,-104.20860000
39.45922852,-98.61618000
39.48974609,-90.86292000
39.52026367,-87.59925000
39.55078125,-86.79947000
39.58129883,-87.60974000
39.61181641,-89.44428000
39.64233398,-92.35548000
39.67285156,-95.09766000
39.70336914,-94.39087000
39.73388672,-93.99507000
39.76440430,-92.37486000
39.79492188,-90.13259000
39.82543945,-89.30217000
39.85595703,-89.21606000
39.88647461,-90.09723000
39.91699219,-92.51962000
39.94750977,-95.12842000
39.97802734,-92.26999000
40.00854492,-87.59937000
40.03906250,-84.87576000
40.06958008,-84.59519000
40.10009766,-86.83290000
40.13061523,-89.53838000
40.16113281,-89.01285000
40.19165039,-87.99161000
40.22216797,-86.85115000
40.25268555,-86.32420000
40.28320313,-87.33765000
40.31372070,-89.50385000
40.34423828,-91.36155000
40.37475586,-91.01188000
40.40527344,-88.44265000
40.43579102,-85.99885000
40.46630859,-84.90025000
40.49682617,-84.51714000
40.52734375,-83.79910000
40.55786133,-83.78329000
40.58837891,-86.09941000
40.61889648,-92.16758000
40.64941406,-104.90740000
40.67993164,-119.41660000
40.71044922,-106.28410000
40.74096680,-107.74510000
40.77148438,-100.71970000
40.80200195,-96.31822000
40.83251953,-94.88963000
40.86303711,-92.64380000
40.89355469,-89.36553000
40.92407227,-85.61095000
40.95458984,-83.30200000
40.98510742,-82.64008000
41.01562500,-83.30875000
41.04614258,-85.27505000
41.07666016,-89.05370000
41.10717773,-95.80328000
41.13769531,-93.15974000
41.16821289,-86.86136000
41.19873047,-83.75363000
41.22924805,-83.00876000
41.25976563,-84.47502000
41.29028320,-87.80029000
41.32080078,-88.39835000
41.35131836,-85.07069000
41.38183594,-83.11179000
41.41235352,-82.85040000
41.44287109,-83.61373000
41.47338867,-84.83117000
41.50390625,-86.08906000
41.53442383,-87.33283000
41.56494141,-90.10420000
41.59545898,-98.42826000
41.62597656,-95.61322000
41.65649414,-89.58564000
41.68701172,-88.33861000
41.71752930,-89.79588000
41.74804688,-92.38116000
41.77856445,-91.85402000
41.80908203,-87.63389000
41.83959961,-83.95627000
41.87011719,-82.50233000
41.90063477,-82.93822000
41.93115234,-84.15466000
41.96166992,-85.19879000
41.99218750,-86.22369000
42.02270508,-88.00328000
42.05322266,-91.69870000
42.08374023,-101.31640000
42.11425781,-94.95296000
42.14477539,-86.68858000
42.17529297,-82.66583000
42.20581055,-81.15697000
42.23632813,-81.27325000
42.26684570,-82.19664000
42.29736328,-83.27867000
42.32788086,-83.90617000
42.35839844,-84.29689000
42.38891602,-85.61751000
42.41943359,-88.90729000
42.44995117,-91.69135000
42.48046875,-86.07654000
42.51098633,-82.01421000
42.54150391,-80.76390000
42.57202148,-81.79504000
42.60253906,-84.33804000
42.63305664,-86.88462000
42.66357422,-87.36839000
42.69409180,-86.26471000
42.72460938,-85.61848000
42.75512695,-85.80470000
42.78564453,-86.81992000
42.81616211,-89.28520000
42.84667969,-93.42491000
42.87719727,-94.37868000
42.90771484,-91.79322000
42.93823242,-88.66615000
42.96875000,-85.98095000
42.99926758,-84.45120000
43.02978516,-83.59659000
43.06030273,-83.26590000
43.09082031,-84.05678000
43.12133789,-87.14178000
43.15185547,-95.98713000
43.18237305,-92.48084000
43.21289063,-88.01233000
43.24340820,-88.98711000
43.27392578,-92.63526000
43.30444336,-90.78729000
43.33496094,-86.94512000
43.36547852,-85.65443000
43.39599609,-87.14942000
43.42651367,-92.81807000
43.45703125,-101.08320000
43.48754883,-87.52621000
43.51806641,-83.43796000
43.54858398,-82.98294000
43.57910156,-85.29845000
43.60961914,-87.81151000
43.64013672,-87.69230000
43.67065430,-87.88128000
43.70117188,-89.27893000
43.73168945,-92.24452000
43.76220703,-94.11150000
43.79272461,-91.28368000
43.82324219,-89.07265000
43.85375977,-88.90799000
43.88427734,-91.23451000
43.91479492,-95.21580000
43.94531250,-97.42496000
43.97583008,-102.59670000
44.00634766,-96.00544000
44.03686523,-92.16953000
44.06738281,-93.06863000
44.09790039,-98.47311000
44.12841797,-102.51000000
44.15893555,-92.07002000
44.18945313,-87.91679000
44.21997070,-87.19434000
44.25048828,-88.88525000
44.28100586,-91.12469000
44.31152344,-91.09534000
44.34204102,-89.67192000
44.37255859,-89.41272000
44.40307617,-90.90980000
44.43359375,-93.84657000
44.46411133,-98.73961000
44.49462891,-99.17550000
44.52514648,-92.20457000
44.55566406,-89.91328000
44.58618164,-91.58424000
44.61669922,-95.42854000
44.64721680,-96.49331000
44.67773438,-93.59892000
44.70825195,-92.82423000
44.73876953,-98.40569000
44.76928711,-98.20171000
44.79980469,-90.36351000
44.83032227,-87.45923000
44.86083984,-86.85022000
44.89135742,-88.38790000
44.92187500,-91.79315000
44.95239258,-93.72350000
44.98291016,-92.62028000
45.01342773,-90.58732000
45.04394531,-89.99391000
45.07446289,-92.06136000
45.10498047,-97.72476000
45.13549805,-106.20520000
45.16601563,-95.77966000
45.19653320,-91.19305000
45.22705078,-89.98163000
45.25756836,-91.46838000
45.28808594,-94.75014000
45.31860352,-100.46170000
45.34912109,-104.95380000
45.37963867,-97.49092000
45.41015625,-96.35605000
45.44067383,-98.90193000
45.47119141,-107.43460000
45.50170898,-109.91260000
45.53222656,-105.85210000
45.56274414,-108.59260000
45.59326172,-99.63737000
45.62377930,-97.85453000
45.65429688,-92.23259000
45.68481445,-87.89787000
45.71533203,-87.88943000
45.74584961,-93.92590000
45.77636719,-100.30530000
45.80688477,-89.38732000
45.83740234,-87.25346000
45.86791992,-88.41821000
45.89843750,-92.00735000
45.92895508,-96.86716000
45.95947266,-96.25843000
45.98999023,-90.33224000
46.02050781,-87.30076000
46.05102539,-87.47894000
46.08154297,-91.07685000
46.11206055,-100.29160000
46.14257813,-102.39600000
46.17309570,-97.26251000
46.20361328,-96.37941000
46.23413086,-97.34048000
46.26464844,-99.54769000
46.29516602,-98.21786000
46.32568359,-93.56320000
46.35620117,-90.13742000
46.38671875,-89.81136000
46.41723633,-93.43734000
46.44775391,-104.05450000
46.47827148,-108.77280000
46.50878906,-103.35340000
46.53930664,-104.17930000
46.56982422,-104.97870000
46.60034180,-103.67630000
46.63085938,-106.77850000
46.66137695,-105.52700000
46.69189453,-99.48975000
46.72241211,-99.12209000
46.75292969,-103.14540000
46.78344727,-109.81830000
46.81396484,-109.11070000
46.84448242,-100.44050000
46.87500000,-96.22482000
46.90551758,-95.46506000
46.93603516,-97.70535000
46.96655273,-106.05850000
46.99707031,-105.91070000
47.02758789,-97.74991000
47.05810547,-95.86328000
47.08862305,-96.17160000
47.11914063,-97.92637000
47.14965820,-100.39070000
47.18017578,-101.62560000
47.21069336,-101.68470000
47.24121094,-100.43430000
47.27172852,-98.02814000
47.30224609,-95.74631000
47.33276367,-95.21424000
47.36328125,-97.24295000
47.39379883,-97.84163000
47.42431641,-94.82678000
47.45483398,-94.18888000
47.48535156,-96.52454000
47.51586914,-103.03420000
47.54638672,-102.58190000
47.57690430,-94.98511000
47.60742188,-92.61679000
47.63793945,-93.77347000
47.66845703,-96.29025000
47.69897461,-94.14296000
47.72949219,-91.46196000
47.76000977,-90.71996000
47.79052734,-91.93943000
47.82104492,-95.04140000
47.85156250,-98.19991000
47.88208008,-99.69707000
47.91259766,-103.70780000
47.94311523,-111.88300000
47.97363281,-101.51360000
48.00415039,-95.18940000
48.03466797,-91.89770000
48.06518555,-91.05859000
48.09570313,-92.14185000
48.12622070,-93.25557000
48.15673828,-92.83226000
48.18725586,-92.62737000
48.21777344,-93.40227000
48.24829102,-95.20091000
48.27880859,-99.31052000
48.30932617,-113.27150000
48.33984375,-99.50351000
48.37036133,-94.44859000
48.40087891,-93.95332000
48.43139648,-96.75613000
48.46191406,-101.51130000
48.49243164,-103.61870000
48.52294922,-96.90875000
48.55346680,-92.19542000
48.58398438,-89.72212000
48.61450195,-88.17088000
48.64501953,-86.89279000
48.67553711,-86.20668000
48.70605469,-87.22360000
48.73657227,-91.05750000
48.76708984,-97.29015000
48.79760742,-99.44194000
48.82812500,-97.22118000
48.85864258,-96.85434000
48.88916016,-98.75091000
48.91967773,-95.53681000
48.95019531,-93.29605000
48.98071289,-94.40697000
49.01123047,-95.85396000
49.04174805,-93.63046000
49.07226563,-93.70457000
49.10278320,-98.50290000
49.13330078,-115.73690000
49.16381836,-102.78740000
49.19433594,-100.85130000
49.22485352,-98.90022000
49.25537109,-98.41574000
49.28588867,-100.02420000
49.31640625,-96.73756000
49.34692383,-92.16075000
49.37744141,-89.38302000
49.40795898,-89.15633000
49.43847656,-90.78846000
49.46899414,-92.38785000
49.49951172,-92.40704000
49.53002930,-90.20341000
49.56054688,-89.45184000
49.59106445,-92.52364000
49.62158203,-104.92050000
49.65209961,-94.78485000
49.68261719,-89.64870000
49.71313477,-88.46656000
49.74365234,-90.15267000
49.77416992,-95.68378000
49.80468750,-108.12090000
49.83520508,-97.04210000
49.86572266,-93.28954000
49.89624023,-92.28326000
49.92675781,-91.93176000
49.95727539,-90.11871000
49.98779297,-86.84247000
50.01831055,-84.28523000
