Frequency,Channel A
(MHz),(dBu)

0.00000000,-28.11002000
0.03051758,-28.25234000
0.06103516,-32.53091000
0.09155273,-39.51642000
0.12207031,-47.88663000
0.15258789,-55.27190000
0.18310547,-56.47966000
0.21362305,-53.34202000
0.24414063,-53.88226000
0.27465820,-57.50021000
0.30517578,-60.63648000
0.33569336,-58.25608000
0.36621094,-56.36372000
0.39672852,-56.91742000
0.42724609,-59.94158000
0.45776367,-65.68112000
0.48828125,-69.20134000
0.51879883,-63.48164000
0.54931641,-57.54162000
0.57983398,-52.25946000
0.61035156,-48.43851000
0.64086914,-46.64597000
0.67138672,-47.25540000
0.70190430,-50.77074000
0.73242188,-57.79239000
0.76293945,-60.89551000
0.79345703,-60.61302000
0.82397461,-65.58131000
0.85449219,-69.64471000
0.88500977,-62.47156000
0.91552734,-59.80206000
0.94604492,-59.26855000
0.97656250,-60.20959000
1.00708008,-63.05222000
1.03759766,-65.97798000
1.06811523,-62.92473000
1.09863281,-60.99010000
1.12915039,-61.33476000
1.15966797,-62.19069000
1.19018555,-62.02699000
1.22070313,-61.35828000
1.25122070,-61.07756000
1.28173828,-61.43993000
1.31225586,-62.07364000
1.34277344,-62.30419000
1.37329102,-62.09620000
1.40380859,-61.90053000
1.43432617,-61.94526000
1.46484375,-62.07688000
1.49536133,-62.24935000
1.52587891,-63.28087000
1.55639648,-65.84319000
1.58691406,-66.79005000
1.61743164,-64.34487000
1.64794922,-63.45837000
1.67846680,-64.30085000
1.70898438,-64.50977000
1.73950195,-63.92957000
1.77001953,-64.15665000
1.80053711,-64.24149000
1.83105469,-63.28025000
1.86157227,-62.92507000
1.89208984,-64.47689000
1.92260742,-68.33595000
1.95312500,-71.08572000
1.98364258,-68.53357000
2.01416016,-66.93526000
2.04467773,-66.96478000
2.07519531,-67.31413000
2.10571289,-66.72044000
2.13623047,-66.33643000
2.16674805,-67.08327000
2.19726563,-67.56104000
2.22778320,-66.47935000
2.25830078,-65.79076000
2.28881836,-66.60171000
2.31933594,-67.66401000
2.34985352,-66.77425000
2.38037109,-65.82858000
2.41088867,-66.25807000
2.44140625,-66.38211000
2.47192383,-64.62798000
2.50244141,-63.61065000
2.53295898,-64.53768000
2.56347656,-66.69129000
2.59399414,-68.00187000
2.62451172,-67.97395000
2.65502930,-67.56826000
2.68554688,-67.10883000
2.71606445,-67.06810000
2.74658203,-67.87577000
2.77709961,-69.37257000
2.80761719,-70.40350000
2.83813477,-69.50865000
2.86865234,-67.32748000
2.89916992,-65.52992000
2.92968750,-65.02869000
2.96020508,-66.13068000
2.99072266,-67.68633000
3.02124023,-65.99683000
3.05175781,-63.40111000
3.08227539,-62.36702000
3.11279297,-62.40220000
3.14331055,-62.40905000
3.17382813,-62.16609000
3.20434570,-62.00943000
3.23486328,-61.94075000
3.26538086,-61.81584000
3.29589844,-61.45935000
3.32641602,-60.89266000
3.35693359,-60.50648000
3.38745117,-60.49703000
3.41796875,-60.59998000
3.44848633,-60.39900000
3.47900391,-59.90444000
3.50952148,-59.70040000
3.54003906,-60.24981000
3.57055664,-61.08790000
3.60107422,-60.93431000
3.63159180,-60.26000000
3.66210938,-60.37992000
3.69262695,-61.11505000
3.72314453,-60.98848000
3.75366211,-59.87633000
3.78417969,-59.10668000
3.81469727,-59.06977000
3.84521484,-59.39030000
3.87573242,-59.65303000
3.90625000,-59.82047000
3.93676758,-59.98048000
3.96728516,-60.25041000
3.99780273,-60.66467000
4.02832031,-60.89570000
4.05883789,-60.76595000
4.08935547,-60.71623000
4.11987305,-61.11189000
4.15039063,-61.68522000
4.18090820,-61.94248000
4.21142578,-62.11410000
4.24194336,-62.60834000
4.27246094,-63.19046000
4.30297852,-63.58765000
4.33349609,-63.93127000
4.36401367,-64.21385000
4.39453125,-64.34676000
4.42504883,-64.49573000
4.45556641,-64.67040000
4.48608398,-64.70204000
4.51660156,-64.89642000
4.54711914,-65.61192000
4.57763672,-66.75297000
4.60815430,-67.94076000
4.63867188,-68.38807000
4.66918945,-67.48744000
4.69970703,-66.31512000
4.73022461,-65.90113000
4.76074219,-66.34900000
4.79125977,-67.39657000
4.82177734,-68.61623000
4.85229492,-69.22711000
4.88281250,-68.56774000
4.91333008,-67.40197000
4.94384766,-66.88067000
4.97436523,-67.27858000
5.00488281,-68.10376000
5.03540039,-68.83534000
5.06591797,-69.55379000
5.09643555,-70.14281000
5.12695313,-70.00314000
5.15747070,-69.28380000
5.18798828,-68.91991000
5.21850586,-69.35371000
5.24902344,-70.37940000
5.27954102,-71.77969000
5.31005859,-73.51003000
5.34057617,-75.16612000
5.37109375,-76.25882000
5.40161133,-77.05277000
5.43212891,-78.08736000
5.46264648,-79.15756000
5.49316406,-77.62489000
5.52368164,-73.69141000
5.55419922,-70.54057000
5.58471680,-68.37820000
5.61523438,-66.86372000
5.64575195,-65.78221000
5.67626953,-64.89297000
5.70678711,-64.04506000
5.73730469,-63.11340000
5.76782227,-61.98866000
5.79833984,-60.83420000
5.82885742,-59.99159000
5.85937500,-59.59652000
5.88989258,-59.45558000
5.92041016,-59.39118000
5.95092773,-59.55944000
5.98144531,-60.11317000
6.01196289,-60.80384000
6.04248047,-61.13364000
6.07299805,-60.97863000
6.10351563,-60.73891000
6.13403320,-60.79346000
6.16455078,-61.24809000
6.19506836,-62.06661000
6.22558594,-63.18314000
6.25610352,-64.39127000
6.28662109,-65.27073000
6.31713867,-65.58660000
6.34765625,-65.65344000
6.37817383,-65.95807000
6.40869141,-66.65994000
6.43920898,-67.51170000
6.46972656,-68.26068000
6.50024414,-69.09995000
6.53076172,-70.13506000
6.56127930,-70.84541000
6.59179688,-70.85693000
6.62231445,-70.54042000
6.65283203,-70.63678000
6.68334961,-71.65525000
6.71386719,-73.25682000
6.74438477,-74.39487000
6.77490234,-75.05008000
6.80541992,-75.89523000
6.83593750,-76.89383000
6.86645508,-77.44653000
6.89697266,-76.78960000
6.92749023,-76.55598000
6.95800781,-79.51792000
6.98852539,-81.99028000
7.01904297,-76.35011000
7.04956055,-74.51642000
7.08007813,-75.85719000
7.11059570,-79.50641000
7.14111328,-83.26019000
7.17163086,-82.27550000
7.20214844,-80.06592000
7.23266602,-78.89004000
7.26318359,-78.33701000
7.29370117,-77.78387000
7.32421875,-77.83672000
7.35473633,-79.54050000
7.38525391,-82.90973000
7.41577148,-86.15974000
7.44628906,-88.44491000
7.47680664,-92.75383000
7.50732422,-90.85751000
7.53784180,-83.67618000
7.56835938,-80.65236000
7.59887695,-80.57904000
7.62939453,-82.13024000
7.65991211,-82.91762000
7.69042969,-82.94415000
7.72094727,-83.31071000
7.75146484,-83.15186000
7.78198242,-82.63657000
7.81250000,-82.82368000
7.84301758,-82.67273000
7.87353516,-80.71090000
7.90405273,-79.77492000
7.93457031,-81.40576000
7.96508789,-85.36790000
7.99560547,-89.23604000
8.02612305,-91.02500000
8.05664063,-91.99158000
8.08715820,-91.30896000
8.11767578,-90.14496000
8.14819336,-90.83720000
8.17871094,-96.31721000
8.20922852,-106.07800000
8.23974609,-92.70570000
8.27026367,-87.48172000
8.30078125,-83.75632000
8.33129883,-82.11929000
8.36181641,-83.09387000
8.39233398,-87.89997000
8.42285156,-105.69440000
8.45336914,-89.63665000
8.48388672,-84.57565000
8.51440430,-81.62845000
8.54492188,-79.81435000
8.57543945,-79.24260000
8.60595703,-80.02585000
8.63647461,-81.79017000
8.66699219,-82.91396000
8.69750977,-82.80128000
8.72802734,-83.01970000
8.75854492,-84.20869000
8.78906250,-86.03394000
8.81958008,-87.07081000
8.85009766,-86.35088000
8.88061523,-85.87280000
8.91113281,-86.22684000
8.94165039,-83.81364000
8.97216797,-80.84954000
9.00268555,-80.26411000
9.03320313,-82.25060000
9.06372070,-86.68880000
9.09423828,-93.17204000
9.12475586,-94.41695000
9.15527344,-90.40788000
9.18579102,-88.35316000
9.21630859,-88.72476000
9.24682617,-92.79517000
9.27734375,-103.80710000
9.30786133,-99.27850000
9.33837891,-100.21920000
9.36889648,-96.96043000
9.39941406,-92.72115000
9.42993164,-92.91281000
9.46044922,-97.06494000
9.49096680,-96.96633000
9.52148438,-88.95755000
9.55200195,-84.31848000
9.58251953,-83.59538000
9.61303711,-88.51077000
9.64355469,-98.36324000
9.67407227,-87.34674000
9.70458984,-87.72539000
9.73510742,-94.01077000
9.76562500,-94.44566000
9.79614258,-92.30080000
9.82666016,-89.12633000
9.85717773,-83.17986000
9.88769531,-81.09170000
9.91821289,-82.68410000
9.94873047,-87.20429000
9.97924805,-89.10020000
10.00976563,-84.60724000
10.04028320,-83.56497000
10.07080078,-87.91528000
10.10131836,-89.37309000
10.13183594,-82.38655000
10.16235352,-80.01103000
10.19287109,-79.99884000
10.22338867,-81.23000000
10.25390625,-83.61467000
10.28442383,-90.16384000
10.31494141,-92.47296000
10.34545898,-81.60558000
10.37597656,-77.49702000
10.40649414,-75.59485000
10.43701172,-75.52864000
10.46752930,-77.69786000
10.49804688,-81.96770000
10.52856445,-85.22706000
10.55908203,-83.35731000
10.58959961,-80.68260000
10.62011719,-79.76544000
10.65063477,-81.21205000
10.68115234,-86.28709000
10.71166992,-96.38474000
10.74218750,-90.22927000
10.77270508,-88.04321000
10.80322266,-86.72876000
10.83374023,-86.53404000
10.86425781,-87.02695000
10.89477539,-82.89542000
10.92529297,-80.39338000
10.95581055,-81.45196000
10.98632813,-85.50312000
11.01684570,-88.26630000
11.04736328,-86.84869000
11.07788086,-85.67788000
11.10839844,-86.00938000
11.13891602,-85.54677000
11.16943359,-84.03513000
11.19995117,-85.02272000
11.23046875,-87.56738000
11.26098633,-85.72351000
11.29150391,-83.14767000
11.32202148,-80.67216000
11.35253906,-78.50074000
11.38305664,-77.55026000
11.41357422,-78.30749000
11.44409180,-81.05027000
11.47460938,-85.03594000
11.50512695,-86.72459000
11.53564453,-85.95062000
11.56616211,-84.68187000
11.59667969,-83.26908000
11.62719727,-82.22198000
11.65771484,-81.89518000
11.68823242,-83.00571000
11.71875000,-86.18030000
11.74926758,-87.67391000
11.77978516,-84.56155000
11.81030273,-83.49732000
11.84082031,-87.04018000
11.87133789,-85.12115000
11.90185547,-80.19932000
11.93237305,-79.65865000
11.96289063,-78.55100000
11.99340820,-75.80056000
12.02392578,-75.46661000
12.05444336,-77.61330000
12.08496094,-79.68803000
12.11547852,-79.85844000
12.14599609,-78.90303000
12.17651367,-76.31912000
12.20703125,-74.11785000
12.23754883,-73.79790000
12.26806641,-75.81537000
12.29858398,-80.91756000
12.32910156,-94.48740000
12.35961914,-89.20541000
12.39013672,-83.72211000
12.42065430,-82.76474000
12.45117188,-85.25466000
12.48168945,-87.05417000
12.51220703,-79.63405000
12.54272461,-75.31721000
12.57324219,-73.40552000
12.60375977,-73.26377000
12.63427734,-74.75810000
12.66479492,-77.23536000
12.69531250,-79.20114000
12.72583008,-80.88158000
12.75634766,-82.82693000
12.78686523,-81.34998000
12.81738281,-77.15603000
12.84790039,-74.35997000
12.87841797,-74.07481000
12.90893555,-76.88432000
12.93945313,-80.21267000
12.96997070,-79.13470000
13.00048828,-81.37802000
13.03100586,-91.22170000
13.06152344,-87.08954000
13.09204102,-79.92702000
13.12255859,-74.70599000
13.15307617,-70.93879000
13.18359375,-69.47232000
13.21411133,-70.82112000
13.24462891,-75.34875000
13.27514648,-82.09655000
13.30566406,-82.48440000
13.33618164,-80.10612000
13.36669922,-78.16958000
13.39721680,-78.09869000
13.42773438,-81.69730000
13.45825195,-81.68201000
13.48876953,-72.74450000
13.51928711,-67.14425000
13.54980469,-64.63283000
13.58032227,-65.02455000
13.61083984,-68.13377000
13.64135742,-72.58421000
13.67187500,-76.32668000
13.70239258,-86.86662000
13.73291016,-77.64154000
13.76342773,-71.88184000
13.79394531,-70.74620000
13.82446289,-72.27027000
13.85498047,-75.41578000
13.88549805,-76.75522000
13.91601563,-74.43996000
13.94653320,-73.08005000
13.97705078,-74.35190000
14.00756836,-78.40808000
14.03808594,-82.30309000
14.06860352,-83.25034000
14.09912109,-81.66925000
14.12963867,-77.24934000
14.16015625,-74.13991000
14.19067383,-72.74036000
14.22119141,-72.98845000
14.25170898,-75.02235000
14.28222656,-79.57549000
14.31274414,-89.14461000
14.34326172,-87.83271000
14.37377930,-85.93767000
14.40429688,-88.91306000
14.43481445,-96.00853000
14.46533203,-89.02335000
14.49584961,-82.75699000
14.52636719,-79.93098000
14.55688477,-78.16581000
14.58740234,-76.98362000
14.61791992,-77.19714000
14.64843750,-79.37473000
14.67895508,-84.14589000
14.70947266,-90.68762000
14.73999023,-86.60374000
14.77050781,-83.64227000
14.80102539,-82.88213000
14.83154297,-83.55360000
14.86206055,-83.09747000
14.89257813,-80.10353000
14.92309570,-78.50191000
14.95361328,-79.45697000
14.98413086,-83.13722000
15.01464844,-88.04114000
15.04516602,-89.80222000
15.07568359,-91.68564000
15.10620117,-90.85824000
15.13671875,-87.47543000
15.16723633,-83.38172000
15.19775391,-78.23502000
15.22827148,-74.62836000
15.25878906,-73.87971000
15.28930664,-75.94810000
15.31982422,-79.22286000
15.35034180,-79.85470000
15.38085938,-79.42119000
15.41137695,-80.48531000
15.44189453,-83.14278000
15.47241211,-85.42683000
15.50292969,-84.73930000
15.53344727,-83.59238000
15.56396484,-84.10388000
15.59448242,-85.52934000
15.62500000,-86.19130000
15.65551758,-86.63204000
15.68603516,-87.00728000
15.71655273,-86.81580000
15.74707031,-85.53452000
15.77758789,-83.30338000
15.80810547,-81.80714000
15.83862305,-81.81406000
15.86914063,-82.48147000
15.89965820,-81.99210000
15.93017578,-80.83146000
15.96069336,-80.68358000
15.99121094,-81.87687000
16.02172852,-83.34489000
16.05224609,-83.83673000
16.08276367,-84.21307000
16.11328125,-84.77969000
16.14379883,-82.64831000
16.17431641,-79.74273000
16.20483398,-78.45390000
16.23535156,-78.31283000
16.26586914,-78.68593000
16.29638672,-79.65470000
16.32690430,-80.85956000
16.35742188,-80.95684000
16.38793945,-80.08644000
16.41845703,-79.51006000
16.44897461,-79.31149000
16.47949219,-78.83701000
16.51000977,-78.19781000
16.54052734,-78.55886000
16.57104492,-80.57748000
16.60156250,-82.25938000
16.63208008,-80.84232000
16.66259766,-79.78928000
16.69311523,-80.53307000
16.72363281,-82.60577000
16.75415039,-83.88500000
16.78466797,-83.11589000
16.81518555,-82.90656000
16.84570313,-84.31480000
16.87622070,-84.68181000
16.90673828,-82.23054000
16.93725586,-80.52716000
16.96777344,-80.13544000
16.99829102,-80.19321000
17.02880859,-80.34676000
17.05932617,-81.19926000
17.08984375,-82.52419000
17.12036133,-82.57951000
17.15087891,-82.24979000
17.18139648,-83.01972000
17.21191406,-84.01147000
17.24243164,-84.70790000
17.27294922,-85.02518000
17.30346680,-83.12689000
17.33398438,-81.16917000
17.36450195,-80.47684000
17.39501953,-80.21574000
17.42553711,-79.74458000
17.45605469,-79.57937000
17.48657227,-80.15335000
17.51708984,-81.05232000
17.54760742,-81.53009000
17.57812500,-81.84296000
17.60864258,-82.99508000
17.63916016,-85.08755000
17.66967773,-81.94778000
17.70019531,-76.99479000
17.73071289,-74.75091000
17.76123047,-75.27269000
17.79174805,-78.79212000
17.82226563,-86.37973000
17.85278320,-87.62494000
17.88330078,-83.32543000
17.91381836,-82.00977000
17.94433594,-82.17940000
17.97485352,-83.67074000
18.00537109,-86.99634000
18.03588867,-93.11641000
18.06640625,-96.34248000
18.09692383,-90.46996000
18.12744141,-87.38646000
18.15795898,-86.36262000
18.18847656,-86.10188000
18.21899414,-85.05936000
18.24951172,-83.77551000
18.28002930,-83.39082000
18.31054688,-83.94221000
18.34106445,-85.16722000
18.37158203,-86.80325000
18.40209961,-88.36040000
18.43261719,-90.02121000
18.46313477,-93.54592000
18.49365234,-106.14830000
18.52416992,-97.18384000
18.55468750,-90.62141000
18.58520508,-88.47443000
18.61572266,-88.07634000
18.64624023,-88.10291000
18.67675781,-88.29480000
18.70727539,-88.77927000
18.73779297,-88.75053000
18.76831055,-88.03558000
18.79882813,-87.87395000
18.82934570,-89.03534000
18.85986328,-91.85398000
18.89038086,-97.75159000
18.92089844,-113.19820000
18.95141602,-94.53064000
18.98193359,-89.96387000
19.01245117,-89.19102000
19.04296875,-90.73857000
19.07348633,-90.96675000
19.10400391,-89.09631000
19.13452148,-88.99506000
19.16503906,-92.20038000
19.19555664,-99.55693000
19.22607422,-98.66864000
19.25659180,-97.25427000
19.28710938,-98.99575000
19.31762695,-103.47960000
19.34814453,-111.41160000
19.37866211,-97.60031000
19.40917969,-94.02499000
19.43969727,-93.80800000
19.47021484,-94.42978000
19.50073242,-93.81972000
19.53125000,-92.49017000
19.56176758,-91.60728000
19.59228516,-91.69758000
19.62280273,-93.04010000
19.65332031,-95.64973000
19.68383789,-99.04273000
19.71435547,-102.03640000
19.74487305,-103.41180000
19.77539063,-105.05020000
19.80590820,-106.68610000
19.83642578,-108.03520000
19.86694336,-116.47620000
19.89746094,-111.17690000
19.92797852,-107.47340000
19.95849609,-106.08560000
19.98901367,-103.64200000
20.01953125,-98.82522000
20.05004883,-94.37556000
20.08056641,-92.69260000
20.11108398,-93.99208000
20.14160156,-95.52229000
20.17211914,-92.15811000
20.20263672,-89.31444000
20.23315430,-87.70637000
20.26367188,-86.58002000
20.29418945,-85.93448000
20.32470703,-85.88092000
20.35522461,-86.21530000
20.38574219,-86.73684000
20.41625977,-87.47638000
20.44677734,-87.11220000
20.47729492,-85.57755000
20.50781250,-84.82941000
20.53833008,-85.15694000
20.56884766,-85.90187000
20.59936523,-86.74389000
20.62988281,-88.19077000
20.66040039,-90.96333000
20.69091797,-95.52255000
20.72143555,-100.27510000
20.75195313,-92.92489000
20.78247070,-86.57947000
20.81298828,-82.55838000
20.84350586,-80.48923000
20.87402344,-80.15698000
20.90454102,-81.09869000
20.93505859,-82.70786000
20.96557617,-84.94135000
20.99609375,-88.84643000
21.02661133,-94.46308000
21.05712891,-92.14634000
21.08764648,-89.56374000
21.11816406,-89.09213000
21.14868164,-89.83402000
21.17919922,-92.53674000
21.20971680,-91.84305000
21.24023438,-86.32899000
21.27075195,-83.98088000
21.30126953,-84.23820000
21.33178711,-85.19614000
21.36230469,-85.29179000
21.39282227,-86.08814000
21.42333984,-89.01221000
21.45385742,-92.62321000
21.48437500,-91.35699000
21.51489258,-91.39722000
21.54541016,-95.44070000
21.57592773,-93.11145000
21.60644531,-88.13445000
21.63696289,-85.83513000
21.66748047,-85.05754000
21.69799805,-85.43221000
21.72851563,-86.97880000
21.75903320,-89.20737000
21.78955078,-90.82881000
21.82006836,-92.14471000
21.85058594,-94.65862000
21.88110352,-94.97414000
21.91162109,-92.44504000
21.94213867,-93.12692000
21.97265625,-98.81978000
22.00317383,-96.94446000
22.03369141,-91.16866000
22.06420898,-88.60566000
22.09472656,-87.37168000
22.12524414,-86.30965000
22.15576172,-85.34811000
22.18627930,-85.38849000
22.21679688,-86.92715000
22.24731445,-89.43778000
22.27783203,-91.83707000
22.30834961,-94.27155000
22.33886719,-96.80279000
22.36938477,-95.53325000
22.39990234,-91.90930000
22.43041992,-89.22591000
22.46093750,-88.49701000
22.49145508,-90.66972000
22.52197266,-96.17596000
22.55249023,-94.09090000
22.58300781,-89.65033000
22.61352539,-88.12311000
22.64404297,-89.32748000
22.67456055,-94.99912000
22.70507813,-110.14070000
22.73559570,-94.17634000
22.76611328,-90.76321000
22.79663086,-89.35019000
22.82714844,-88.77249000
22.85766602,-89.28975000
22.88818359,-91.05113000
22.91870117,-92.41104000
22.94921875,-92.00830000
22.97973633,-92.19543000
23.01025391,-93.63529000
23.04077148,-92.69367000
23.07128906,-90.60823000
23.10180664,-91.33659000
23.13232422,-97.41756000
23.16284180,-96.45998000
23.19335938,-89.88658000
23.22387695,-88.27467000
23.25439453,-88.86179000
23.28491211,-89.81789000
23.31542969,-91.19839000
23.34594727,-94.56036000
23.37646484,-102.87550000
23.40698242,-104.32790000
23.43750000,-93.47299000
23.46801758,-88.34000000
23.49853516,-86.18796000
23.52905273,-87.64061000
23.55957031,-96.40694000
23.59008789,-91.04229000
23.62060547,-85.82806000
23.65112305,-85.33958000
23.68164063,-87.14279000
23.71215820,-89.76219000
23.74267578,-92.71947000
23.77319336,-98.38988000
23.80371094,-98.14613000
23.83422852,-91.55482000
23.86474609,-89.93455000
23.89526367,-92.32434000
23.92578125,-102.65430000
23.95629883,-96.74380000
23.98681641,-90.60162000
24.01733398,-89.12884000
24.04785156,-89.68598000
24.07836914,-90.71631000
24.10888672,-90.94357000
24.13940430,-90.22084000
24.16992188,-89.63776000
24.20043945,-90.81361000
24.23095703,-96.02518000
24.26147461,-125.64150000
24.29199219,-102.57070000
24.32250977,-106.28600000
24.35302734,-99.05129000
24.38354492,-94.44370000
24.41406250,-94.55212000
24.44458008,-100.34900000
24.47509766,-100.59570000
24.50561523,-91.70738000
24.53613281,-88.89368000
24.56665039,-88.84553000
24.59716797,-90.46601000
24.62768555,-93.37019000
24.65820313,-94.71397000
24.68872070,-93.56781000
24.71923828,-94.08049000
24.74975586,-94.67770000
24.78027344,-91.87814000
24.81079102,-87.93184000
24.84130859,-85.58734000
24.87182617,-85.75024000
24.90234375,-88.65925000
24.93286133,-91.95041000
24.96337891,-90.67733000
24.99389648,-89.77120000
25.02441406,-91.07057000
25.05493164,-94.49100000
25.08544922,-96.43646000
25.11596680,-94.09209000
25.14648438,-92.95155000
25.17700195,-93.79518000
25.20751953,-96.05688000
25.23803711,-98.49782000
25.26855469,-99.80283000
25.29907227,-96.86847000
25.32958984,-92.57573000
25.36010742,-90.72002000
25.39062500,-91.54252000
25.42114258,-94.50303000
25.45166016,-96.97777000
25.48217773,-95.94691000
25.51269531,-95.22942000
25.54321289,-98.76682000
25.57373047,-111.79170000
25.60424805,-98.16014000
25.63476563,-96.14970000
25.66528320,-96.01167000
25.69580078,-93.20488000
25.72631836,-89.48119000
25.75683594,-86.98310000
25.78735352,-86.72389000
25.81787109,-89.40014000
25.84838867,-94.09957000
25.87890625,-95.58342000
25.90942383,-98.17859000
25.93994141,-101.01540000
25.97045898,-94.89497000
26.00097656,-89.59523000
26.03149414,-86.73018000
26.06201172,-86.02438000
26.09252930,-87.69958000
26.12304688,-91.29047000
26.15356445,-88.46660000
26.18408203,-84.80180000
26.21459961,-84.34241000
26.24511719,-86.71273000
26.27563477,-91.53214000
26.30615234,-97.27751000
26.33666992,-97.49371000
26.36718750,-92.98729000
26.39770508,-89.04003000
26.42822266,-86.74149000
26.45874023,-86.39378000
26.48925781,-88.29502000
26.51977539,-92.95526000
26.55029297,-99.92464000
26.58081055,-99.87229000
26.61132813,-99.32527000
26.64184570,-101.05160000
26.67236328,-101.89360000
26.70288086,-101.11500000
26.73339844,-99.99405000
26.76391602,-100.28180000
26.79443359,-96.43054000
26.82495117,-91.31483000
26.85546875,-89.60101000
26.88598633,-91.88226000
26.91650391,-100.44900000
26.94702148,-106.18160000
26.97753906,-104.03090000
27.00805664,-103.80110000
27.03857422,-104.87080000
27.06909180,-114.78180000
27.09960938,-102.99650000
27.13012695,-95.32792000
27.16064453,-90.10530000
27.19116211,-87.31696000
27.22167969,-87.09424000
27.25219727,-88.94791000
27.28271484,-91.28747000
27.31323242,-93.37320000
27.34375000,-98.71532000
27.37426758,-101.09610000
27.40478516,-92.74677000
27.43530273,-90.81794000
27.46582031,-92.86348000
27.49633789,-100.38480000
27.52685547,-106.24580000
27.55737305,-96.21627000
27.58789063,-92.82273000
27.61840820,-91.36710000
27.64892578,-91.02856000
27.67944336,-91.08884000
27.70996094,-90.88014000
27.74047852,-91.38709000
27.77099609,-94.32542000
27.80151367,-95.38334000
27.83203125,-91.31782000
27.86254883,-90.35060000
27.89306641,-92.32082000
27.92358398,-93.59650000
27.95410156,-92.37489000
27.98461914,-93.49616000
28.01513672,-99.31644000
28.04565430,-103.69590000
28.07617188,-98.50319000
28.10668945,-99.53766000
28.13720703,-110.85840000
28.16772461,-102.77850000
28.19824219,-96.77126000
28.22875977,-95.37934000
28.25927734,-95.78815000
28.28979492,-94.35284000
28.32031250,-91.75381000
28.35083008,-89.63726000
28.38134766,-89.20943000
28.41186523,-91.72753000
28.44238281,-96.44655000
28.47290039,-91.97503000
28.50341797,-88.11669000
28.53393555,-86.47804000
28.56445313,-85.58170000
28.59497070,-84.81891000
28.62548828,-84.80498000
28.65600586,-86.31240000
28.68652344,-89.40799000
28.71704102,-92.93258000
28.74755859,-95.52736000
28.77807617,-97.21255000
28.80859375,-98.30067000
28.83911133,-98.03979000
28.86962891,-98.26221000
28.90014648,-100.50020000
28.93066406,-105.51630000
28.96118164,-117.56430000
28.99169922,-99.04048000
29.02221680,-93.19638000
29.05273438,-91.11185000
29.08325195,-92.35255000
29.11376953,-96.45778000
29.14428711,-95.89722000
29.17480469,-94.20083000
29.20532227,-95.62042000
29.23583984,-98.68690000
29.26635742,-99.97440000
29.29687500,-98.79510000
29.32739258,-97.23716000
29.35791016,-97.40228000
29.38842773,-102.32140000
29.41894531,-111.54290000
29.44946289,-98.19400000
29.47998047,-95.07018000
29.51049805,-95.00827000
29.54101563,-96.84407000
29.57153320,-99.58047000
29.60205078,-103.26650000
29.63256836,-100.70880000
29.66308594,-93.91457000
29.69360352,-90.71606000
29.72412109,-90.11185000
29.75463867,-91.61803000
29.78515625,-95.80711000
29.81567383,-102.56350000
29.84619141,-98.11626000
29.87670898,-95.56529000
29.90722656,-95.91751000
29.93774414,-96.08036000
29.96826172,-94.83557000
29.99877930,-94.63837000
30.02929688,-94.89716000
30.05981445,-94.38912000
30.09033203,-94.71265000
30.12084961,-96.93871000
30.15136719,-101.34940000
30.18188477,-103.87440000
30.21240234,-103.25950000
30.24291992,-111.52680000
30.27343750,-104.18510000
30.30395508,-98.61501000
30.33447266,-101.16550000
30.36499023,-106.75340000
30.39550781,-103.91050000
30.42602539,-101.17820000
30.45654297,-98.04355000
30.48706055,-98.31302000
30.51757813,-102.43470000
30.54809570,-104.98180000
30.57861328,-102.32050000
30.60913086,-103.06070000
30.63964844,-110.76830000
30.67016602,-105.55960000
30.70068359,-102.61420000
30.73120117,-105.25760000
30.76171875,-109.69900000
30.79223633,-100.54060000
30.82275391,-95.09383000
30.85327148,-92.60574000
30.88378906,-92.19123000
30.91430664,-91.71124000
30.94482422,-90.20403000
30.97534180,-89.88725000
31.00585938,-92.09978000
31.03637695,-96.45599000
31.06689453,-95.52428000
31.09741211,-94.04228000
31.12792969,-94.57188000
31.15844727,-94.93824000
31.18896484,-95.94112000
31.21948242,-98.62423000
31.25000000,-96.28065000
31.28051758,-92.89607000
31.31103516,-92.98837000
31.34155273,-95.79602000
31.37207031,-97.89964000
31.40258789,-102.29620000
31.43310547,-97.59914000
31.46362305,-89.40993000
31.49414063,-86.72452000
31.52465820,-86.94278000
31.55517578,-88.67955000
31.58569336,-90.34770000
31.61621094,-90.79288000
31.64672852,-90.28230000
31.67724609,-89.54049000
31.70776367,-89.41232000
31.73828125,-90.70091000
31.76879883,-93.54798000
31.79931641,-97.66829000
31.82983398,-104.81330000
31.86035156,-102.37600000
31.89086914,-93.94263000
31.92138672,-91.21191000
31.95190430,-91.80807000
31.98242188,-95.15701000
32.01293945,-99.58810000
32.04345703,-94.66888000
32.07397461,-90.93018000
32.10449219,-90.32133000
32.13500977,-91.74977000
32.16552734,-92.36565000
32.19604492,-91.11787000
32.22656250,-90.69675000
32.25708008,-91.12201000
32.28759766,-91.94999000
32.31811523,-93.76225000
32.34863281,-95.92622000
32.37915039,-94.72019000
32.40966797,-92.46722000
32.44018555,-91.08424000
32.47070313,-89.54921000
32.50122070,-88.39659000
32.53173828,-88.81738000
32.56225586,-91.66908000
32.59277344,-96.87373000
32.62329102,-92.88105000
32.65380859,-88.57545000
32.68432617,-87.11444000
32.71484375,-87.67762000
32.74536133,-89.95895000
32.77587891,-93.99011000
32.80639648,-102.77240000
32.83691406,-105.79070000
32.86743164,-97.88613000
32.89794922,-96.29738000
32.92846680,-96.10101000
32.95898438,-98.23161000
32.98950195,-109.03390000
33.02001953,-101.52180000
33.05053711,-97.73579000
33.08105469,-99.14133000
33.11157227,-97.23643000
33.14208984,-94.30666000
33.17260742,-93.48183000
33.20312500,-93.42599000
33.23364258,-92.53592000
33.26416016,-91.47920000
33.29467773,-92.62816000
33.32519531,-98.84807000
33.35571289,-108.53230000
33.38623047,-101.38690000
33.41674805,-104.26060000
33.44726563,-113.68600000
33.47778320,-98.44932000
33.50830078,-94.66698000
33.53881836,-93.69231000
33.56933594,-93.76207000
33.59985352,-94.08449000
33.63037109,-94.88397000
33.66088867,-98.14301000
33.69140625,-110.80740000
33.72192383,-103.67620000
33.75244141,-99.02782000
33.78295898,-100.32270000
33.81347656,-107.40080000
33.84399414,-104.10200000
33.87451172,-101.52330000
33.90502930,-105.86660000
33.93554688,-99.65394000
33.96606445,-95.32696000
33.99658203,-94.45873000
34.02709961,-94.23450000
34.05761719,-93.67891000
34.08813477,-93.52443000
34.11865234,-94.66712000
34.14916992,-99.54685000
34.17968750,-115.30460000
34.21020508,-113.45280000
34.24072266,-101.04380000
34.27124023,-96.46346000
34.30175781,-97.17746000
34.33227539,-100.23880000
34.36279297,-101.34570000
34.39331055,-101.63070000
34.42382813,-105.42410000
34.45434570,-109.84250000
34.48486328,-103.70410000
34.51538086,-99.14077000
34.54589844,-96.93411000
34.57641602,-96.46257000
34.60693359,-96.35529000
34.63745117,-96.00189000
34.66796875,-96.73174000
34.69848633,-101.89930000
34.72900391,-102.34790000
34.75952148,-98.35179000
34.79003906,-102.30310000
34.82055664,-124.24750000
34.85107422,-105.69520000
34.88159180,-103.89830000
34.91210938,-98.49171000
34.94262695,-96.02676000
34.97314453,-96.46999000
35.00366211,-96.91090000
35.03417969,-98.87978000
35.06469727,-104.79350000
35.09521484,-104.01720000
35.12573242,-103.39360000
35.15625000,-101.82640000
35.18676758,-101.06770000
35.21728516,-100.57900000
35.24780273,-99.89986000
35.27832031,-98.40961000
35.30883789,-96.71639000
35.33935547,-95.65126000
35.36987305,-94.96582000
35.40039063,-94.71289000
35.43090820,-95.82143000
35.46142578,-102.99580000
35.49194336,-100.31070000
35.52246094,-93.83091000
35.55297852,-93.11378000
35.58349609,-95.79373000
35.61401367,-100.19190000
35.64453125,-102.23960000
35.67504883,-102.96630000
35.70556641,-112.53460000
35.73608398,-103.49080000
35.76660156,-98.54041000
35.79711914,-100.30720000
35.82763672,-112.59880000
35.85815430,-102.00840000
35.88867188,-94.62551000
35.91918945,-92.38332000
35.94970703,-92.73612000
35.98022461,-93.43499000
36.01074219,-92.91248000
36.04125977,-92.31737000
36.07177734,-93.23138000
36.10229492,-96.75292000
36.13281250,-105.12410000
36.16333008,-107.01170000
36.19384766,-96.66220000
36.22436523,-93.28499000
36.25488281,-94.30652000
36.28540039,-99.76569000
36.31591797,-101.44400000
36.34643555,-97.82681000
36.37695313,-97.32762000
36.40747070,-101.76910000
36.43798828,-110.71520000
36.46850586,-97.08703000
36.49902344,-93.67444000
36.52954102,-92.96204000
36.56005859,-94.35294000
36.59057617,-97.13203000
36.62109375,-94.72484000
36.65161133,-91.55441000
36.68212891,-91.16243000
36.71264648,-92.97021000
36.74316406,-94.51186000
36.77368164,-94.58802000
36.80419922,-97.95233000
36.83471680,-113.09300000
36.86523438,-98.26073000
36.89575195,-95.98787000
36.92626953,-97.97093000
36.95678711,-101.69280000
36.98730469,-101.66360000
37.01782227,-97.87801000
37.04833984,-95.35268000
37.07885742,-95.21866000
37.10937500,-97.21131000
37.13989258,-100.07620000
37.17041016,-97.45354000
37.20092773,-92.43926000
37.23144531,-90.17554000
37.26196289,-90.35358000
37.29248047,-91.99924000
37.32299805,-93.67234000
37.35351563,-95.53249000
37.38403320,-100.98230000
37.41455078,-115.22320000
37.44506836,-105.69410000
37.47558594,-103.50890000
37.50610352,-101.37680000
37.53662109,-100.42700000
37.56713867,-103.38190000
37.59765625,-101.25250000
37.62817383,-95.99072000
37.65869141,-93.81454000
37.68920898,-93.15105000
37.71972656,-93.75871000
37.75024414,-96.43648000
37.78076172,-101.76250000
37.81127930,-102.36230000
37.84179688,-99.71755000
37.87231445,-101.83880000
37.90283203,-107.65010000
37.93334961,-111.75150000
37.96386719,-100.39830000
37.99438477,-94.61639000
38.02490234,-94.27007000
38.05541992,-97.38097000
38.08593750,-101.76260000
38.11645508,-109.63690000
38.14697266,-109.53390000
38.17749023,-102.57290000
38.20800781,-107.63650000
38.23852539,-104.40230000
38.26904297,-99.58295000
38.29956055,-102.78190000
38.33007813,-95.89870000
38.36059570,-92.16302000
38.39111328,-93.36623000
38.42163086,-98.75599000
38.45214844,-103.18310000
38.48266602,-98.66233000
38.51318359,-94.78264000
38.54370117,-94.51674000
38.57421875,-95.67738000
38.60473633,-94.91368000
38.63525391,-94.00204000
38.66577148,-94.37875000
38.69628906,-97.13715000
38.72680664,-107.97280000
38.75732422,-102.80720000
38.78784180,-97.45169000
38.81835938,-95.73923000
38.84887695,-93.51515000
38.87939453,-93.87372000
38.90991211,-98.84751000
38.94042969,-108.97320000
38.97094727,-101.07100000
39.00146484,-97.11632000
39.03198242,-92.74590000
39.06250000,-89.51096000
39.09301758,-88.71996000
39.12353516,-90.20111000
39.15405273,-92.75578000
39.18457031,-94.91436000
39.21508789,-96.99983000
39.24560547,-100.79410000
39.27612305,-103.45180000
39.30664063,-97.41452000
39.33715820,-93.35992000
39.36767578,-92.72462000
39.39819336,-94.64558000
39.42871094,-93.95488000
39.45922852,-91.96509000
39.48974609,-91.40697000
39.52026367,-90.04272000
39.55078125,-89.16852000
39.58129883,-91.43016000
39.61181641,-101.33810000
39.64233398,-97.39050000
39.67285156,-90.92719000
39.70336914,-89.91645000
39.73388672,-93.28378000
39.76440430,-105.04120000
39.79492188,-93.85719000
39.82543945,-90.17038000
39.85595703,-89.91405000
39.88647461,-91.44403000
39.91699219,-94.69822000
39.94750977,-101.90340000
39.97802734,-103.34270000
40.00854492,-97.19270000
40.03906250,-94.99348000
40.06958008,-94.37003000
40.10009766,-93.12831000
40.13061523,-91.04218000
40.16113281,-88.57433000
40.19165039,-87.51274000
40.22216797,-89.24638000
40.25268555,-95.98350000
40.28320313,-97.67410000
40.31372070,-90.35431000
40.34423828,-89.16810000
40.37475586,-91.07416000
40.40527344,-93.38406000
40.43579102,-93.58762000
40.46630859,-92.22688000
40.49682617,-91.64221000
40.52734375,-93.69591000
40.55786133,-95.55348000
40.58837891,-91.07673000
40.61889648,-88.42513000
40.64941406,-88.07896000
40.67993164,-88.58759000
40.71044922,-88.98720000
40.74096680,-90.17157000
40.77148438,-94.50912000
40.80200195,-117.66750000
40.83251953,-92.38319000
40.86303711,-87.49284000
40.89355469,-85.71027000
40.92407227,-85.33146000
40.95458984,-85.46375000
40.98510742,-85.34661000
41.01562500,-84.56552000
41.04614258,-83.77139000
41.07666016,-84.29750000
41.10717773,-87.37400000
41.13769531,-96.15218000
41.16821289,-97.88682000
41.19873047,-89.15398000
41.22924805,-86.62766000
41.25976563,-86.64296000
41.29028320,-88.36320000
41.32080078,-89.45229000
41.35131836,-88.24238000
41.38183594,-87.62958000
41.41235352,-88.03145000
41.44287109,-88.94135000
41.47338867,-92.16599000
41.50390625,-92.92935000
41.53442383,-88.08960000
41.56494141,-87.35323000
41.59545898,-91.37948000
41.62597656,-104.78550000
41.65649414,-88.68351000
41.68701172,-83.99876000
41.71752930,-82.67342000
41.74804688,-83.72163000
41.77856445,-87.29800000
41.80908203,-94.53552000
41.83959961,-95.58597000
41.87011719,-92.67738000
41.90063477,-96.76183000
41.93115234,-92.93588000
41.96166992,-86.60391000
41.99218750,-84.74503000
42.02270508,-85.75826000
42.05322266,-88.70642000
42.08374023,-90.30356000
42.11425781,-90.16796000
42.14477539,-91.46895000
42.17529297,-92.56763000
42.20581055,-92.47463000
42.23632813,-92.12547000
42.26684570,-88.81947000
42.29736328,-85.27022000
42.32788086,-84.03619000
42.35839844,-85.03244000
42.38891602,-86.63847000
42.41943359,-86.71711000
42.44995117,-86.94147000
42.48046875,-88.01209000
42.51098633,-87.68070000
42.54150391,-87.02460000
42.57202148,-88.52318000
42.60253906,-91.29456000
42.63305664,-90.17181000
42.66357422,-88.29405000
42.69409180,-87.85979000
42.72460938,-89.13692000
42.75512695,-93.53128000
42.78564453,-98.75713000
42.81616211,-91.64192000
42.84667969,-86.65221000
42.87719727,-83.65147000
42.90771484,-82.78168000
42.93823242,-83.52836000
42.96875000,-84.73057000
42.99926758,-85.76146000
43.02978516,-87.41963000
43.06030273,-91.37337000
43.09082031,-96.95869000
43.12133789,-90.59047000
43.15185547,-85.43846000
43.18237305,-82.55783000
43.21289063,-81.64758000
43.24340820,-82.89957000
43.27392578,-85.99336000
43.30444336,-88.29645000
43.33496094,-87.00740000
43.36547852,-85.27607000
43.39599609,-86.07708000
43.42651367,-90.46650000
43.45703125,-90.15277000
43.48754883,-84.37387000
43.51806641,-81.87736000
43.54858398,-82.06023000
43.57910156,-84.62930000
43.60961914,-89.15290000
43.64013672,-93.63852000
43.67065430,-93.27549000
43.70117188,-91.01254000
43.73168945,-90.33110000
43.76220703,-92.02439000
43.79272461,-98.07845000
43.82324219,-91.15154000
43.85375977,-85.24289000
43.88427734,-83.68400000
43.91479492,-85.26900000
43.94531250,-89.01482000
43.97583008,-91.66077000
44.00634766,-90.21321000
44.03686523,-87.95203000
44.06738281,-87.34502000
44.09790039,-88.07684000
44.12841797,-89.21912000
44.15893555,-91.21126000
44.18945313,-96.43941000
44.21997070,-108.91490000
44.25048828,-98.49873000
44.28100586,-93.77980000
44.31152344,-91.38095000
44.34204102,-89.73195000
44.37255859,-88.11309000
44.40307617,-88.47968000
44.43359375,-92.84413000
44.46411133,-123.90450000
44.49462891,-93.44315000
44.52514648,-89.15122000
44.55566406,-89.11673000
44.58618164,-92.62582000
44.61669922,-99.37305000
44.64721680,-102.70210000
44.67773438,-95.21849000
44.70825195,-90.50395000
44.73876953,-89.27831000
44.76928711,-91.23199000
44.79980469,-98.24574000
44.83032227,-103.77770000
44.86083984,-94.88453000
44.89135742,-91.97903000
44.92187500,-90.23376000
44.95239258,-88.64651000
44.98291016,-86.65684000
45.01342773,-84.72146000
45.04394531,-84.42720000
45.07446289,-87.08927000
45.10498047,-94.57496000
45.13549805,-97.13517000
45.16601563,-92.52455000
45.19653320,-91.53796000
45.22705078,-92.09100000
45.25756836,-94.24626000
45.28808594,-97.80486000
45.31860352,-97.46992000
45.34912109,-93.58802000
45.37963867,-91.49940000
45.41015625,-92.27522000
45.44067383,-95.93764000
45.47119141,-102.43250000
45.50170898,-104.28450000
45.53222656,-95.24329000
45.56274414,-91.60410000
45.59326172,-91.27091000
45.62377930,-92.81716000
45.65429688,-93.35898000
45.68481445,-91.19913000
45.71533203,-89.45267000
45.74584961,-90.32654000
45.77636719,-95.22235000
45.80688477,-110.66560000
45.83740234,-102.48790000
45.86791992,-100.73200000
45.89843750,-100.77900000
45.92895508,-96.45094000
45.95947266,-93.88301000
45.98999023,-92.82348000
46.02050781,-91.67810000
46.05102539,-92.04384000
46.08154297,-96.30703000
46.11206055,-111.19160000
46.14257813,-106.09040000
46.17309570,-103.75020000
46.20361328,-106.57440000
46.23413086,-98.67886000
46.26464844,-92.68892000
46.29516602,-89.87602000
46.32568359,-88.34171000
46.35620117,-87.66856000
46.38671875,-88.79790000
46.41723633,-93.02581000
46.44775391,-101.05480000
46.47827148,-101.67800000
46.50878906,-99.31030000
46.53930664,-97.98639000
46.56982422,-98.35620000
46.60034180,-102.87810000
46.63085938,-116.11300000
46.66137695,-121.18410000
46.69189453,-103.76440000
46.72241211,-97.71400000
46.75292969,-95.83577000
46.78344727,-95.60139000
46.81396484,-96.62239000
46.84448242,-98.56824000
46.87500000,-97.35141000
46.90551758,-94.38702000
46.93603516,-93.72702000
46.96655273,-97.15980000
46.99707031,-107.85360000
47.02758789,-97.97316000
47.05810547,-96.02736000
47.08862305,-99.44724000
47.11914063,-104.48230000
47.14965820,-100.01960000
47.18017578,-96.14709000
47.21069336,-95.30507000
47.24121094,-98.44196000
47.27172852,-106.61450000
47.30224609,-106.70470000
47.33276367,-101.94290000
47.36328125,-99.40253000
47.39379883,-96.95621000
47.42431641,-95.66558000
47.45483398,-95.52025000
47.48535156,-94.72707000
47.51586914,-93.51100000
47.54638672,-92.99630000
47.57690430,-92.22382000
47.60742188,-90.99223000
47.63793945,-90.47528000
47.66845703,-91.46931000
47.69897461,-95.34705000
47.72949219,-105.77110000
47.76000977,-97.78259000
47.79052734,-94.20928000
47.82104492,-95.42558000
47.85156250,-103.49930000
47.88208008,-102.37730000
47.91259766,-94.73618000
47.94311523,-93.86811000
47.97363281,-98.52463000
48.00415039,-96.59126000
48.03466797,-90.99435000
48.06518555,-90.28847000
48.09570313,-92.80589000
48.12622070,-97.29942000
48.15673828,-103.48210000
48.18725586,-108.82670000
48.21777344,-109.06260000
48.24829102,-117.48030000
48.27880859,-113.12980000
48.30932617,-106.46090000
48.33984375,-99.90243000
48.37036133,-95.41420000
48.40087891,-93.04185000
48.43139648,-91.79401000
48.46191406,-91.57569000
48.49243164,-92.73942000
48.52294922,-94.88269000
48.55346680,-96.73992000
48.58398438,-98.64403000
48.61450195,-103.71000000
48.64501953,-100.37120000
48.67553711,-92.20543000
48.70605469,-88.39928000
48.73657227,-87.28069000
48.76708984,-87.95471000
48.79760742,-89.05647000
48.82812500,-89.88274000
48.85864258,-91.46381000
48.88916016,-94.32453000
48.91967773,-97.80496000
48.95019531,-100.27750000
48.98071289,-98.16266000
49.01123047,-93.02749000
49.04174805,-89.66586000
49.07226563,-89.10062000
49.10278320,-90.99568000
49.13330078,-94.32430000
49.16381836,-97.39352000
49.19433594,-99.08827000
49.22485352,-101.92520000
49.25537109,-112.72610000
49.28588867,-104.04560000
49.31640625,-94.82163000
49.34692383,-90.63656000
49.37744141,-89.95399000
49.40795898,-93.42032000
49.43847656,-109.07270000
49.46899414,-96.51348000
49.49951172,-91.94106000
49.53002930,-91.84295000
49.56054688,-94.65897000
49.59106445,-99.63820000
49.62158203,-109.79540000
49.65209961,-100.74320000
49.68261719,-93.56221000
49.71313477,-92.00072000
49.74365234,-94.60390000
49.77416992,-99.93832000
49.80468750,-104.24280000
49.83520508,-99.89183000
49.86572266,-94.07904000
49.89624023,-92.05117000
49.92675781,-92.88571000
49.95727539,-99.32004000
49.98779297,-97.87788000
50.01831055,-88.15691000
