Frequency,Channel A
(MHz),(dBu)

0.00000000,-28.12569000
0.03051758,-28.56944000
0.06103516,-34.03679000
0.09155273,-44.47853000
0.12207031,-62.40762000
0.15258789,-68.66299000
0.18310547,-67.92800000
0.21362305,-73.44164000
0.24414063,-78.52889000
0.27465820,-88.80187000
0.30517578,-74.71901000
0.33569336,-77.36314000
0.36621094,-68.44020000
0.39672852,-60.66185000
0.42724609,-59.33462000
0.45776367,-62.31929000
0.48828125,-69.07607000
0.51879883,-61.79340000
0.54931641,-57.89232000
0.57983398,-56.77888000
0.61035156,-50.78324000
0.64086914,-45.99378000
0.67138672,-44.71262000
0.70190430,-46.68798000
0.73242188,-51.91162000
0.76293945,-59.72799000
0.79345703,-66.32812000
0.82397461,-69.19995000
0.85449219,-66.20029000
0.88500977,-64.56794000
0.91552734,-64.09601000
0.94604492,-64.00692000
0.97656250,-64.27082000
1.00708008,-65.60145000
1.03759766,-67.70065000
1.06811523,-69.96131000
1.09863281,-74.74403000
1.12915039,-80.73013000
1.15966797,-78.68189000
1.19018555,-77.46788000
1.22070313,-74.93207000
1.25122070,-72.29441000
1.28173828,-73.33951000
1.31225586,-74.05814000
1.34277344,-73.38521000
1.37329102,-74.31998000
1.40380859,-74.18599000
1.43432617,-71.04274000
1.46484375,-67.98220000
1.49536133,-66.64147000
1.52587891,-67.42889000
1.55639648,-69.37900000
1.58691406,-70.09823000
1.61743164,-69.64687000
1.64794922,-71.46186000
1.67846680,-77.86329000
1.70898438,-85.71272000
1.73950195,-86.55836000
1.77001953,-79.56494000
1.80053711,-77.54427000
1.83105469,-76.08714000
1.86157227,-72.25260000
1.89208984,-69.61497000
1.92260742,-71.10881000
1.95312500,-76.61507000
1.98364258,-74.09106000
2.01416016,-72.62891000
2.04467773,-73.15176000
2.07519531,-73.35492000
2.10571289,-72.95933000
2.13623047,-73.40244000
2.16674805,-75.32174000
2.19726563,-76.48686000
2.22778320,-74.88706000
2.25830078,-72.81837000
2.28881836,-72.53770000
2.31933594,-74.65472000
2.34985352,-76.94654000
2.38037109,-77.67192000
2.41088867,-77.88280000
2.44140625,-74.40725000
2.47192383,-71.35265000
2.50244141,-70.64498000
2.53295898,-70.86437000
2.56347656,-72.03427000
2.59399414,-76.03641000
2.62451172,-83.45624000
2.65502930,-86.59265000
2.68554688,-83.49405000
2.71606445,-78.32201000
2.74658203,-74.98329000
2.77709961,-74.91113000
2.80761719,-73.63816000
2.83813477,-71.06807000
2.86865234,-72.72144000
2.89916992,-82.15170000
2.92968750,-85.18195000
2.96020508,-81.53296000
2.99072266,-79.08617000
3.02124023,-75.22636000
3.05175781,-74.83463000
3.08227539,-80.40620000
3.11279297,-94.97902000
3.14331055,-89.06499000
3.17382813,-91.57272000
3.20434570,-88.15002000
3.23486328,-84.17035000
3.26538086,-88.80268000
3.29589844,-84.77553000
3.32641602,-89.41582000
3.35693359,-89.06586000
3.38745117,-82.66003000
3.41796875,-84.71941000
3.44848633,-90.20201000
3.47900391,-87.68143000
3.50952148,-77.98173000
3.54003906,-77.34528000
3.57055664,-85.96184000
3.60107422,-85.28553000
3.63159180,-84.62058000
3.66210938,-78.50081000
3.69262695,-77.69143000
3.72314453,-80.28281000
3.75366211,-73.74767000
3.78417969,-70.63308000
3.81469727,-72.88787000
3.84521484,-79.97588000
3.87573242,-84.69529000
3.90625000,-88.53918000
3.93676758,-80.35329000
3.96728516,-81.41334000
3.99780273,-79.10139000
4.02832031,-77.83006000
4.05883789,-85.76056000
4.08935547,-85.47783000
4.11987305,-82.47726000
4.15039063,-84.08367000
4.18090820,-86.83048000
4.21142578,-86.70594000
4.24194336,-82.35466000
4.27246094,-82.62659000
4.30297852,-91.05742000
4.33349609,-83.74661000
4.36401367,-81.42051000
4.39453125,-88.59023000
4.42504883,-98.58139000
4.45556641,-102.04610000
4.48608398,-84.14867000
4.51660156,-79.82800000
4.54711914,-81.09000000
4.57763672,-87.27759000
4.60815430,-83.16582000
4.63867188,-79.47163000
4.66918945,-79.75946000
4.69970703,-80.16096000
4.73022461,-76.15174000
4.76074219,-75.42545000
4.79125977,-78.73347000
4.82177734,-84.90730000
4.85229492,-87.06715000
4.88281250,-84.50990000
4.91333008,-85.49091000
4.94384766,-100.37020000
4.97436523,-88.72102000
5.00488281,-85.44468000
5.03540039,-87.84985000
5.06591797,-94.63327000
5.09643555,-86.22266000
5.12695313,-92.14181000
5.15747070,-87.53096000
5.18798828,-86.46424000
5.21850586,-87.45776000
5.24902344,-87.58417000
5.27954102,-98.32364000
5.31005859,-89.58972000
5.34057617,-88.89388000
5.37109375,-88.79529000
5.40161133,-89.53603000
5.43212891,-86.55888000
5.46264648,-88.85467000
5.49316406,-87.18860000
5.52368164,-85.24837000
5.55419922,-87.68137000
5.58471680,-109.99030000
5.61523438,-82.04851000
5.64575195,-77.54874000
5.67626953,-79.36530000
5.70678711,-91.01055000
5.73730469,-84.09731000
5.76782227,-78.85017000
5.79833984,-77.82049000
5.82885742,-78.62812000
5.85937500,-81.70320000
5.88989258,-80.71293000
5.92041016,-84.83630000
5.95092773,-81.50208000
5.98144531,-80.72208000
6.01196289,-84.16528000
6.04248047,-87.01123000
6.07299805,-80.63801000
6.10351563,-78.68352000
6.13403320,-81.54642000
6.16455078,-92.25076000
6.19506836,-87.83484000
6.22558594,-88.40142000
6.25610352,-80.36462000
6.28662109,-81.36551000
6.31713867,-87.33525000
6.34765625,-80.40076000
6.37817383,-82.84631000
6.40869141,-97.54182000
6.43920898,-87.64528000
6.46972656,-93.03017000
6.50024414,-88.72997000
6.53076172,-83.11344000
6.56127930,-84.95900000
6.59179688,-88.60322000
6.62231445,-81.72939000
6.65283203,-77.46126000
6.68334961,-77.41602000
6.71386719,-80.16960000
6.74438477,-84.24001000
6.77490234,-88.96226000
6.80541992,-90.82881000
6.83593750,-87.43466000
6.86645508,-88.65630000
6.89697266,-92.69788000
6.92749023,-92.76411000
6.95800781,-87.46085000
6.98852539,-80.21294000
7.01904297,-77.96746000
7.04956055,-80.65924000
7.08007813,-87.09319000
7.11059570,-87.61636000
7.14111328,-91.26824000
7.17163086,-99.58461000
7.20214844,-105.31010000
7.23266602,-100.02140000
7.26318359,-97.92138000
7.29370117,-86.55772000
7.32421875,-82.72317000
7.35473633,-81.25297000
7.38525391,-81.25945000
7.41577148,-83.29883000
7.44628906,-89.30884000
7.47680664,-92.83841000
7.50732422,-85.76299000
7.53784180,-83.70933000
7.56835938,-83.30568000
7.59887695,-84.11892000
7.62939453,-87.02327000
7.65991211,-87.01529000
7.69042969,-84.73593000
7.72094727,-85.06773000
7.75146484,-88.73869000
7.78198242,-99.93866000
7.81250000,-97.27562000
7.84301758,-90.16544000
7.87353516,-86.11945000
7.90405273,-84.76691000
7.93457031,-85.62325000
7.96508789,-87.36533000
7.99560547,-89.29264000
8.02612305,-90.99480000
8.05664063,-92.62833000
8.08715820,-95.20245000
8.11767578,-98.11151000
8.14819336,-94.86726000
8.17871094,-93.20957000
8.20922852,-95.43155000
8.23974609,-98.10593000
8.27026367,-92.85866000
8.30078125,-90.66376000
8.33129883,-89.51816000
8.36181641,-87.15559000
8.39233398,-84.92374000
8.42285156,-84.62288000
8.45336914,-86.07169000
8.48388672,-88.20572000
8.51440430,-89.37112000
8.54492188,-89.68620000
8.57543945,-89.29130000
8.60595703,-88.43803000
8.63647461,-87.45510000
8.66699219,-88.77448000
8.69750977,-94.62151000
8.72802734,-90.77175000
8.75854492,-87.88203000
8.78906250,-89.28404000
8.81958008,-91.39249000
8.85009766,-91.28572000
8.88061523,-92.87099000
8.91113281,-118.54500000
8.94165039,-90.48965000
8.97216797,-87.34167000
9.00268555,-87.90114000
9.03320313,-89.35258000
9.06372070,-92.17205000
9.09423828,-94.06532000
9.12475586,-91.79344000
9.15527344,-92.06612000
9.18579102,-94.47216000
9.21630859,-94.77466000
9.24682617,-93.49292000
9.27734375,-97.97606000
9.30786133,-96.66669000
9.33837891,-91.48408000
9.36889648,-88.90276000
9.39941406,-85.76862000
9.42993164,-83.68669000
9.46044922,-84.36665000
9.49096680,-88.28437000
9.52148438,-94.62230000
9.55200195,-94.60336000
9.58251953,-88.82762000
9.61303711,-85.33163000
9.64355469,-84.57149000
9.67407227,-86.48932000
9.70458984,-90.24220000
9.73510742,-93.91376000
9.76562500,-103.24560000
9.79614258,-93.95813000
9.82666016,-91.74875000
9.85717773,-90.93149000
9.88769531,-89.34888000
9.91821289,-90.54770000
9.94873047,-89.72108000
9.97924805,-85.38459000
10.00976563,-84.89973000
10.04028320,-87.74891000
10.07080078,-91.69861000
10.10131836,-95.51233000
10.13183594,-94.96636000
10.16235352,-92.21181000
10.19287109,-96.94852000
10.22338867,-97.40410000
10.25390625,-89.05788000
10.28442383,-86.29243000
10.31494141,-83.86918000
10.34545898,-82.21965000
10.37597656,-82.85783000
10.40649414,-85.89461000
10.43701172,-90.41734000
10.46752930,-94.66142000
10.49804688,-96.01697000
10.52856445,-99.99816000
10.55908203,-102.90290000
10.58959961,-91.38032000
10.62011719,-86.05827000
10.65063477,-83.01914000
10.68115234,-84.30030000
10.71166992,-93.78404000
10.74218750,-89.75378000
10.77270508,-86.68596000
10.80322266,-89.43678000
10.83374023,-91.44105000
10.86425781,-89.61440000
10.89477539,-90.58808000
10.92529297,-91.86677000
10.95581055,-89.89223000
10.98632813,-89.14441000
11.01684570,-90.31564000
11.04736328,-94.53301000
11.07788086,-98.84678000
11.10839844,-96.32765000
11.13891602,-90.39245000
11.16943359,-84.86536000
11.19995117,-82.13063000
11.23046875,-81.98566000
11.26098633,-82.24986000
11.29150391,-80.50966000
11.32202148,-79.74680000
11.35253906,-82.30440000
11.38305664,-88.79041000
11.41357422,-97.29567000
11.44409180,-95.62885000
11.47460938,-86.66381000
11.50512695,-82.96951000
11.53564453,-81.34594000
11.56616211,-85.11601000
11.59667969,-90.22096000
11.62719727,-80.13920000
11.65771484,-78.94546000
11.68823242,-80.13150000
11.71875000,-82.52567000
11.74926758,-85.14731000
11.77978516,-86.79732000
11.81030273,-89.49611000
11.84082031,-86.24467000
11.87133789,-80.42053000
11.90185547,-79.27826000
11.93237305,-81.08337000
11.96289063,-84.48367000
11.99340820,-86.72195000
12.02392578,-85.87958000
12.05444336,-88.47451000
12.08496094,-85.95473000
12.11547852,-81.30355000
12.14599609,-80.89270000
12.17651367,-82.60118000
12.20703125,-81.96102000
12.23754883,-80.17509000
12.26806641,-80.74574000
12.29858398,-83.31973000
12.32910156,-86.30733000
12.35961914,-88.18338000
12.39013672,-88.40285000
12.42065430,-87.40294000
12.45117188,-86.09135000
12.48168945,-88.71072000
12.51220703,-96.75386000
12.54272461,-84.09251000
12.57324219,-81.34085000
12.60375977,-82.52399000
12.63427734,-86.62854000
12.66479492,-91.20927000
12.69531250,-86.47844000
12.72583008,-83.74164000
12.75634766,-84.42268000
12.78686523,-88.04942000
12.81738281,-91.27399000
12.84790039,-85.65073000
12.87841797,-81.59817000
12.90893555,-80.77452000
12.93945313,-82.69173000
12.96997070,-85.41424000
13.00048828,-88.69733000
13.03100586,-92.34395000
13.06152344,-87.34262000
13.09204102,-84.04337000
13.12255859,-83.53843000
13.15307617,-82.75154000
13.18359375,-82.04768000
13.21411133,-81.87282000
13.24462891,-80.30875000
13.27514648,-79.32516000
13.30566406,-80.50739000
13.33618164,-81.20140000
13.36669922,-79.51600000
13.39721680,-78.25761000
13.42773438,-80.62048000
13.45825195,-84.58476000
13.48876953,-72.80598000
13.51928711,-66.92458000
13.54980469,-64.64456000
13.58032227,-65.68504000
13.61083984,-70.44743000
13.64135742,-78.98045000
13.67187500,-84.01372000
13.70239258,-92.24633000
13.73291016,-86.32957000
13.76342773,-79.51182000
13.79394531,-77.45772000
13.82446289,-77.09096000
13.85498047,-77.63819000
13.88549805,-78.90009000
13.91601563,-80.93097000
13.94653320,-84.66901000
13.97705078,-90.08032000
14.00756836,-95.28838000
14.03808594,-95.85092000
14.06860352,-92.45659000
14.09912109,-91.81991000
14.12963867,-92.60780000
14.16015625,-89.36768000
14.19067383,-85.18735000
14.22119141,-82.82539000
14.25170898,-82.34071000
14.28222656,-83.24418000
14.31274414,-86.33804000
14.34326172,-97.20769000
14.37377930,-93.01976000
14.40429688,-85.82122000
14.43481445,-82.28634000
14.46533203,-81.02684000
14.49584961,-83.02606000
14.52636719,-88.35586000
14.55688477,-85.26611000
14.58740234,-83.72646000
14.61791992,-87.27401000
14.64843750,-100.38510000
14.67895508,-94.01909000
14.70947266,-87.03159000
14.73999023,-84.15343000
14.77050781,-83.85652000
14.80102539,-85.90845000
14.83154297,-90.38379000
14.86206055,-91.17097000
14.89257813,-87.11456000
14.92309570,-87.78050000
14.95361328,-94.93207000
14.98413086,-87.12998000
15.01464844,-83.97157000
15.04516602,-84.03853000
15.07568359,-84.19582000
15.10620117,-83.91453000
15.13671875,-83.11317000
15.16723633,-81.12968000
15.19775391,-79.32380000
15.22827148,-78.53239000
15.25878906,-79.90975000
15.28930664,-84.91455000
15.31982422,-90.49399000
15.35034180,-86.84666000
15.38085938,-86.64939000
15.41137695,-89.46979000
15.44189453,-94.16709000
15.47241211,-100.01680000
15.50292969,-99.81819000
15.53344727,-92.08512000
15.56396484,-89.73313000
15.59448242,-89.15849000
15.62500000,-89.34595000
15.65551758,-90.02964000
15.68603516,-89.09942000
15.71655273,-89.54078000
15.74707031,-95.15210000
15.77758789,-93.00967000
15.80810547,-91.75525000
15.83862305,-95.95285000
15.86914063,-89.54609000
15.89965820,-85.72372000
15.93017578,-85.26516000
15.96069336,-86.48904000
15.99121094,-88.90097000
16.02172852,-91.74136000
16.05224609,-93.69880000
16.08276367,-94.38679000
16.11328125,-91.12426000
16.14379883,-88.40618000
16.17431641,-89.11548000
16.20483398,-91.53458000
16.23535156,-93.21016000
16.26586914,-96.56313000
16.29638672,-101.96000000
16.32690430,-96.03005000
16.35742188,-93.16895000
16.38793945,-92.27835000
16.41845703,-89.51669000
16.44897461,-88.22348000
16.47949219,-91.39534000
16.51000977,-98.32327000
16.54052734,-99.65316000
16.57104492,-94.50023000
16.60156250,-92.34127000
16.63208008,-95.06088000
16.66259766,-94.27980000
16.69311523,-91.25183000
16.72363281,-92.54271000
16.75415039,-95.54089000
16.78466797,-95.68485000
16.81518555,-98.67545000
16.84570313,-101.27730000
16.87622070,-91.94874000
16.90673828,-90.26720000
16.93725586,-92.19385000
16.96777344,-92.04894000
16.99829102,-90.27142000
17.02880859,-91.16629000
17.05932617,-93.41794000
17.08984375,-93.94235000
17.12036133,-94.20847000
17.15087891,-96.20556000
17.18139648,-98.82559000
17.21191406,-97.10433000
17.24243164,-93.92175000
17.27294922,-94.60255000
17.30346680,-94.33608000
17.33398438,-92.93717000
17.36450195,-93.75047000
17.39501953,-96.18909000
17.42553711,-96.03217000
17.45605469,-95.84413000
17.48657227,-102.20430000
17.51708984,-106.43180000
17.54760742,-99.24963000
17.57812500,-99.62975000
17.60864258,-101.31750000
17.63916016,-103.12370000
17.66967773,-89.18951000
17.70019531,-83.01788000
17.73071289,-80.72487000
17.76123047,-82.02767000
17.79174805,-88.22860000
17.82226563,-97.47371000
17.85278320,-93.79016000
17.88330078,-94.81316000
17.91381836,-93.35777000
17.94433594,-94.56123000
17.97485352,-98.89518000
18.00537109,-104.26130000
18.03588867,-107.64460000
18.06640625,-98.34947000
18.09692383,-94.70734000
18.12744141,-94.26978000
18.15795898,-94.66861000
18.18847656,-93.97010000
18.21899414,-93.44690000
18.24951172,-94.77756000
18.28002930,-96.90736000
18.31054688,-96.22246000
18.34106445,-92.06976000
18.37158203,-89.88199000
18.40209961,-91.54037000
18.43261719,-97.67144000
18.46313477,-117.26160000
18.49365234,-100.81720000
18.52416992,-97.81567000
18.55468750,-101.92420000
18.58520508,-98.06136000
18.61572266,-92.85902000
18.64624023,-91.11275000
18.67675781,-92.49425000
18.70727539,-96.18720000
18.73779297,-99.85881000
18.76831055,-99.21838000
18.79882813,-95.32777000
18.82934570,-93.68993000
18.85986328,-95.47207000
18.89038086,-99.65186000
18.92089844,-102.24330000
18.95141602,-108.47220000
18.98193359,-104.56790000
19.01245117,-96.90485000
19.04296875,-94.35734000
19.07348633,-92.92473000
19.10400391,-93.02377000
19.13452148,-94.73192000
19.16503906,-96.13468000
19.19555664,-96.47342000
19.22607422,-95.77681000
19.25659180,-94.33376000
19.28710938,-93.09096000
19.31762695,-92.88371000
19.34814453,-94.72755000
19.37866211,-100.60560000
19.40917969,-106.26600000
19.43969727,-99.90639000
19.47021484,-99.96820000
19.50073242,-102.95290000
19.53125000,-109.40650000
19.56176758,-111.52280000
19.59228516,-101.63080000
19.62280273,-98.85667000
19.65332031,-101.88120000
19.68383789,-116.81960000
19.71435547,-103.33630000
19.74487305,-102.75400000
19.77539063,-107.22980000
19.80590820,-106.44580000
19.83642578,-102.85580000
19.86694336,-103.50060000
19.89746094,-104.00030000
19.92797852,-98.21062000
19.95849609,-96.65295000
19.98901367,-99.55850000
20.01953125,-105.53830000
20.05004883,-107.36070000
20.08056641,-102.72160000
20.11108398,-101.22360000
20.14160156,-102.13220000
20.17211914,-99.77772000
20.20263672,-97.45151000
20.23315430,-97.45362000
20.26367188,-98.68994000
20.29418945,-98.45432000
20.32470703,-98.40889000
20.35522461,-98.63744000
20.38574219,-95.76630000
20.41625977,-91.87645000
20.44677734,-89.31370000
20.47729492,-89.36446000
20.50781250,-93.25957000
20.53833008,-105.73870000
20.56884766,-100.94390000
20.59936523,-101.22310000
20.62988281,-103.23580000
20.66040039,-92.81541000
20.69091797,-88.36554000
20.72143555,-86.45099000
20.75195313,-86.50062000
20.78247070,-88.06313000
20.81298828,-88.32513000
20.84350586,-87.35076000
20.87402344,-88.19980000
20.90454102,-91.27629000
20.93505859,-95.61145000
20.96557617,-100.38100000
20.99609375,-102.55850000
21.02661133,-95.77570000
21.05712891,-93.55995000
21.08764648,-95.77954000
21.11816406,-99.12568000
21.14868164,-93.86320000
21.17919922,-90.64792000
21.20971680,-88.99449000
21.24023438,-89.22691000
21.27075195,-91.19086000
21.30126953,-93.74353000
21.33178711,-98.37737000
21.36230469,-99.73930000
21.39282227,-96.33298000
21.42333984,-98.20892000
21.45385742,-108.32430000
21.48437500,-105.48150000
21.51489258,-99.07001000
21.54541016,-94.15782000
21.57592773,-92.87617000
21.60644531,-96.93933000
21.63696289,-117.53170000
21.66748047,-105.22390000
21.69799805,-108.85760000
21.72851563,-105.15070000
21.75903320,-100.60040000
21.78955078,-100.38720000
21.82006836,-100.05090000
21.85058594,-98.73308000
21.88110352,-99.94850000
21.91162109,-100.54530000
21.94213867,-98.96536000
21.97265625,-99.50798000
22.00317383,-99.66379000
22.03369141,-98.19972000
22.06420898,-98.93078000
22.09472656,-97.43946000
22.12524414,-93.01569000
22.15576172,-90.78078000
22.18627930,-90.28598000
22.21679688,-91.51855000
22.24731445,-95.69897000
22.27783203,-100.74480000
22.30834961,-98.57452000
22.33886719,-98.25792000
22.36938477,-99.38010000
22.39990234,-103.51000000
22.43041992,-110.20490000
22.46093750,-95.86640000
22.49145508,-92.51486000
22.52197266,-93.51855000
22.55249023,-97.11465000
22.58300781,-96.72157000
22.61352539,-93.99375000
22.64404297,-92.28329000
22.67456055,-91.53568000
22.70507813,-92.89536000
22.73559570,-96.49672000
22.76611328,-103.77210000
22.79663086,-108.96790000
22.82714844,-97.88875000
22.85766602,-94.36250000
22.88818359,-92.59525000
22.91870117,-91.52513000
22.94921875,-90.81867000
22.97973633,-91.02831000
23.01025391,-93.06778000
23.04077148,-96.62726000
23.07128906,-102.52730000
23.10180664,-101.20290000
23.13232422,-93.19431000
23.16284180,-90.69443000
23.19335938,-91.34660000
23.22387695,-94.44718000
23.25439453,-100.37180000
23.28491211,-106.32650000
23.31542969,-101.09060000
23.34594727,-97.62427000
23.37646484,-95.15765000
23.40698242,-94.86892000
23.43750000,-96.27954000
23.46801758,-96.04302000
23.49853516,-94.45876000
23.52905273,-94.47655000
23.55957031,-95.88601000
23.59008789,-92.71039000
23.62060547,-89.92227000
23.65112305,-90.33535000
23.68164063,-94.20013000
23.71215820,-99.38157000
23.74267578,-94.07822000
23.77319336,-89.38699000
23.80371094,-86.66702000
23.83422852,-85.91842000
23.86474609,-87.44914000
23.89526367,-91.15091000
23.92578125,-95.54266000
23.95629883,-99.09097000
23.98681641,-102.45830000
24.01733398,-104.06850000
24.04785156,-104.22010000
24.07836914,-103.06700000
24.10888672,-98.93864000
24.13940430,-94.96257000
24.16992188,-93.37559000
24.20043945,-95.56587000
24.23095703,-102.88460000
24.26147461,-101.88810000
24.29199219,-106.76830000
24.32250977,-99.71604000
24.35302734,-93.47531000
24.38354492,-92.39445000
24.41406250,-92.49037000
24.44458008,-90.58975000
24.47509766,-88.44265000
24.50561523,-87.72660000
24.53613281,-88.83424000
24.56665039,-91.40848000
24.59716797,-94.53247000
24.62768555,-97.65739000
24.65820313,-101.55260000
24.68872070,-111.21810000
24.71923828,-101.76190000
24.74975586,-96.81497000
24.78027344,-96.19957000
24.81079102,-93.99663000
24.84130859,-90.67204000
24.87182617,-90.24113000
24.90234375,-94.01367000
24.93286133,-102.95840000
24.96337891,-94.83484000
24.99389648,-92.19264000
25.02441406,-92.89615000
25.05493164,-93.71187000
25.08544922,-92.48897000
25.11596680,-91.35232000
25.14648438,-91.41171000
25.17700195,-92.74275000
25.20751953,-95.14327000
25.23803711,-98.41223000
25.26855469,-102.41900000
25.29907227,-104.57810000
25.32958984,-103.08110000
25.36010742,-102.20630000
25.39062500,-101.86710000
25.42114258,-97.56593000
25.45166016,-93.07497000
25.48217773,-89.88985000
25.51269531,-88.79405000
25.54321289,-90.39513000
25.57373047,-95.39082000
25.60424805,-103.53080000
25.63476563,-105.13110000
25.66528320,-98.77364000
25.69580078,-96.75652000
25.72631836,-101.73420000
25.75683594,-110.64890000
25.78735352,-101.70430000
25.81787109,-99.05102000
25.84838867,-94.70348000
25.87890625,-93.79047000
25.90942383,-96.74397000
25.93994141,-106.77090000
25.97045898,-95.73528000
26.00097656,-90.37500000
26.03149414,-88.80415000
26.06201172,-89.50073000
26.09252930,-92.34492000
26.12304688,-98.53957000
26.15356445,-106.65220000
26.18408203,-96.54434000
26.21459961,-91.96357000
26.24511719,-90.31524000
26.27563477,-90.68676000
26.30615234,-92.00693000
26.33666992,-90.91522000
26.36718750,-89.61848000
26.39770508,-90.70827000
26.42822266,-94.58040000
26.45874023,-104.98030000
26.48925781,-98.83009000
26.51977539,-93.38813000
26.55029297,-92.86926000
26.58081055,-96.30841000
26.61132813,-102.76250000
26.64184570,-96.06892000
26.67236328,-92.77096000
26.70288086,-92.71657000
26.73339844,-94.80244000
26.76391602,-99.64105000
26.79443359,-132.16460000
26.82495117,-99.13229000
26.85546875,-95.40397000
26.88598633,-95.87566000
26.91650391,-97.57333000
26.94702148,-96.85120000
26.97753906,-95.10052000
27.00805664,-95.12035000
27.03857422,-97.84648000
27.06909180,-100.82710000
27.09960938,-99.34346000
27.13012695,-97.87047000
27.16064453,-95.69168000
27.19116211,-92.75191000
27.22167969,-91.05460000
27.25219727,-92.04129000
27.28271484,-97.01160000
27.31323242,-107.49050000
27.34375000,-106.02420000
27.37426758,-108.71750000
27.40478516,-106.87760000
27.43530273,-98.15925000
27.46582031,-93.39242000
27.49633789,-92.17178000
27.52685547,-94.82976000
27.55737305,-97.99455000
27.58789063,-94.50145000
27.61840820,-92.23641000
27.64892578,-91.32218000
27.67944336,-91.81403000
27.70996094,-94.13499000
27.74047852,-97.20253000
27.77099609,-100.05010000
27.80151367,-101.33160000
27.83203125,-96.11022000
27.86254883,-94.32335000
27.89306641,-95.73663000
27.92358398,-96.84764000
27.95410156,-94.45588000
27.98461914,-92.73402000
28.01513672,-92.37782000
28.04565430,-93.67505000
28.07617188,-98.74126000
28.10668945,-116.88780000
28.13720703,-99.65277000
28.16772461,-97.90395000
28.19824219,-101.65540000
28.22875977,-135.01180000
28.25927734,-100.14040000
28.28979492,-97.29061000
28.32031250,-105.13720000
28.35083008,-99.42647000
28.38134766,-93.48068000
28.41186523,-92.76398000
28.44238281,-92.75570000
28.47290039,-91.78067000
28.50341797,-91.93398000
28.53393555,-96.21682000
28.56445313,-101.75530000
28.59497070,-93.37287000
28.62548828,-91.37607000
28.65600586,-93.49181000
28.68652344,-100.12820000
28.71704102,-98.66314000
28.74755859,-96.12595000
28.77807617,-99.11444000
28.80859375,-103.12350000
28.83911133,-101.30510000
28.86962891,-101.38510000
28.90014648,-101.11040000
28.93066406,-101.17350000
28.96118164,-103.72310000
28.99169922,-107.35580000
29.02221680,-102.34360000
29.05273438,-96.25820000
29.08325195,-93.61411000
29.11376953,-93.77227000
29.14428711,-96.26774000
29.17480469,-100.41240000
29.20532227,-102.78670000
29.23583984,-98.54808000
29.26635742,-95.51869000
29.29687500,-95.91370000
29.32739258,-97.67342000
29.35791016,-96.73894000
29.38842773,-96.83524000
29.41894531,-100.49710000
29.44946289,-98.80220000
29.47998047,-94.56142000
29.51049805,-93.94215000
29.54101563,-95.66494000
29.57153320,-99.25708000
29.60205078,-101.62450000
29.63256836,-96.96794000
29.66308594,-94.55579000
29.69360352,-93.56154000
29.72412109,-92.76214000
29.75463867,-92.61862000
29.78515625,-93.21044000
29.81567383,-94.12181000
29.84619141,-96.15221000
29.87670898,-102.38420000
29.90722656,-119.41230000
29.93774414,-108.63730000
29.96826172,-111.07830000
29.99877930,-96.33079000
30.02929688,-91.38924000
30.05981445,-90.05250000
30.09033203,-91.03096000
30.12084961,-92.57494000
30.15136719,-91.50002000
30.18188477,-89.46961000
30.21240234,-88.82209000
30.24291992,-89.72180000
30.27343750,-91.84357000
30.30395508,-94.71103000
30.33447266,-96.74773000
30.36499023,-95.43527000
30.39550781,-93.03028000
30.42602539,-91.62193000
30.45654297,-91.85324000
30.48706055,-94.61388000
30.51757813,-96.59766000
30.54809570,-93.24101000
30.57861328,-91.36195000
30.60913086,-91.65604000
30.63964844,-94.28130000
30.67016602,-95.84697000
30.70068359,-93.54703000
30.73120117,-95.15099000
30.76171875,-107.86680000
30.79223633,-96.43143000
30.82275391,-93.11331000
30.85327148,-94.32537000
30.88378906,-97.13470000
30.91430664,-97.10838000
30.94482422,-94.43982000
30.97534180,-91.68819000
31.00585938,-90.31650000
31.03637695,-90.69176000
31.06689453,-92.87976000
31.09741211,-98.49925000
31.12792969,-108.81430000
31.15844727,-102.17760000
31.18896484,-104.39310000
31.21948242,-102.77950000
31.25000000,-96.09979000
31.28051758,-93.16589000
31.31103516,-92.25600000
31.34155273,-92.64119000
31.37207031,-93.85841000
31.40258789,-95.43266000
31.43310547,-97.92845000
31.46362305,-105.95570000
31.49414063,-103.13280000
31.52465820,-94.25025000
31.55517578,-90.81090000
31.58569336,-89.57721000
31.61621094,-89.77601000
31.64672852,-91.57691000
31.67724609,-96.94592000
31.70776367,-99.18842000
31.73828125,-91.33023000
31.76879883,-89.78989000
31.79931641,-93.44468000
31.82983398,-101.90960000
31.86035156,-94.45721000
31.89086914,-92.17378000
31.92138672,-92.76089000
31.95190430,-94.09335000
31.98242188,-93.75613000
32.01293945,-92.85641000
32.04345703,-93.71426000
32.07397461,-96.73713000
32.10449219,-100.03310000
32.13500977,-99.80209000
32.16552734,-98.71423000
32.19604492,-98.72926000
32.22656250,-100.10590000
32.25708008,-103.98410000
32.28759766,-114.74440000
32.31811523,-105.26770000
32.34863281,-100.23930000
32.37915039,-98.44754000
32.40966797,-97.26152000
32.44018555,-95.63879000
32.47070313,-94.35081000
32.50122070,-94.73252000
32.53173828,-97.87711000
32.56225586,-102.73310000
32.59277344,-99.63374000
32.62329102,-96.27030000
32.65380859,-94.52274000
32.68432617,-94.62717000
32.71484375,-98.09699000
32.74536133,-99.34098000
32.77587891,-93.50639000
32.80639648,-90.98191000
32.83691406,-90.78854000
32.86743164,-92.04515000
32.89794922,-93.78152000
32.92846680,-96.19350000
32.95898438,-101.08510000
32.98950195,-101.14800000
33.02001953,-99.31268000
33.05053711,-101.41280000
33.08105469,-102.32940000
33.11157227,-98.54819000
33.14208984,-96.16119000
33.17260742,-96.81853000
33.20312500,-102.82980000
33.23364258,-101.06960000
33.26416016,-94.13161000
33.29467773,-91.47841000
33.32519531,-89.88962000
33.35571289,-88.64670000
33.38623047,-88.62717000
33.41674805,-90.56420000
33.44726563,-95.15115000
33.47778320,-95.04385000
33.50830078,-90.45821000
33.53881836,-89.40800000
33.56933594,-90.59885000
33.59985352,-90.52611000
33.63037109,-88.98719000
33.66088867,-88.00495000
33.69140625,-87.53784000
33.72192383,-87.80560000
33.75244141,-89.24610000
33.78295898,-91.77756000
33.81347656,-95.19891000
33.84399414,-100.29600000
33.87451172,-100.40790000
33.90502930,-96.00455000
33.93554688,-95.78056000
33.96606445,-97.11356000
33.99658203,-92.28400000
34.02709961,-88.31013000
34.05761719,-87.05392000
34.08813477,-87.98457000
34.11865234,-89.45847000
34.14916992,-89.53638000
34.17968750,-90.32431000
34.21020508,-92.83144000
34.24072266,-92.56068000
34.27124023,-90.27336000
34.30175781,-89.55405000
34.33227539,-89.91788000
34.36279297,-91.07582000
34.39331055,-92.81937000
34.42382813,-93.28468000
34.45434570,-92.44711000
34.48486328,-91.71661000
34.51538086,-90.81137000
34.54589844,-90.04982000
34.57641602,-90.39817000
34.60693359,-92.31846000
34.63745117,-94.62693000
34.66796875,-92.85188000
34.69848633,-89.81087000
34.72900391,-88.15742000
34.75952148,-87.72894000
34.79003906,-88.64027000
34.82055664,-91.71932000
34.85107422,-95.45836000
34.88159180,-93.29375000
34.91210938,-92.55383000
34.94262695,-94.40846000
34.97314453,-92.41158000
35.00366211,-89.16388000
35.03417969,-88.42274000
35.06469727,-89.88198000
35.09521484,-92.60884000
35.12573242,-93.19854000
35.15625000,-90.62325000
35.18676758,-88.83492000
35.21728516,-88.85436000
35.24780273,-90.21007000
35.27832031,-91.20078000
35.30883789,-90.79257000
35.33935547,-88.85476000
35.36987305,-86.48193000
35.40039063,-85.49820000
35.43090820,-85.90903000
35.46142578,-86.49734000
35.49194336,-87.35076000
35.52246094,-89.75124000
35.55297852,-91.23196000
35.58349609,-89.90854000
35.61401367,-90.40236000
35.64453125,-92.47545000
35.67504883,-91.41107000
35.70556641,-88.91892000
35.73608398,-87.59410000
35.76660156,-87.47475000
35.79711914,-88.25074000
35.82763672,-89.16457000
35.85815430,-90.04796000
35.88867188,-91.19546000
35.91918945,-91.32433000
35.94970703,-90.42165000
35.98022461,-89.83055000
36.01074219,-89.27684000
36.04125977,-88.83144000
36.07177734,-88.87366000
36.10229492,-89.13432000
36.13281250,-90.32836000
36.16333008,-93.84513000
36.19384766,-95.00433000
36.22436523,-90.32406000
36.25488281,-87.92436000
36.28540039,-87.85836000
36.31591797,-89.58646000
36.34643555,-92.04443000
36.37695313,-93.82897000
36.40747070,-94.08677000
36.43798828,-92.56707000
36.46850586,-91.60167000
36.49902344,-91.49731000
36.52954102,-91.27030000
36.56005859,-92.83492000
36.59057617,-98.46484000
36.62109375,-92.80913000
36.65161133,-88.50697000
36.68212891,-88.18048000
36.71264648,-90.65138000
36.74316406,-94.93454000
36.77368164,-97.34680000
36.80419922,-97.22466000
36.83471680,-97.56949000
36.86523438,-97.38876000
36.89575195,-97.80038000
36.92626953,-101.44980000
36.95678711,-106.37370000
36.98730469,-97.41275000
37.01782227,-94.05455000
37.04833984,-93.41785000
37.07885742,-93.75274000
37.10937500,-94.94490000
37.13989258,-96.02756000
37.17041016,-92.26513000
37.20092773,-88.92815000
37.23144531,-88.38504000
37.26196289,-91.36265000
37.29248047,-104.45780000
37.32299805,-96.01045000
37.35351563,-91.82475000
37.38403320,-94.04977000
37.41455078,-102.27880000
37.44506836,-94.79242000
37.47558594,-90.98705000
37.50610352,-90.47412000
37.53662109,-91.58825000
37.56713867,-93.38700000
37.59765625,-95.36057000
37.62817383,-96.00517000
37.65869141,-94.74397000
37.68920898,-94.07272000
37.71972656,-93.96827000
37.75024414,-92.92995000
37.78076172,-91.31837000
37.81127930,-91.43624000
37.84179688,-95.67708000
37.87231445,-117.94630000
37.90283203,-95.98706000
37.93334961,-93.70614000
37.96386719,-96.73015000
37.99438477,-100.89650000
38.02490234,-97.34528000
38.05541992,-96.25287000
38.08593750,-97.49515000
38.11645508,-99.91376000
38.14697266,-103.50220000
38.17749023,-108.87810000
38.20800781,-102.51580000
38.23852539,-96.21701000
38.26904297,-93.60096000
38.29956055,-94.20576000
38.33007813,-97.58844000
38.36059570,-96.55000000
38.39111328,-92.16877000
38.42163086,-90.41245000
38.45214844,-91.50452000
38.48266602,-95.42007000
38.51318359,-102.93530000
38.54370117,-109.45330000
38.57421875,-97.06501000
38.60473633,-92.85458000
38.63525391,-91.19397000
38.66577148,-91.18459000
38.69628906,-92.59422000
38.72680664,-94.38811000
38.75732422,-95.68169000
38.78784180,-97.13922000
38.81835938,-97.77924000
38.84887695,-99.34174000
38.87939453,-106.67760000
38.90991211,-98.44047000
38.94042969,-92.60915000
38.97094727,-90.31020000
39.00146484,-89.35609000
39.03198242,-89.21120000
39.06250000,-90.94886000
39.09301758,-95.81084000
39.12353516,-98.99520000
39.15405273,-94.27515000
39.18457031,-90.56640000
39.21508789,-88.73271000
39.24560547,-90.07610000
39.27612305,-97.17773000
39.30664063,-97.87157000
39.33715820,-93.15265000
39.36767578,-94.12736000
39.39819336,-98.65910000
39.42871094,-97.83688000
39.45922852,-93.94179000
39.48974609,-94.15234000
39.52026367,-95.64651000
39.55078125,-93.18391000
39.58129883,-92.92602000
39.61181641,-93.25835000
39.64233398,-90.10245000
39.67285156,-89.23201000
39.70336914,-91.72832000
39.73388672,-96.85690000
39.76440430,-101.47360000
39.79492188,-101.75940000
39.82543945,-100.75700000
39.85595703,-98.17994000
39.88647461,-93.61565000
39.91699219,-90.89804000
39.94750977,-90.49193000
39.97802734,-92.29779000
40.00854492,-97.02851000
40.03906250,-109.13830000
40.06958008,-96.62840000
40.10009766,-91.99271000
40.13061523,-92.09636000
40.16113281,-97.01553000
40.19165039,-100.28890000
40.22216797,-95.74828000
40.25268555,-97.21761000
40.28320313,-102.36630000
40.31372070,-97.23012000
40.34423828,-95.44745000
40.37475586,-98.00755000
40.40527344,-105.75640000
40.43579102,-110.68200000
40.46630859,-98.60885000
40.49682617,-91.42912000
40.52734375,-88.70534000
40.55786133,-88.65238000
40.58837891,-89.01691000
40.61889648,-88.68587000
40.64941406,-88.21754000
40.67993164,-88.84296000
40.71044922,-90.75558000
40.74096680,-91.67617000
40.77148438,-91.35036000
40.80200195,-91.97112000
40.83251953,-93.70377000
40.86303711,-94.45477000
40.89355469,-95.89702000
40.92407227,-98.27658000
40.95458984,-96.66632000
40.98510742,-92.97021000
41.01562500,-88.47232000
41.04614258,-85.76725000
41.07666016,-85.32019000
41.10717773,-86.52859000
41.13769531,-87.45683000
41.16821289,-88.63511000
41.19873047,-94.02289000
41.22924805,-102.39670000
41.25976563,-93.68645000
41.29028320,-94.91615000
41.32080078,-109.79390000
41.35131836,-99.09413000
41.38183594,-99.28389000
41.41235352,-102.24760000
41.44287109,-93.77556000
41.47338867,-93.31242000
41.50390625,-95.41087000
41.53442383,-91.41036000
41.56494141,-90.18913000
41.59545898,-92.30096000
41.62597656,-96.45831000
41.65649414,-96.92898000
41.68701172,-93.73817000
41.71752930,-95.12489000
41.74804688,-98.32233000
41.77856445,-93.86501000
41.80908203,-93.04185000
41.83959961,-93.46635000
41.87011719,-90.69897000
41.90063477,-88.95416000
41.93115234,-88.43040000
41.96166992,-88.33031000
41.99218750,-89.05923000
42.02270508,-91.78523000
42.05322266,-95.75510000
42.08374023,-98.30016000
42.11425781,-108.53370000
42.14477539,-91.74669000
42.17529297,-85.72672000
42.20581055,-83.93108000
42.23632813,-84.84386000
42.26684570,-86.02936000
42.29736328,-86.23647000
42.32788086,-87.48803000
42.35839844,-89.78860000
42.38891602,-93.74812000
42.41943359,-94.41753000
42.44995117,-95.97312000
42.48046875,-93.16078000
42.51098633,-85.23711000
42.54150391,-83.14780000
42.57202148,-85.16961000
42.60253906,-92.10707000
42.63305664,-98.23080000
42.66357422,-91.57978000
42.69409180,-90.32418000
42.72460938,-91.93092000
42.75512695,-96.75637000
42.78564453,-108.91560000
42.81616211,-91.91490000
42.84667969,-86.76053000
42.87719727,-85.84115000
42.90771484,-88.25256000
42.93823242,-91.89571000
42.96875000,-90.64635000
42.99926758,-87.96669000
43.02978516,-87.75513000
43.06030273,-91.67942000
43.09082031,-105.57050000
43.12133789,-94.47900000
43.15185547,-89.21980000
43.18237305,-86.29317000
43.21289063,-85.24108000
43.24340820,-86.03973000
43.27392578,-87.88336000
43.30444336,-88.61518000
43.33496094,-87.06160000
43.36547852,-86.40304000
43.39599609,-88.32835000
43.42651367,-91.87389000
43.45703125,-89.97250000
43.48754883,-85.96233000
43.51806641,-83.99149000
43.54858398,-83.95198000
43.57910156,-85.15002000
43.60961914,-86.00261000
43.64013672,-85.26808000
43.67065430,-84.36256000
43.70117188,-84.94029000
43.73168945,-87.85045000
43.76220703,-93.79825000
43.79272461,-95.28713000
43.82324219,-89.68095000
43.85375977,-87.15333000
43.88427734,-87.15348000
43.91479492,-89.61276000
43.94531250,-95.63094000
43.97583008,-104.39790000
44.00634766,-94.91200000
44.03686523,-91.72474000
44.06738281,-91.56575000
44.09790039,-94.67818000
44.12841797,-101.35190000
44.15893555,-93.00221000
44.18945313,-89.29554000
44.21997070,-89.57939000
44.25048828,-93.82595000
44.28100586,-104.74200000
44.31152344,-96.66975000
44.34204102,-91.51367000
44.37255859,-89.99716000
44.40307617,-91.83074000
44.43359375,-96.83640000
44.46411133,-92.65339000
44.49462891,-87.46617000
44.52514648,-85.38351000
44.55566406,-86.17153000
44.58618164,-90.46010000
44.61669922,-100.80070000
44.64721680,-99.82952000
44.67773438,-92.83805000
44.70825195,-89.54891000
44.73876953,-89.05042000
44.76928711,-90.44473000
44.79980469,-91.73215000
44.83032227,-91.85268000
44.86083984,-93.41445000
44.89135742,-97.23047000
44.92187500,-94.97578000
44.95239258,-94.26631000
44.98291016,-100.51850000
45.01342773,-94.18273000
45.04394531,-88.70982000
45.07446289,-87.27481000
45.10498047,-88.08879000
45.13549805,-90.03551000
45.16601563,-91.65077000
45.19653320,-93.44002000
45.22705078,-99.55441000
45.25756836,-107.86750000
45.28808594,-97.98753000
45.31860352,-94.22832000
45.34912109,-91.58745000
45.37963867,-92.24095000
45.41015625,-98.10096000
45.44067383,-109.09850000
45.47119141,-94.92966000
45.50170898,-91.05232000
45.53222656,-90.26302000
45.56274414,-92.03899000
45.59326172,-96.79130000
45.62377930,-98.72021000
45.65429688,-93.22387000
45.68481445,-91.18539000
45.71533203,-92.79430000
45.74584961,-98.01460000
45.77636719,-104.80710000
45.80688477,-100.19750000
45.83740234,-95.44822000
45.86791992,-94.11401000
45.89843750,-95.19436000
45.92895508,-97.50650000
45.95947266,-96.99424000
45.98999023,-93.41879000
46.02050781,-92.19543000
46.05102539,-94.66771000
46.08154297,-100.89310000
46.11206055,-99.76897000
46.14257813,-95.04447000
46.17309570,-92.26442000
46.20361328,-91.73718000
46.23413086,-92.43535000
46.26464844,-91.40039000
46.29516602,-90.11173000
46.32568359,-89.12426000
46.35620117,-88.35656000
46.38671875,-88.71059000
46.41723633,-90.64471000
46.44775391,-94.20691000
46.47827148,-96.34605000
46.50878906,-94.11391000
46.53930664,-92.46655000
46.56982422,-92.15421000
46.60034180,-92.71436000
46.63085938,-93.70444000
46.66137695,-93.82523000
46.69189453,-92.92317000
46.72241211,-92.54502000
46.75292969,-92.80338000
46.78344727,-93.41428000
46.81396484,-95.25585000
46.84448242,-99.29099000
46.87500000,-102.92660000
46.90551758,-99.66333000
46.93603516,-96.25246000
46.96655273,-95.99333000
46.99707031,-98.75888000
47.02758789,-101.05880000
47.05810547,-99.75671000
47.08862305,-99.61364000
47.11914063,-100.86500000
47.14965820,-99.62307000
47.18017578,-99.38506000
47.21069336,-101.83330000
47.24121094,-95.94555000
47.27172852,-92.44086000
47.30224609,-93.13385000
47.33276367,-98.66486000
47.36328125,-106.63370000
47.39379883,-97.46739000
47.42431641,-95.21049000
47.45483398,-95.28728000
47.48535156,-95.44079000
47.51586914,-96.43707000
47.54638672,-99.92748000
47.57690430,-104.48540000
47.60742188,-100.22090000
47.63793945,-96.29917000
47.66845703,-94.60329000
47.69897461,-95.00968000
47.72949219,-97.39096000
47.76000977,-100.34990000
47.79052734,-99.81384000
47.82104492,-97.07732000
47.85156250,-96.81774000
47.88208008,-100.25810000
47.91259766,-102.69770000
47.94311523,-102.90770000
47.97363281,-103.47310000
48.00415039,-97.45746000
48.03466797,-94.39137000
48.06518555,-93.63457000
48.09570313,-94.93781000
48.12622070,-100.18700000
48.15673828,-103.86940000
48.18725586,-96.53906000
48.21777344,-93.55493000
48.24829102,-92.05822000
48.27880859,-92.64713000
48.30932617,-99.09912000
48.33984375,-99.84084000
48.37036133,-90.61146000
48.40087891,-88.75823000
48.43139648,-90.34866000
48.46191406,-94.11551000
48.49243164,-97.99424000
48.52294922,-100.92540000
48.55346680,-102.99710000
48.58398438,-97.48214000
48.61450195,-95.17285000
48.64501953,-98.08903000
48.67553711,-96.26083000
48.70605469,-93.35709000
48.73657227,-96.94612000
48.76708984,-104.98880000
48.79760742,-96.34148000
48.82812500,-94.89635000
48.85864258,-94.73007000
48.88916016,-94.87148000
48.91967773,-94.13670000
48.95019531,-93.31184000
48.98071289,-94.48636000
49.01123047,-90.63823000
49.04174805,-87.77640000
49.07226563,-88.46951000
49.10278320,-92.04761000
49.13330078,-98.14223000
49.16381836,-106.59740000
49.19433594,-111.38740000
49.22485352,-112.48910000
49.25537109,-100.47160000
49.28588867,-95.66764000
49.31640625,-91.40152000
49.34692383,-87.97559000
49.37744141,-87.16013000
49.40795898,-89.82137000
49.43847656,-98.57552000
49.46899414,-100.31020000
49.49951172,-94.16032000
49.53002930,-91.89380000
49.56054688,-90.79933000
49.59106445,-91.14804000
49.62158203,-92.87122000
49.65209961,-92.32364000
49.68261719,-89.29071000
49.71313477,-88.68645000
49.74365234,-91.46825000
49.77416992,-97.09271000
49.80468750,-99.66510000
49.83520508,-99.07721000
49.86572266,-98.19053000
49.89624023,-96.66360000
49.92675781,-100.04790000
49.95727539,-101.31740000
49.98779297,-90.35606000
50.01831055,-86.19005000
