Frequency,Channel A
(MHz),(dBu)

0.00000000,-28.67152000
0.03051758,-28.95409000
0.06103516,-33.78134000
0.09155273,-42.22240000
0.12207031,-53.11281000
0.15258789,-58.25810000
0.18310547,-58.61719000
0.21362305,-61.06774000
0.24414063,-64.41087000
0.27465820,-66.84089000
0.30517578,-73.09702000
0.33569336,-76.99812000
0.36621094,-67.21129000
0.39672852,-64.20890000
0.42724609,-63.86153000
0.45776367,-64.15216000
0.48828125,-62.53963000
0.51879883,-62.38102000
0.54931641,-67.08825000
0.57983398,-85.69213000
0.61035156,-78.39561000
0.64086914,-66.35818000
0.67138672,-58.29273000
0.70190430,-55.44860000
0.73242188,-55.68069000
0.76293945,-57.31860000
0.79345703,-59.41595000
0.82397461,-62.66399000
0.85449219,-65.63638000
0.88500977,-63.70210000
0.91552734,-61.51103000
0.94604492,-61.27253000
0.97656250,-62.07613000
1.00708008,-63.50725000
1.03759766,-67.86279000
1.06811523,-77.26682000
1.09863281,-73.47946000
1.12915039,-79.24960000
1.15966797,-79.55228000
1.19018555,-73.88747000
1.22070313,-75.83034000
1.25122070,-84.48189000
1.28173828,-107.24250000
1.31225586,-87.14845000
1.34277344,-77.87352000
1.37329102,-77.29211000
1.40380859,-78.66898000
1.43432617,-77.17795000
1.46484375,-72.62868000
1.49536133,-68.19538000
1.52587891,-67.11001000
1.55639648,-69.39122000
1.58691406,-74.89168000
1.61743164,-75.79054000
1.64794922,-74.35941000
1.67846680,-74.95972000
1.70898438,-79.45957000
1.73950195,-97.78766000
1.77001953,-78.69441000
1.80053711,-71.42175000
1.83105469,-69.53474000
1.86157227,-70.81246000
1.89208984,-73.24583000
1.92260742,-74.68430000
1.95312500,-72.94270000
1.98364258,-69.37526000
2.01416016,-68.03387000
2.04467773,-70.49807000
2.07519531,-76.96498000
2.10571289,-79.14987000
2.13623047,-82.11846000
2.16674805,-80.14198000
2.19726563,-77.04895000
2.22778320,-77.89702000
2.25830078,-78.79660000
2.28881836,-81.87704000
2.31933594,-92.50235000
2.34985352,-85.11395000
2.38037109,-86.73969000
2.41088867,-91.36784000
2.44140625,-78.09882000
2.47192383,-75.95174000
2.50244141,-77.16104000
2.53295898,-73.88726000
2.56347656,-73.51469000
2.59399414,-76.84008000
2.62451172,-74.30421000
2.65502930,-72.82327000
2.68554688,-74.29869000
2.71606445,-76.12962000
2.74658203,-73.23000000
2.77709961,-70.72955000
2.80761719,-71.82227000
2.83813477,-74.87132000
2.86865234,-76.35233000
2.89916992,-74.59232000
2.92968750,-71.76855000
2.96020508,-70.73677000
2.99072266,-73.09694000
3.02124023,-83.87892000
3.05175781,-78.90220000
3.08227539,-77.71800000
3.11279297,-80.33775000
3.14331055,-78.15561000
3.17382813,-83.08182000
3.20434570,-95.91501000
3.23486328,-88.27468000
3.26538086,-75.41975000
3.29589844,-71.03914000
3.32641602,-71.82780000
3.35693359,-78.76402000
3.38745117,-83.64971000
3.41796875,-79.21941000
3.44848633,-82.76757000
3.47900391,-76.36357000
3.50952148,-72.36033000
3.54003906,-75.36599000
3.57055664,-85.94601000
3.60107422,-76.48199000
3.63159180,-76.48306000
3.66210938,-79.50510000
3.69262695,-86.68305000
3.72314453,-81.28134000
3.75366211,-74.11306000
3.78417969,-71.92111000
3.81469727,-71.66579000
3.84521484,-76.17362000
3.87573242,-97.22476000
3.90625000,-78.55679000
3.93676758,-78.11772000
3.96728516,-81.28033000
3.99780273,-75.30289000
4.02832031,-74.60796000
4.05883789,-83.70615000
4.08935547,-76.64026000
4.11987305,-75.10467000
4.15039063,-79.68934000
4.18090820,-82.18703000
4.21142578,-88.74229000
4.24194336,-76.57565000
4.27246094,-75.21165000
4.30297852,-82.87116000
4.33349609,-82.09123000
4.36401367,-75.11669000
4.39453125,-76.10011000
4.42504883,-87.69942000
4.45556641,-83.41006000
4.48608398,-79.61270000
4.51660156,-82.01749000
4.54711914,-92.97871000
4.57763672,-84.24203000
4.60815430,-79.54817000
4.63867188,-76.90600000
4.66918945,-77.18148000
4.69970703,-79.36921000
4.73022461,-78.10944000
4.76074219,-75.79759000
4.79125977,-75.19853000
4.82177734,-78.89281000
4.85229492,-103.40220000
4.88281250,-84.74512000
4.91333008,-90.78164000
4.94384766,-86.54480000
4.97436523,-82.02094000
5.00488281,-80.88077000
5.03540039,-86.85060000
5.06591797,-85.27864000
5.09643555,-81.61670000
5.12695313,-81.82697000
5.15747070,-79.52341000
5.18798828,-82.33786000
5.21850586,-113.16550000
5.24902344,-87.27181000
5.27954102,-92.26138000
5.31005859,-90.86983000
5.34057617,-82.62061000
5.37109375,-78.67368000
5.40161133,-78.63452000
5.43212891,-84.04703000
5.46264648,-83.64288000
5.49316406,-77.29890000
5.52368164,-76.55990000
5.55419922,-80.98904000
5.58471680,-85.33554000
5.61523438,-89.24020000
5.64575195,-82.98958000
5.67626953,-76.22384000
5.70678711,-74.74738000
5.73730469,-76.26418000
5.76782227,-80.42152000
5.79833984,-77.72202000
5.82885742,-75.66565000
5.85937500,-80.32306000
5.88989258,-78.44898000
5.92041016,-74.97456000
5.95092773,-78.00781000
5.98144531,-89.53971000
6.01196289,-78.59815000
6.04248047,-75.60889000
6.07299805,-75.44460000
6.10351563,-75.99698000
6.13403320,-81.81168000
6.16455078,-79.94479000
6.19506836,-80.68680000
6.22558594,-87.03685000
6.25610352,-79.15335000
6.28662109,-79.30372000
6.31713867,-82.78276000
6.34765625,-90.68078000
6.37817383,-83.14864000
6.40869141,-76.79531000
6.43920898,-76.95319000
6.46972656,-81.39583000
6.50024414,-90.64164000
6.53076172,-90.65263000
6.56127930,-83.72588000
6.59179688,-81.87971000
6.62231445,-81.25169000
6.65283203,-80.14992000
6.68334961,-80.49198000
6.71386719,-82.43974000
6.74438477,-86.33862000
6.77490234,-83.37917000
6.80541992,-80.67146000
6.83593750,-80.80173000
6.86645508,-80.23193000
6.89697266,-80.37711000
6.92749023,-82.61916000
6.95800781,-80.49773000
6.98852539,-78.06779000
7.01904297,-78.10580000
7.04956055,-79.40306000
7.08007813,-81.83186000
7.11059570,-84.95583000
7.14111328,-85.70817000
7.17163086,-83.66276000
7.20214844,-82.82382000
7.23266602,-85.94119000
7.26318359,-99.25772000
7.29370117,-84.22534000
7.32421875,-80.20720000
7.35473633,-80.31913000
7.38525391,-83.36438000
7.41577148,-88.42564000
7.44628906,-93.42605000
7.47680664,-98.41200000
7.50732422,-94.52870000
7.53784180,-88.32966000
7.56835938,-87.75851000
7.59887695,-94.26957000
7.62939453,-88.63652000
7.65991211,-82.93085000
7.69042969,-80.93861000
7.72094727,-81.07239000
7.75146484,-82.78052000
7.78198242,-86.27338000
7.81250000,-95.24163000
7.84301758,-94.93259000
7.87353516,-87.32963000
7.90405273,-84.80464000
7.93457031,-83.80619000
7.96508789,-83.15868000
7.99560547,-82.76440000
8.02612305,-83.54119000
8.05664063,-85.89442000
8.08715820,-88.03444000
8.11767578,-88.21983000
8.14819336,-87.96886000
8.17871094,-85.88570000
8.20922852,-84.63577000
8.23974609,-85.01564000
8.27026367,-85.30293000
8.30078125,-86.31308000
8.33129883,-87.84089000
8.36181641,-88.24859000
8.39233398,-86.33797000
8.42285156,-83.73623000
8.45336914,-82.59860000
8.48388672,-82.83827000
8.51440430,-84.53835000
8.54492188,-87.63936000
8.57543945,-88.89563000
8.60595703,-86.01790000
8.63647461,-82.96683000
8.66699219,-82.13777000
8.69750977,-85.21709000
8.72802734,-96.70867000
8.75854492,-96.14320000
8.78906250,-99.94643000
8.81958008,-97.97818000
8.85009766,-91.08331000
8.88061523,-89.35624000
8.91113281,-90.03850000
8.94165039,-92.97802000
8.97216797,-96.94002000
9.00268555,-99.93823000
9.03320313,-96.62758000
9.06372070,-89.59721000
9.09423828,-86.28577000
9.12475586,-86.27975000
9.15527344,-88.29689000
9.18579102,-89.93416000
9.21630859,-90.66085000
9.24682617,-91.09806000
9.27734375,-91.97881000
9.30786133,-89.50043000
9.33837891,-87.19044000
9.36889648,-87.93561000
9.39941406,-90.93635000
9.42993164,-89.65192000
9.46044922,-85.86298000
9.49096680,-83.75393000
9.52148438,-83.50865000
9.55200195,-84.91631000
9.58251953,-87.85651000
9.61303711,-94.87715000
9.64355469,-92.54025000
9.67407227,-85.37973000
9.70458984,-83.18547000
9.73510742,-83.92186000
9.76562500,-88.07011000
9.79614258,-100.94260000
9.82666016,-88.35334000
9.85717773,-84.81518000
9.88769531,-86.07126000
9.91821289,-91.45828000
9.94873047,-91.85432000
9.97924805,-89.42834000
10.00976563,-91.84459000
10.04028320,-85.70495000
10.07080078,-82.40783000
10.10131836,-82.92945000
10.13183594,-85.02578000
10.16235352,-86.93349000
10.19287109,-89.33672000
10.22338867,-93.17566000
10.25390625,-95.07437000
10.28442383,-90.17384000
10.31494141,-87.33553000
10.34545898,-85.43136000
10.37597656,-84.34510000
10.40649414,-84.57431000
10.43701172,-83.60771000
10.46752930,-82.52942000
10.49804688,-84.23669000
10.52856445,-88.60561000
10.55908203,-91.54402000
10.58959961,-88.54287000
10.62011719,-86.98254000
10.65063477,-88.94527000
10.68115234,-94.85152000
10.71166992,-90.26291000
10.74218750,-89.45245000
10.77270508,-91.21893000
10.80322266,-90.20453000
10.83374023,-88.05139000
10.86425781,-86.42166000
10.89477539,-86.34850000
10.92529297,-86.24130000
10.95581055,-83.72629000
10.98632813,-81.10996000
11.01684570,-79.30259000
11.04736328,-78.97060000
11.07788086,-81.68610000
11.10839844,-89.09053000
11.13891602,-90.26486000
11.16943359,-87.67112000
11.19995117,-82.90063000
11.23046875,-79.70587000
11.26098633,-78.54572000
11.29150391,-78.92302000
11.32202148,-80.86377000
11.35253906,-84.33736000
11.38305664,-87.91894000
11.41357422,-89.71338000
11.44409180,-89.03185000
11.47460938,-85.41136000
11.50512695,-82.04589000
11.53564453,-82.06195000
11.56616211,-82.65302000
11.59667969,-80.31379000
11.62719727,-81.01594000
11.65771484,-84.23552000
11.68823242,-82.33939000
11.71875000,-78.93572000
11.74926758,-76.69237000
11.77978516,-76.76942000
11.81030273,-81.00455000
11.84082031,-92.75474000
11.87133789,-86.78621000
11.90185547,-86.97823000
11.93237305,-84.48251000
11.96289063,-80.43918000
11.99340820,-80.67697000
12.02392578,-85.25906000
12.05444336,-94.60095000
12.08496094,-96.44459000
12.11547852,-92.98219000
12.14599609,-85.24236000
12.17651367,-79.70757000
12.20703125,-77.97586000
12.23754883,-80.18100000
12.26806641,-87.69703000
12.29858398,-90.39488000
12.32910156,-82.62790000
12.35961914,-79.48721000
12.39013672,-79.37139000
12.42065430,-81.65992000
12.45117188,-83.04517000
12.48168945,-82.33194000
12.51220703,-82.67715000
12.54272461,-85.46955000
12.57324219,-94.03447000
12.60375977,-89.51263000
12.63427734,-83.72001000
12.66479492,-83.18413000
12.69531250,-87.31322000
12.72583008,-94.61702000
12.75634766,-93.87881000
12.78686523,-89.39094000
12.81738281,-80.97856000
12.84790039,-76.19547000
12.87841797,-74.35976000
12.90893555,-74.66568000
12.93945313,-76.19589000
12.96997070,-77.88570000
13.00048828,-80.36259000
13.03100586,-84.22733000
13.06152344,-85.42039000
13.09204102,-81.52286000
13.12255859,-77.92535000
13.15307617,-76.50534000
13.18359375,-78.12697000
13.21411133,-87.68279000
13.24462891,-83.57382000
13.27514648,-78.46709000
13.30566406,-80.49465000
13.33618164,-89.93385000
13.36669922,-89.75785000
13.39721680,-84.19356000
13.42773438,-83.73097000
13.45825195,-82.95241000
13.48876953,-77.20541000
13.51928711,-71.47615000
13.54980469,-68.77586000
13.58032227,-69.40984000
13.61083984,-73.55117000
13.64135742,-81.77824000
13.67187500,-86.14175000
13.70239258,-75.39885000
13.73291016,-70.66370000
13.76342773,-69.86385000
13.79394531,-72.93363000
13.82446289,-79.99244000
13.85498047,-78.37624000
13.88549805,-77.29628000
13.91601563,-79.92616000
13.94653320,-82.05479000
13.97705078,-80.48503000
14.00756836,-79.73008000
14.03808594,-81.80000000
14.06860352,-85.53099000
14.09912109,-85.16963000
14.12963867,-88.22124000
14.16015625,-88.75428000
14.19067383,-83.19546000
14.22119141,-82.58800000
14.25170898,-84.51298000
14.28222656,-88.20522000
14.31274414,-98.70899000
14.34326172,-95.60236000
14.37377930,-87.37473000
14.40429688,-80.83279000
14.43481445,-76.52328000
14.46533203,-75.67941000
14.49584961,-79.25378000
14.52636719,-90.15519000
14.55688477,-86.12762000
14.58740234,-89.41566000
14.61791992,-93.19332000
14.64843750,-84.86027000
14.67895508,-82.80780000
14.70947266,-80.10184000
14.73999023,-78.74860000
14.77050781,-80.75069000
14.80102539,-86.54800000
14.83154297,-83.26538000
14.86206055,-78.79647000
14.89257813,-78.05740000
14.92309570,-81.26765000
14.95361328,-88.21850000
14.98413086,-85.89613000
15.01464844,-88.24841000
15.04516602,-95.93395000
15.07568359,-83.21779000
15.10620117,-81.55865000
15.13671875,-85.05124000
15.16723633,-83.77285000
15.19775391,-80.60016000
15.22827148,-82.91352000
15.25878906,-95.77882000
15.28930664,-83.44452000
15.31982422,-79.58545000
15.35034180,-79.78087000
15.38085938,-84.83405000
15.41137695,-98.20670000
15.44189453,-84.72841000
15.47241211,-86.00568000
15.50292969,-91.56719000
15.53344727,-87.27982000
15.56396484,-88.61344000
15.59448242,-105.20270000
15.62500000,-89.06714000
15.65551758,-85.90028000
15.68603516,-88.93416000
15.71655273,-88.44560000
15.74707031,-83.59970000
15.77758789,-83.06206000
15.80810547,-84.72563000
15.83862305,-86.32027000
15.86914063,-88.32649000
15.89965820,-95.75485000
15.93017578,-90.54443000
15.96069336,-86.57629000
15.99121094,-89.55830000
16.02172852,-86.88557000
16.05224609,-82.93107000
16.08276367,-83.84050000
16.11328125,-91.52089000
16.14379883,-92.29972000
16.17431641,-83.59638000
16.20483398,-81.94062000
16.23535156,-84.03564000
16.26586914,-88.55391000
16.29638672,-93.53767000
16.32690430,-94.26896000
16.35742188,-89.89696000
16.38793945,-90.10667000
16.41845703,-93.06671000
16.44897461,-95.44142000
16.47949219,-96.41369000
16.51000977,-91.13432000
16.54052734,-87.60214000
16.57104492,-85.71555000
16.60156250,-84.20585000
16.63208008,-83.61287000
16.66259766,-84.56284000
16.69311523,-86.76749000
16.72363281,-89.40433000
16.75415039,-91.22909000
16.78466797,-92.28562000
16.81518555,-92.57312000
16.84570313,-93.17234000
16.87622070,-102.64160000
16.90673828,-94.57199000
16.93725586,-88.01572000
16.96777344,-87.42268000
16.99829102,-91.98895000
17.02880859,-105.26040000
17.05932617,-88.79990000
17.08984375,-85.82265000
17.12036133,-87.46293000
17.15087891,-93.00343000
17.18139648,-97.30957000
17.21191406,-102.10520000
17.24243164,-105.39570000
17.27294922,-94.45946000
17.30346680,-91.94087000
17.33398438,-92.10793000
17.36450195,-92.57279000
17.39501953,-95.18098000
17.42553711,-100.84020000
17.45605469,-95.11447000
17.48657227,-90.56917000
17.51708984,-87.70665000
17.54760742,-88.04713000
17.57812500,-95.73471000
17.60864258,-96.67947000
17.63916016,-91.14932000
17.66967773,-97.31723000
17.70019531,-96.52563000
17.73071289,-90.59543000
17.76123047,-92.96280000
17.79174805,-91.00166000
17.82226563,-86.77268000
17.85278320,-87.15855000
17.88330078,-91.36856000
17.91381836,-98.11189000
17.94433594,-96.45547000
17.97485352,-93.32758000
18.00537109,-97.24549000
18.03588867,-98.93706000
18.06640625,-90.42087000
18.09692383,-91.26617000
18.12744141,-106.06570000
18.15795898,-94.14162000
18.18847656,-90.87917000
18.21899414,-93.07146000
18.24951172,-98.14479000
18.28002930,-101.15200000
18.31054688,-97.89008000
18.34106445,-97.93312000
18.37158203,-99.34462000
18.40209961,-91.68804000
18.43261719,-89.57745000
18.46313477,-93.16444000
18.49365234,-105.51850000
18.52416992,-97.35400000
18.55468750,-102.07120000
18.58520508,-99.99718000
18.61572266,-92.89776000
18.64624023,-94.12594000
18.67675781,-101.06680000
18.70727539,-94.88827000
18.73779297,-92.39254000
18.76831055,-95.48356000
18.79882813,-114.14130000
18.82934570,-94.52882000
18.85986328,-90.75721000
18.89038086,-90.80028000
18.92089844,-93.46871000
18.95141602,-99.58032000
18.98193359,-97.79469000
19.01245117,-94.60139000
19.04296875,-97.54247000
19.07348633,-109.49980000
19.10400391,-99.02824000
19.13452148,-95.52776000
19.16503906,-95.86938000
19.19555664,-98.57558000
19.22607422,-98.38616000
19.25659180,-100.23780000
19.28710938,-102.27260000
19.31762695,-95.21634000
19.34814453,-94.02397000
19.37866211,-97.25777000
19.40917969,-96.99131000
19.43969727,-93.06493000
19.47021484,-92.98074000
19.50073242,-96.88036000
19.53125000,-103.70520000
19.56176758,-104.22730000
19.59228516,-100.51690000
19.62280273,-96.51898000
19.65332031,-95.46909000
19.68383789,-97.79189000
19.71435547,-103.08580000
19.74487305,-105.38300000
19.77539063,-102.07820000
19.80590820,-100.31060000
19.83642578,-104.22680000
19.86694336,-105.04980000
19.89746094,-95.36572000
19.92797852,-93.83334000
19.95849609,-97.95905000
19.98901367,-95.37041000
20.01953125,-89.80821000
20.05004883,-89.07227000
20.08056641,-92.73134000
20.11108398,-98.77940000
20.14160156,-96.35575000
20.17211914,-97.29028000
20.20263672,-105.45300000
20.23315430,-93.00660000
20.26367188,-86.12337000
20.29418945,-82.55388000
20.32470703,-81.81252000
20.35522461,-83.60732000
20.38574219,-83.71451000
20.41625977,-81.89620000
20.44677734,-83.17465000
20.47729492,-90.08522000
20.50781250,-99.51987000
20.53833008,-90.50973000
20.56884766,-86.78012000
20.59936523,-83.99532000
20.62988281,-84.07120000
20.66040039,-87.40714000
20.69091797,-98.66042000
20.72143555,-92.05206000
20.75195313,-85.96607000
20.78247070,-85.98041000
20.81298828,-89.06407000
20.84350586,-88.64964000
20.87402344,-88.56371000
20.90454102,-92.07300000
20.93505859,-89.63690000
20.96557617,-87.06890000
20.99609375,-87.86205000
21.02661133,-92.43262000
21.05712891,-96.13527000
21.08764648,-89.25237000
21.11816406,-87.31525000
21.14868164,-88.85085000
21.17919922,-94.76845000
21.20971680,-95.82719000
21.24023438,-90.71893000
21.27075195,-91.99484000
21.30126953,-96.00842000
21.33178711,-90.05682000
21.36230469,-89.76031000
21.39282227,-101.40670000
21.42333984,-92.98421000
21.45385742,-89.90212000
21.48437500,-96.21224000
21.51489258,-99.49281000
21.54541016,-91.98415000
21.57592773,-91.90529000
21.60644531,-91.13918000
21.63696289,-90.83421000
21.66748047,-96.95494000
21.69799805,-100.89910000
21.72851563,-93.94768000
21.75903320,-96.76939000
21.78955078,-98.74200000
21.82006836,-92.62755000
21.85058594,-90.69682000
21.88110352,-91.35598000
21.91162109,-93.65059000
21.94213867,-98.38956000
21.97265625,-103.21560000
22.00317383,-98.52898000
22.03369141,-94.78133000
22.06420898,-94.72123000
22.09472656,-102.09810000
22.12524414,-93.15764000
22.15576172,-87.53829000
22.18627930,-87.18711000
22.21679688,-91.62080000
22.24731445,-102.66340000
22.27783203,-103.93700000
22.30834961,-97.32667000
22.33886719,-91.76482000
22.36938477,-91.23531000
22.39990234,-96.29691000
22.43041992,-93.45929000
22.46093750,-89.02422000
22.49145508,-89.69002000
22.52197266,-92.67812000
22.55249023,-93.60526000
22.58300781,-97.26762000
22.61352539,-107.12040000
22.64404297,-94.69945000
22.67456055,-93.82041000
22.70507813,-99.69094000
22.73559570,-109.70590000
22.76611328,-96.89684000
22.79663086,-94.34186000
22.82714844,-96.91580000
22.85766602,-92.85970000
22.88818359,-89.48571000
22.91870117,-89.83833000
22.94921875,-93.34607000
22.97973633,-100.39010000
23.01025391,-99.14985000
23.04077148,-97.08636000
23.07128906,-97.68902000
23.10180664,-98.89739000
23.13232422,-95.45264000
23.16284180,-91.21822000
23.19335938,-91.83148000
23.22387695,-99.31686000
23.25439453,-97.49554000
23.28491211,-95.46638000
23.31542969,-91.79913000
23.34594727,-87.81994000
23.37646484,-87.07382000
23.40698242,-89.15635000
23.43750000,-94.38579000
23.46801758,-95.75627000
23.49853516,-90.74242000
23.52905273,-89.80900000
23.55957031,-92.39185000
23.59008789,-94.76417000
23.62060547,-91.97308000
23.65112305,-89.85786000
23.68164063,-90.07802000
23.71215820,-93.23624000
23.74267578,-95.92525000
23.77319336,-93.84756000
23.80371094,-92.60112000
23.83422852,-91.34727000
23.86474609,-91.00085000
23.89526367,-92.86060000
23.92578125,-97.53323000
23.95629883,-105.50650000
23.98681641,-118.30050000
24.01733398,-108.81260000
24.04785156,-103.75070000
24.07836914,-104.63010000
24.10888672,-100.15470000
24.13940430,-90.76935000
24.16992188,-86.90942000
24.20043945,-87.50354000
24.23095703,-92.98339000
24.26147461,-94.17568000
24.29199219,-91.55968000
24.32250977,-93.26373000
24.35302734,-96.85503000
24.38354492,-102.71590000
24.41406250,-104.46420000
24.44458008,-93.44292000
24.47509766,-89.46260000
24.50561523,-88.84750000
24.53613281,-91.68184000
24.56665039,-100.76360000
24.59716797,-107.36360000
24.62768555,-101.87050000
24.65820313,-102.37840000
24.68872070,-105.17930000
24.71923828,-99.43668000
24.74975586,-91.47575000
24.78027344,-88.65350000
24.81079102,-87.87570000
24.84130859,-86.35298000
24.87182617,-85.18520000
24.90234375,-85.69849000
24.93286133,-87.76338000
24.96337891,-90.88322000
24.99389648,-94.52609000
25.02441406,-97.96386000
25.05493164,-100.07810000
25.08544922,-100.41010000
25.11596680,-97.82803000
25.14648438,-93.83114000
25.17700195,-91.96609000
25.20751953,-93.27602000
25.23803711,-98.09657000
25.26855469,-105.20380000
25.29907227,-106.97430000
25.32958984,-103.11400000
25.36010742,-98.25452000
25.39062500,-93.82405000
25.42114258,-91.77402000
25.45166016,-93.43331000
25.48217773,-101.74320000
25.51269531,-101.81020000
25.54321289,-98.65630000
25.57373047,-103.02590000
25.60424805,-109.84600000
25.63476563,-94.61448000
25.66528320,-88.26564000
25.69580078,-85.70695000
25.72631836,-86.50780000
25.75683594,-90.38120000
25.78735352,-94.71572000
25.81787109,-95.85260000
25.84838867,-96.51202000
25.87890625,-97.66808000
25.90942383,-96.45618000
25.93994141,-96.71947000
25.97045898,-100.58800000
26.00097656,-106.27180000
26.03149414,-100.48130000
26.06201172,-93.58649000
26.09252930,-89.83037000
26.12304688,-87.13670000
26.15356445,-85.04913000
26.18408203,-84.88313000
26.21459961,-87.57338000
26.24511719,-94.00806000
26.27563477,-101.51840000
26.30615234,-96.51488000
26.33666992,-93.81418000
26.36718750,-93.29598000
26.39770508,-94.45689000
26.42822266,-96.40939000
26.45874023,-95.21956000
26.48925781,-91.29013000
26.51977539,-88.74679000
26.55029297,-89.36614000
26.58081055,-94.55241000
26.61132813,-111.75140000
26.64184570,-99.42681000
26.67236328,-94.86705000
26.70288086,-92.93686000
26.73339844,-95.19949000
26.76391602,-99.96703000
26.79443359,-94.72092000
26.82495117,-90.55299000
26.85546875,-88.88149000
26.88598633,-89.60275000
26.91650391,-91.74561000
26.94702148,-93.12836000
26.97753906,-92.78916000
27.00805664,-92.28677000
27.03857422,-93.54367000
27.06909180,-95.49350000
27.09960938,-93.04530000
27.13012695,-91.76662000
27.16064453,-93.43903000
27.19116211,-98.23635000
27.22167969,-105.55950000
27.25219727,-103.71840000
27.28271484,-106.00090000
27.31323242,-100.14300000
27.34375000,-92.05918000
27.37426758,-89.67948000
27.40478516,-91.46976000
27.43530273,-96.27539000
27.46582031,-95.81168000
27.49633789,-92.19514000
27.52685547,-91.17004000
27.55737305,-94.31634000
27.58789063,-105.67200000
27.61840820,-96.77342000
27.64892578,-91.74629000
27.67944336,-89.31305000
27.70996094,-88.37756000
27.74047852,-88.60732000
27.77099609,-89.61285000
27.80151367,-89.97249000
27.83203125,-89.00507000
27.86254883,-88.82446000
27.89306641,-90.34663000
27.92358398,-92.99303000
27.95410156,-95.56590000
27.98461914,-97.27448000
28.01513672,-98.29846000
28.04565430,-100.17120000
28.07617188,-99.54689000
28.10668945,-94.75594000
28.13720703,-92.91621000
28.16772461,-93.39889000
28.19824219,-94.48892000
28.22875977,-94.26807000
28.25927734,-92.03968000
28.28979492,-89.87172000
28.32031250,-89.45068000
28.35083008,-91.04176000
28.38134766,-93.95897000
28.41186523,-96.40461000
28.44238281,-97.56839000
28.47290039,-96.96857000
28.50341797,-93.23277000
28.53393555,-92.29637000
28.56445313,-97.26609000
28.59497070,-99.50410000
28.62548828,-92.72599000
28.65600586,-92.20870000
28.68652344,-94.00799000
28.71704102,-93.54492000
28.74755859,-92.33215000
28.77807617,-93.15475000
28.80859375,-97.43633000
28.83911133,-111.17840000
28.86962891,-97.35811000
28.90014648,-93.70462000
28.93066406,-94.93179000
28.96118164,-101.97730000
28.99169922,-105.81250000
29.02221680,-99.05532000
29.05273438,-97.39690000
29.08325195,-97.77281000
29.11376953,-102.25400000
29.14428711,-113.86670000
29.17480469,-100.31410000
29.20532227,-99.37649000
29.23583984,-101.04410000
29.26635742,-96.68982000
29.29687500,-93.42542000
29.32739258,-92.74377000
29.35791016,-94.36017000
29.38842773,-98.02331000
29.41894531,-99.03230000
29.44946289,-97.81716000
29.47998047,-100.70920000
29.51049805,-101.75020000
29.54101563,-95.53229000
29.57153320,-94.30576000
29.60205078,-98.44776000
29.63256836,-101.62470000
29.66308594,-94.29884000
29.69360352,-91.48109000
29.72412109,-90.89259000
29.75463867,-91.93513000
29.78515625,-94.10684000
29.81567383,-95.24433000
29.84619141,-93.11218000
29.87670898,-90.47012000
29.90722656,-89.85475000
29.93774414,-91.57858000
29.96826172,-93.62556000
29.99877930,-93.67546000
30.02929688,-95.17274000
30.05981445,-101.79360000
30.09033203,-118.86870000
30.12084961,-111.58320000
30.15136719,-104.46630000
30.18188477,-96.53015000
30.21240234,-94.76424000
30.24291992,-94.22125000
30.27343750,-92.36743000
30.30395508,-91.27214000
30.33447266,-91.57343000
30.36499023,-92.67853000
30.39550781,-93.58167000
30.42602539,-94.13696000
30.45654297,-97.15237000
30.48706055,-106.90360000
30.51757813,-93.38520000
30.54809570,-88.95081000
30.57861328,-88.64811000
30.60913086,-91.46011000
30.63964844,-96.41178000
30.67016602,-100.14830000
30.70068359,-99.66734000
30.73120117,-95.89383000
30.76171875,-93.47858000
30.79223633,-93.65876000
30.82275391,-96.65900000
30.85327148,-103.98670000
30.88378906,-102.56200000
30.91430664,-93.37258000
30.94482422,-90.01230000
30.97534180,-90.32056000
31.00585938,-93.11476000
31.03637695,-95.14008000
31.06689453,-94.48947000
31.09741211,-92.15687000
31.12792969,-90.06560000
31.15844727,-88.97377000
31.18896484,-88.46338000
31.21948242,-88.09211000
31.25000000,-87.96352000
31.28051758,-88.78213000
31.31103516,-90.98280000
31.34155273,-92.47970000
31.37207031,-90.70409000
31.40258789,-89.69199000
31.43310547,-91.61493000
31.46362305,-97.41298000
31.49414063,-101.74490000
31.52465820,-95.86775000
31.55517578,-92.36493000
31.58569336,-91.91576000
31.61621094,-93.51855000
31.64672852,-92.12009000
31.67724609,-89.18112000
31.70776367,-89.29260000
31.73828125,-93.29319000
31.76879883,-97.59717000
31.79931641,-97.01921000
31.82983398,-98.11166000
31.86035156,-97.22810000
31.89086914,-94.33253000
31.92138672,-91.68114000
31.95190430,-90.27916000
31.98242188,-91.12408000
32.01293945,-95.86231000
32.04345703,-106.20250000
32.07397461,-96.76234000
32.10449219,-93.63107000
32.13500977,-93.23140000
32.16552734,-93.68665000
32.19604492,-93.02742000
32.22656250,-93.33253000
32.25708008,-97.59266000
32.28759766,-109.22740000
32.31811523,-101.81050000
32.34863281,-93.80109000
32.37915039,-90.32104000
32.40966797,-90.34074000
32.44018555,-93.91521000
32.47070313,-107.70810000
32.50122070,-96.32999000
32.53173828,-90.22232000
32.56225586,-87.96031000
32.59277344,-87.47047000
32.62329102,-87.95001000
32.65380859,-89.23637000
32.68432617,-92.00960000
32.71484375,-96.89553000
32.74536133,-102.75940000
32.77587891,-107.07140000
32.80639648,-107.41650000
32.83691406,-113.19590000
32.86743164,-104.62220000
32.89794922,-102.69380000
32.92846680,-103.85700000
32.95898438,-99.84361000
32.98950195,-96.93076000
33.02001953,-94.77003000
33.05053711,-92.05278000
33.08105469,-90.08018000
33.11157227,-90.09003000
33.14208984,-92.75546000
33.17260742,-97.07660000
33.20312500,-94.46137000
33.23364258,-90.77328000
33.26416016,-89.37645000
33.29467773,-90.18424000
33.32519531,-92.00420000
33.35571289,-92.77947000
33.38623047,-94.69331000
33.41674805,-98.65829000
33.44726563,-100.36560000
33.47778320,-105.74630000
33.50830078,-111.47920000
33.53881836,-104.48470000
33.56933594,-112.12890000
33.59985352,-101.20640000
33.63037109,-96.15919000
33.66088867,-94.76830000
33.69140625,-94.17856000
33.72192383,-93.69850000
33.75244141,-93.42169000
33.78295898,-93.64203000
33.81347656,-95.78418000
33.84399414,-104.36590000
33.87451172,-100.92510000
33.90502930,-94.74498000
33.93554688,-94.74770000
33.96606445,-99.33681000
33.99658203,-101.10280000
34.02709961,-99.07335000
34.05761719,-101.49330000
34.08813477,-97.94769000
34.11865234,-94.18774000
34.14916992,-93.79956000
34.17968750,-93.58402000
34.21020508,-92.25133000
34.24072266,-92.77663000
34.27124023,-96.26636000
34.30175781,-103.17610000
34.33227539,-110.12540000
34.36279297,-109.96320000
34.39331055,-105.55150000
34.42382813,-99.26910000
34.45434570,-97.61726000
34.48486328,-101.54660000
34.51538086,-98.81895000
34.54589844,-92.96513000
34.57641602,-92.88446000
34.60693359,-97.12127000
34.63745117,-94.97436000
34.66796875,-93.31135000
34.69848633,-97.13617000
34.72900391,-107.97200000
34.75952148,-101.46930000
34.79003906,-101.90290000
34.82055664,-105.22390000
34.85107422,-95.35315000
34.88159180,-91.11151000
34.91210938,-90.47326000
34.94262695,-92.90966000
34.97314453,-96.01697000
35.00366211,-92.44320000
35.03417969,-90.04414000
35.06469727,-90.37131000
35.09521484,-92.75858000
35.12573242,-96.36407000
35.15625000,-96.83028000
35.18676758,-94.69983000
35.21728516,-94.10300000
35.24780273,-95.00766000
35.27832031,-98.54240000
35.30883789,-100.02440000
35.33935547,-95.39809000
35.36987305,-94.80600000
35.40039063,-99.27197000
35.43090820,-111.34900000
35.46142578,-98.76024000
35.49194336,-93.82207000
35.52246094,-91.05400000
35.55297852,-91.36186000
35.58349609,-95.76987000
35.61401367,-98.41142000
35.64453125,-96.40527000
35.67504883,-98.54301000
35.70556641,-98.95737000
35.73608398,-96.53029000
35.76660156,-95.01033000
35.79711914,-95.64233000
35.82763672,-100.36850000
35.85815430,-104.31810000
35.88867188,-97.70939000
35.91918945,-94.54220000
35.94970703,-93.28101000
35.98022461,-93.88599000
36.01074219,-98.76712000
36.04125977,-112.38150000
36.07177734,-97.41459000
36.10229492,-95.52283000
36.13281250,-96.95699000
36.16333008,-102.12430000
36.19384766,-101.73640000
36.22436523,-97.10817000
36.25488281,-97.25481000
36.28540039,-100.00480000
36.31591797,-101.51210000
36.34643555,-100.66200000
36.37695313,-101.66920000
36.40747070,-107.50940000
36.43798828,-103.87000000
36.46850586,-95.87280000
36.49902344,-93.51733000
36.52954102,-95.20730000
36.56005859,-100.15690000
36.59057617,-107.30090000
36.62109375,-104.75810000
36.65161133,-95.69798000
36.68212891,-93.70995000
36.71264648,-95.33833000
36.74316406,-98.78015000
36.77368164,-99.29298000
36.80419922,-96.70409000
36.83471680,-95.65817000
36.86523438,-96.25681000
36.89575195,-96.18003000
36.92626953,-96.04916000
36.95678711,-97.27367000
36.98730469,-98.74188000
37.01782227,-100.39350000
37.04833984,-98.60950000
37.07885742,-94.15221000
37.10937500,-92.41988000
37.13989258,-93.89905000
37.17041016,-96.71718000
37.20092773,-94.50776000
37.23144531,-92.48512000
37.26196289,-93.01604000
37.29248047,-95.70472000
37.32299805,-100.04930000
37.35351563,-106.51240000
37.38403320,-103.25120000
37.41455078,-96.86218000
37.44506836,-93.93243000
37.47558594,-93.15056000
37.50610352,-94.06638000
37.53662109,-95.99440000
37.56713867,-97.35603000
37.59765625,-99.47897000
37.62817383,-104.84230000
37.65869141,-102.08550000
37.68920898,-97.39743000
37.71972656,-95.19393000
37.75024414,-95.39574000
37.78076172,-96.81297000
37.81127930,-96.70840000
37.84179688,-95.38998000
37.87231445,-94.60283000
37.90283203,-97.16697000
37.93334961,-107.85140000
37.96386719,-101.45070000
37.99438477,-99.63870000
38.02490234,-105.69800000
38.05541992,-102.56900000
38.08593750,-96.84375000
38.11645508,-95.27438000
38.14697266,-94.48376000
38.17749023,-92.65398000
38.20800781,-90.83830000
38.23852539,-90.89249000
38.26904297,-95.45477000
38.29956055,-107.66260000
38.33007813,-93.02533000
38.36059570,-91.54300000
38.39111328,-94.22570000
38.42163086,-96.46920000
38.45214844,-96.29970000
38.48266602,-96.31830000
38.51318359,-96.02447000
38.54370117,-96.36185000
38.57421875,-99.67737000
38.60473633,-113.38010000
38.63525391,-105.08950000
38.66577148,-101.88290000
38.69628906,-103.01070000
38.72680664,-99.41440000
38.75732422,-98.28643000
38.78784180,-100.15090000
38.81835938,-97.12012000
38.84887695,-92.93736000
38.87939453,-90.37012000
38.90991211,-89.24603000
38.94042969,-89.81699000
38.97094727,-91.43488000
39.00146484,-90.70912000
39.03198242,-89.10201000
39.06250000,-89.68295000
39.09301758,-91.21532000
39.12353516,-92.06935000
39.15405273,-96.01398000
39.18457031,-105.73520000
39.21508789,-95.94048000
39.24560547,-91.60849000
39.27612305,-88.99276000
39.30664063,-88.15172000
39.33715820,-89.04140000
39.36767578,-88.41445000
39.39819336,-86.41727000
39.42871094,-86.76445000
39.45922852,-90.78232000
39.48974609,-99.26427000
39.52026367,-104.26830000
39.55078125,-124.21050000
39.58129883,-103.18450000
39.61181641,-99.42535000
39.64233398,-95.61325000
39.67285156,-93.47047000
39.70336914,-93.63759000
39.73388672,-94.23169000
39.76440430,-93.87109000
39.79492188,-93.97205000
39.82543945,-99.25431000
39.85595703,-103.47580000
39.88647461,-93.14320000
39.91699219,-91.20457000
39.94750977,-92.23782000
39.97802734,-95.10675000
40.00854492,-97.34816000
40.03906250,-97.97350000
40.06958008,-98.64975000
40.10009766,-97.92844000
40.13061523,-96.54790000
40.16113281,-94.09557000
40.19165039,-91.09215000
40.22216797,-89.30267000
40.25268555,-89.58171000
40.28320313,-91.93795000
40.31372070,-91.71070000
40.34423828,-89.34789000
40.37475586,-89.69339000
40.40527344,-92.67870000
40.43579102,-95.85526000
40.46630859,-95.58974000
40.49682617,-93.69130000
40.52734375,-92.48653000
40.55786133,-91.46046000
40.58837891,-90.14162000
40.61889648,-89.38821000
40.64941406,-91.17443000
40.67993164,-97.78482000
40.71044922,-99.30214000
40.74096680,-100.45150000
40.77148438,-113.70250000
40.80200195,-103.21890000
40.83251953,-94.89384000
40.86303711,-88.31847000
40.89355469,-86.26442000
40.92407227,-86.79613000
40.95458984,-86.80363000
40.98510742,-85.14882000
41.01562500,-84.73405000
41.04614258,-87.10634000
41.07666016,-92.28000000
41.10717773,-96.88666000
41.13769531,-96.02383000
41.16821289,-92.49715000
41.19873047,-89.87392000
41.22924805,-88.67320000
41.25976563,-87.58638000
41.29028320,-85.88263000
41.32080078,-84.95364000
41.35131836,-85.83073000
41.38183594,-88.04665000
41.41235352,-89.76695000
41.44287109,-92.01672000
41.47338867,-95.18507000
41.50390625,-91.37926000
41.53442383,-88.42361000
41.56494141,-88.47929000
41.59545898,-91.05404000
41.62597656,-93.11738000
41.65649414,-92.29816000
41.68701172,-94.53017000
41.71752930,-95.28797000
41.74804688,-90.05453000
41.77856445,-88.74019000
41.80908203,-89.22428000
41.83959961,-88.89960000
41.87011719,-89.43280000
41.90063477,-94.24355000
41.93115234,-106.94150000
41.96166992,-94.49362000
41.99218750,-91.89388000
42.02270508,-91.31557000
42.05322266,-91.05064000
42.08374023,-89.95975000
42.11425781,-88.63187000
42.14477539,-88.89672000
42.17529297,-90.55826000
42.20581055,-93.82107000
42.23632813,-91.94029000
42.26684570,-86.29505000
42.29736328,-84.69220000
42.32788086,-86.45760000
42.35839844,-90.12336000
42.38891602,-90.55886000
42.41943359,-89.07775000
42.44995117,-87.94356000
42.48046875,-86.35719000
42.51098633,-84.66020000
42.54150391,-84.00168000
42.57202148,-85.11272000
42.60253906,-88.34675000
42.63305664,-92.21815000
42.66357422,-91.48690000
42.69409180,-91.36485000
42.72460938,-95.80140000
42.75512695,-103.80310000
42.78564453,-101.22240000
42.81616211,-90.13687000
42.84667969,-84.28416000
42.87719727,-82.33566000
42.90771484,-83.26602000
42.93823242,-87.09586000
42.96875000,-93.46648000
42.99926758,-90.21748000
43.02978516,-88.22710000
43.06030273,-90.49252000
43.09082031,-92.77699000
43.12133789,-89.37273000
43.15185547,-84.75608000
43.18237305,-82.20360000
43.21289063,-82.65181000
43.24340820,-86.22962000
43.27392578,-93.65897000
43.30444336,-105.19210000
43.33496094,-94.08382000
43.36547852,-89.93262000
43.39599609,-89.09706000
43.42651367,-89.89475000
43.45703125,-90.27942000
43.48754883,-88.22421000
43.51806641,-85.97034000
43.54858398,-86.96729000
43.57910156,-93.70709000
43.60961914,-100.74520000
43.64013672,-89.24684000
43.67065430,-85.37761000
43.70117188,-84.20238000
43.73168945,-85.67127000
43.76220703,-89.91561000
43.79272461,-94.65488000
43.82324219,-94.32377000
43.85375977,-92.27172000
43.88427734,-93.42288000
43.91479492,-100.65130000
43.94531250,-95.28951000
43.97583008,-89.70856000
44.00634766,-87.90977000
44.03686523,-87.85226000
44.06738281,-87.67892000
44.09790039,-86.69888000
44.12841797,-86.07797000
44.15893555,-86.29859000
44.18945313,-87.77219000
44.21997070,-92.18163000
44.25048828,-99.70132000
44.28100586,-91.87566000
44.31152344,-88.45550000
44.34204102,-87.58788000
44.37255859,-88.42764000
44.40307617,-90.75512000
44.43359375,-92.81022000
44.46411133,-92.99672000
44.49462891,-90.34695000
44.52514648,-87.90048000
44.55566406,-87.77730000
44.58618164,-90.15315000
44.61669922,-95.70815000
44.64721680,-95.19582000
44.67773438,-89.09926000
44.70825195,-87.08198000
44.73876953,-88.61607000
44.76928711,-93.14017000
44.79980469,-94.32251000
44.83032227,-92.35806000
44.86083984,-92.01521000
44.89135742,-93.36598000
44.92187500,-95.02189000
44.95239258,-95.77470000
44.98291016,-94.65127000
45.01342773,-91.97335000
45.04394531,-90.79993000
45.07446289,-91.64188000
45.10498047,-92.54039000
45.13549805,-90.75379000
45.16601563,-88.05801000
45.19653320,-87.20694000
45.22705078,-89.18881000
45.25756836,-94.56296000
45.28808594,-102.81820000
45.31860352,-100.21270000
45.34912109,-95.03159000
45.37963867,-92.28819000
45.41015625,-92.13582000
45.44067383,-93.68710000
45.47119141,-95.25613000
45.50170898,-95.39723000
45.53222656,-94.82738000
45.56274414,-95.62888000
45.59326172,-99.52499000
45.62377930,-125.24100000
45.65429688,-96.29573000
45.68481445,-90.66440000
45.71533203,-90.48993000
45.74584961,-95.38861000
45.77636719,-97.05550000
45.80688477,-95.98055000
45.83740234,-98.79493000
45.86791992,-97.10824000
45.89843750,-95.66484000
45.92895508,-92.78396000
45.95947266,-89.53350000
45.98999023,-88.08495000
46.02050781,-88.38356000
46.05102539,-90.22355000
46.08154297,-93.70480000
46.11206055,-100.71330000
46.14257813,-98.24690000
46.17309570,-94.16223000
46.20361328,-96.30338000
46.23413086,-108.92740000
46.26464844,-99.68430000
46.29516602,-93.86040000
46.32568359,-90.96589000
46.35620117,-89.64523000
46.38671875,-90.25371000
46.41723633,-92.68935000
46.44775391,-93.53603000
46.47827148,-92.80155000
46.50878906,-93.98558000
46.53930664,-97.02668000
46.56982422,-97.96058000
46.60034180,-97.26478000
46.63085938,-102.68750000
46.66137695,-96.47317000
46.69189453,-89.78263000
46.72241211,-88.39598000
46.75292969,-89.81182000
46.78344727,-91.44884000
46.81396484,-91.03592000
46.84448242,-90.06698000
46.87500000,-90.83922000
46.90551758,-93.89354000
46.93603516,-101.53820000
46.96655273,-102.21970000
46.99707031,-92.44769000
47.02758789,-89.86375000
47.05810547,-90.78604000
47.08862305,-94.60776000
47.11914063,-100.88580000
47.14965820,-106.30460000
47.18017578,-106.15960000
47.21069336,-105.39730000
47.24121094,-105.35230000
47.27172852,-102.69220000
47.30224609,-96.10793000
47.33276367,-92.20310000
47.36328125,-91.41039000
47.39379883,-93.15624000
47.42431641,-96.31403000
47.45483398,-97.50245000
47.48535156,-96.02108000
47.51586914,-95.90872000
47.54638672,-98.15285000
47.57690430,-99.46068000
47.60742188,-97.55482000
47.63793945,-96.28651000
47.66845703,-96.38069000
47.69897461,-98.51447000
47.72949219,-104.38290000
47.76000977,-114.16730000
47.79052734,-112.72520000
47.82104492,-110.47420000
47.85156250,-106.90860000
47.88208008,-106.89990000
47.91259766,-105.47260000
47.94311523,-100.89310000
47.97363281,-96.36237000
48.00415039,-92.83966000
48.03466797,-90.91788000
48.06518555,-90.45097000
48.09570313,-90.84106000
48.12622070,-91.19751000
48.15673828,-91.56485000
48.18725586,-93.49855000
48.21777344,-99.42471000
48.24829102,-120.75780000
48.27880859,-100.96160000
48.30932617,-96.68629000
48.33984375,-95.03633000
48.37036133,-95.83421000
48.40087891,-97.92165000
48.43139648,-96.30814000
48.46191406,-94.07967000
48.49243164,-93.23105000
48.52294922,-93.15913000
48.55346680,-93.70683000
48.58398438,-94.49741000
48.61450195,-95.96606000
48.64501953,-100.96290000
48.67553711,-97.51857000
48.70605469,-93.31668000
48.73657227,-96.37138000
48.76708984,-101.55160000
48.79760742,-91.03168000
48.82812500,-88.27544000
48.85864258,-88.70282000
48.88916016,-91.15131000
48.91967773,-94.49283000
48.95019531,-95.61973000
48.98071289,-93.02812000
49.01123047,-90.55540000
49.04174805,-90.15186000
49.07226563,-92.01291000
49.10278320,-96.21479000
49.13330078,-101.88240000
49.16381836,-98.19415000
49.19433594,-94.41372000
49.22485352,-92.79056000
49.25537109,-91.32583000
49.28588867,-89.06907000
49.31640625,-87.08817000
49.34692383,-86.80081000
49.37744141,-89.44442000
49.40795898,-96.39317000
49.43847656,-94.52789000
49.46899414,-91.11816000
49.49951172,-91.09505000
49.53002930,-92.29229000
49.56054688,-92.94745000
49.59106445,-92.23057000
49.62158203,-90.23945000
49.65209961,-88.01866000
49.68261719,-86.64448000
49.71313477,-86.43491000
49.74365234,-87.05923000
49.77416992,-88.10472000
49.80468750,-89.96753000
49.83520508,-94.28845000
49.86572266,-101.28580000
49.89624023,-98.97852000
49.92675781,-97.75333000
49.95727539,-94.64471000
49.98779297,-89.61330000
50.01831055,-86.63720000
