Frequency,Channel A
(MHz),(dBu)

0.00000000,-27.33099000
0.03051758,-27.65031000
0.06103516,-32.72211000
0.09155273,-42.60234000
0.12207031,-68.17870000
0.15258789,-65.11138000
0.18310547,-77.46438000
0.21362305,-64.72014000
0.24414063,-64.00570000
0.27465820,-66.23818000
0.30517578,-62.99786000
0.33569336,-60.42839000
0.36621094,-55.77258000
0.39672852,-52.22122000
0.42724609,-51.48268000
0.45776367,-53.40590000
0.48828125,-55.57743000
0.51879883,-54.18744000
0.54931641,-55.34214000
0.57983398,-58.95572000
0.61035156,-46.41172000
0.64086914,-42.15393000
0.67138672,-42.28159000
0.70190430,-46.14494000
0.73242188,-53.33208000
0.76293945,-60.47532000
0.79345703,-68.25007000
0.82397461,-67.93683000
0.85449219,-65.39465000
0.88500977,-69.18971000
0.91552734,-68.46865000
0.94604492,-59.38591000
0.97656250,-56.21088000
1.00708008,-56.87872000
1.03759766,-61.33633000
1.06811523,-69.01190000
1.09863281,-75.34851000
1.12915039,-80.77098000
1.15966797,-73.48060000
1.19018555,-75.03947000
1.22070313,-94.49165000
1.25122070,-77.72617000
1.28173828,-76.04865000
1.31225586,-72.37242000
1.34277344,-68.60096000
1.37329102,-69.20558000
1.40380859,-73.14259000
1.43432617,-77.03492000
1.46484375,-74.31177000
1.49536133,-70.32727000
1.52587891,-70.80168000
1.55639648,-75.27170000
1.58691406,-67.98259000
1.61743164,-66.63596000
1.64794922,-71.75797000
1.67846680,-68.66896000
1.70898438,-66.03978000
1.73950195,-66.32016000
1.77001953,-65.04778000
1.80053711,-64.16120000
1.83105469,-64.54082000
1.86157227,-66.61234000
1.89208984,-71.88188000
1.92260742,-75.89027000
1.95312500,-74.72592000
1.98364258,-77.54688000
2.01416016,-79.33096000
2.04467773,-75.60624000
2.07519531,-71.83385000
2.10571289,-70.49190000
2.13623047,-69.56673000
2.16674805,-69.35439000
2.19726563,-72.27702000
2.22778320,-74.26780000
2.25830078,-71.41402000
2.28881836,-71.28874000
2.31933594,-73.78845000
2.34985352,-76.67584000
2.38037109,-75.61286000
2.41088867,-76.55283000
2.44140625,-78.05473000
2.47192383,-76.25371000
2.50244141,-78.87552000
2.53295898,-80.77682000
2.56347656,-76.09422000
2.59399414,-76.26149000
2.62451172,-81.94221000
2.65502930,-78.17200000
2.68554688,-75.79371000
2.71606445,-80.80388000
2.74658203,-80.91438000
2.77709961,-77.97636000
2.80761719,-79.68517000
2.83813477,-76.20222000
2.86865234,-80.92462000
2.89916992,-80.04261000
2.92968750,-74.23971000
2.96020508,-85.83528000
2.99072266,-73.82992000
3.02124023,-69.59113000
3.05175781,-71.26521000
3.08227539,-75.63525000
3.11279297,-75.28159000
3.14331055,-71.74242000
3.17382813,-72.34850000
3.20434570,-79.98289000
3.23486328,-78.20778000
3.26538086,-73.75135000
3.29589844,-76.06697000
3.32641602,-84.59725000
3.35693359,-73.96850000
3.38745117,-71.62256000
3.41796875,-75.23959000
3.44848633,-80.58542000
3.47900391,-76.03928000
3.50952148,-79.76961000
3.54003906,-80.55574000
3.57055664,-71.16620000
3.60107422,-71.25790000
3.63159180,-78.87875000
3.66210938,-79.24612000
3.69262695,-78.09456000
3.72314453,-84.69985000
3.75366211,-82.54100000
3.78417969,-82.03320000
3.81469727,-76.29880000
3.84521484,-73.16305000
3.87573242,-77.80573000
3.90625000,-85.00597000
3.93676758,-76.04069000
3.96728516,-77.23290000
3.99780273,-87.67887000
4.02832031,-77.10217000
4.05883789,-73.88026000
4.08935547,-75.41173000
4.11987305,-73.87292000
4.15039063,-78.70580000
4.18090820,-78.05670000
4.21142578,-70.77493000
4.24194336,-72.41975000
4.27246094,-80.78653000
4.30297852,-81.47285000
4.33349609,-78.88847000
4.36401367,-77.99504000
4.39453125,-73.35890000
4.42504883,-70.23138000
4.45556641,-71.36272000
4.48608398,-77.95836000
4.51660156,-109.81780000
4.54711914,-93.53017000
4.57763672,-80.36835000
4.60815430,-73.46293000
4.63867188,-72.46761000
4.66918945,-75.75072000
4.69970703,-82.97652000
4.73022461,-77.25836000
4.76074219,-76.66729000
4.79125977,-84.93402000
4.82177734,-86.90644000
4.85229492,-83.44762000
4.88281250,-86.81306000
4.91333008,-81.28009000
4.94384766,-77.67922000
4.97436523,-77.54134000
5.00488281,-77.66887000
5.03540039,-80.17483000
5.06591797,-82.16325000
5.09643555,-79.53664000
5.12695313,-87.42473000
5.15747070,-80.54976000
5.18798828,-74.37431000
5.21850586,-72.74406000
5.24902344,-73.29573000
5.27954102,-76.11330000
5.31005859,-79.84609000
5.34057617,-80.75665000
5.37109375,-80.63612000
5.40161133,-81.78867000
5.43212891,-82.05184000
5.46264648,-78.84869000
5.49316406,-76.41164000
5.52368164,-75.06005000
5.55419922,-74.56824000
5.58471680,-73.91127000
5.61523438,-73.05017000
5.64575195,-74.58558000
5.67626953,-80.07682000
5.70678711,-84.98444000
5.73730469,-89.08957000
5.76782227,-80.92874000
5.79833984,-73.88400000
5.82885742,-71.30431000
5.85937500,-71.14716000
5.88989258,-72.41237000
5.92041016,-73.89722000
5.95092773,-75.71847000
5.98144531,-78.55149000
6.01196289,-74.96329000
6.04248047,-72.63280000
6.07299805,-72.36822000
6.10351563,-72.98524000
6.13403320,-73.96750000
6.16455078,-73.56620000
6.19506836,-73.80417000
6.22558594,-76.08504000
6.25610352,-78.53616000
6.28662109,-77.21040000
6.31713867,-75.51131000
6.34765625,-74.06139000
6.37817383,-72.79530000
6.40869141,-72.58941000
6.43920898,-73.30344000
6.46972656,-75.59653000
6.50024414,-80.56927000
6.53076172,-87.79321000
6.56127930,-86.25207000
6.59179688,-80.09360000
6.62231445,-75.96174000
6.65283203,-73.79243000
6.68334961,-74.05244000
6.71386719,-76.60027000
6.74438477,-78.25912000
6.77490234,-76.56463000
6.80541992,-75.83859000
6.83593750,-77.62120000
6.86645508,-81.48602000
6.89697266,-81.65451000
6.92749023,-81.53978000
6.95800781,-81.64250000
6.98852539,-78.81149000
7.01904297,-77.60747000
7.04956055,-78.19476000
7.08007813,-79.92191000
7.11059570,-82.79201000
7.14111328,-83.85764000
7.17163086,-81.08407000
7.20214844,-79.80165000
7.23266602,-80.97952000
7.26318359,-85.06794000
7.29370117,-91.07272000
7.32421875,-87.13367000
7.35473633,-85.78045000
7.38525391,-84.35973000
7.41577148,-82.49905000
7.44628906,-83.18251000
7.47680664,-86.03813000
7.50732422,-89.83727000
7.53784180,-94.46868000
7.56835938,-99.33867000
7.59887695,-96.08376000
7.62939453,-90.40924000
7.65991211,-93.52379000
7.69042969,-95.31401000
7.72094727,-84.97658000
7.75146484,-83.13686000
7.78198242,-83.05389000
7.81250000,-83.13141000
7.84301758,-88.30326000
7.87353516,-93.14083000
7.90405273,-85.63632000
7.93457031,-87.69952000
7.96508789,-88.10856000
7.99560547,-84.13023000
8.02612305,-83.53123000
8.05664063,-85.29730000
8.08715820,-92.43736000
8.11767578,-93.57945000
8.14819336,-88.31694000
8.17871094,-90.23563000
8.20922852,-92.99666000
8.23974609,-94.68158000
8.27026367,-88.92205000
8.30078125,-84.02495000
8.33129883,-83.40936000
8.36181641,-86.04186000
8.39233398,-86.43723000
8.42285156,-84.09244000
8.45336914,-83.52164000
8.48388672,-83.86824000
8.51440430,-84.62780000
8.54492188,-87.37919000
8.57543945,-93.20975000
8.60595703,-89.25291000
8.63647461,-88.05376000
8.66699219,-94.69665000
8.69750977,-92.70741000
8.72802734,-86.14737000
8.75854492,-84.78284000
8.78906250,-86.00224000
8.81958008,-88.23670000
8.85009766,-89.12486000
8.88061523,-89.33302000
8.91113281,-89.32161000
8.94165039,-87.44945000
8.97216797,-85.06440000
9.00268555,-83.74190000
9.03320313,-83.28937000
9.06372070,-82.84505000
9.09423828,-83.14156000
9.12475586,-85.45190000
9.15527344,-90.30761000
9.18579102,-97.06127000
9.21630859,-97.95921000
9.24682617,-95.40054000
9.27734375,-90.26196000
9.30786133,-86.32559000
9.33837891,-85.38225000
9.36889648,-87.05937000
9.39941406,-91.56562000
9.42993164,-93.78673000
9.46044922,-87.82456000
9.49096680,-85.03642000
9.52148438,-84.58396000
9.55200195,-85.86436000
9.58251953,-87.25410000
9.61303711,-86.07121000
9.64355469,-84.96574000
9.67407227,-85.81317000
9.70458984,-88.35629000
9.73510742,-87.29457000
9.76562500,-82.87701000
9.79614258,-80.70337000
9.82666016,-80.88289000
9.85717773,-82.62550000
9.88769531,-83.72216000
9.91821289,-82.25524000
9.94873047,-81.21741000
9.97924805,-81.74896000
10.00976563,-81.88400000
10.04028320,-81.48103000
10.07080078,-82.36610000
10.10131836,-82.62356000
10.13183594,-80.77681000
10.16235352,-79.53136000
10.19287109,-80.95295000
10.22338867,-86.19081000
10.25390625,-87.55125000
10.28442383,-86.33643000
10.31494141,-91.55458000
10.34545898,-91.47465000
10.37597656,-84.14642000
10.40649414,-82.61234000
10.43701172,-82.57450000
10.46752930,-81.64993000
10.49804688,-81.26329000
10.52856445,-80.90245000
10.55908203,-79.62885000
10.58959961,-79.34872000
10.62011719,-81.95565000
10.65063477,-92.98714000
10.68115234,-87.01615000
10.71166992,-80.64206000
10.74218750,-79.05434000
10.77270508,-79.04652000
10.80322266,-79.91416000
10.83374023,-81.33179000
10.86425781,-82.57661000
10.89477539,-85.53621000
10.92529297,-87.10892000
10.95581055,-82.65301000
10.98632813,-81.49482000
11.01684570,-84.48242000
11.04736328,-88.18118000
11.07788086,-81.18560000
11.10839844,-77.22678000
11.13891602,-75.37392000
11.16943359,-74.24619000
11.19995117,-73.90813000
11.23046875,-75.61332000
11.26098633,-80.69505000
11.29150391,-86.58775000
11.32202148,-83.91969000
11.35253906,-84.39652000
11.38305664,-89.00453000
11.41357422,-96.49064000
11.44409180,-92.03899000
11.47460938,-80.66287000
11.50512695,-76.86980000
11.53564453,-76.87215000
11.56616211,-79.43266000
11.59667969,-82.75536000
11.62719727,-81.64063000
11.65771484,-79.18076000
11.68823242,-79.47643000
11.71875000,-81.57722000
11.74926758,-79.35383000
11.77978516,-74.56155000
11.81030273,-71.63950000
11.84082031,-71.82505000
11.87133789,-76.11223000
11.90185547,-86.06880000
11.93237305,-88.61064000
11.96289063,-97.18817000
11.99340820,-83.71678000
12.02392578,-79.82577000
12.05444336,-78.82338000
12.08496094,-79.21888000
12.11547852,-79.06584000
12.14599609,-76.97491000
12.17651367,-76.47380000
12.20703125,-77.60089000
12.23754883,-78.94765000
12.26806641,-82.12341000
12.29858398,-88.38725000
12.32910156,-91.22771000
12.35961914,-88.07636000
12.39013672,-82.77452000
12.42065430,-79.90655000
12.45117188,-80.73540000
12.48168945,-90.78215000
12.51220703,-83.15051000
12.54272461,-76.63268000
12.57324219,-75.25971000
12.60375977,-76.96441000
12.63427734,-82.44090000
12.66479492,-88.37605000
12.69531250,-83.13138000
12.72583008,-82.62309000
12.75634766,-86.22891000
12.78686523,-107.05990000
12.81738281,-82.78327000
12.84790039,-78.33018000
12.87841797,-78.43133000
12.90893555,-82.40677000
12.93945313,-94.25567000
12.96997070,-93.31467000
13.00048828,-89.87484000
13.03100586,-91.94556000
13.06152344,-86.09834000
13.09204102,-81.90158000
13.12255859,-78.92519000
13.15307617,-75.06965000
13.18359375,-72.55911000
13.21411133,-72.46961000
13.24462891,-74.22595000
13.27514648,-76.32156000
13.30566406,-78.20506000
13.33618164,-81.17738000
13.36669922,-87.22507000
13.39721680,-84.33342000
13.42773438,-79.11510000
13.45825195,-79.37065000
13.48876953,-86.84143000
13.51928711,-71.43201000
13.54980469,-66.34354000
13.58032227,-65.53030000
13.61083984,-67.64709000
13.64135742,-71.71633000
13.67187500,-77.97286000
13.70239258,-94.04288000
13.73291016,-79.91405000
13.76342773,-76.37183000
13.79394531,-77.28289000
13.82446289,-81.38139000
13.85498047,-80.71790000
13.88549805,-79.51493000
13.91601563,-80.93277000
13.94653320,-82.83051000
13.97705078,-86.98477000
14.00756836,-86.07673000
14.03808594,-82.76540000
14.06860352,-84.52324000
14.09912109,-85.33349000
14.12963867,-82.55832000
14.16015625,-81.47419000
14.19067383,-79.95073000
14.22119141,-77.72430000
14.25170898,-76.26630000
14.28222656,-75.42281000
14.31274414,-74.59438000
14.34326172,-75.18500000
14.37377930,-78.59811000
14.40429688,-83.67989000
14.43481445,-82.72388000
14.46533203,-82.04570000
14.49584961,-84.50219000
14.52636719,-89.28117000
14.55688477,-87.82394000
14.58740234,-84.00893000
14.61791992,-82.92571000
14.64843750,-84.29265000
14.67895508,-88.66292000
14.70947266,-88.81641000
14.73999023,-82.41036000
14.77050781,-78.35221000
14.80102539,-76.49497000
14.83154297,-77.02897000
14.86206055,-79.71044000
14.89257813,-84.24988000
14.92309570,-90.99010000
14.95361328,-85.76427000
14.98413086,-84.53568000
15.01464844,-92.16908000
15.04516602,-90.27859000
15.07568359,-82.87082000
15.10620117,-81.85867000
15.13671875,-85.01121000
15.16723633,-99.56112000
15.19775391,-81.43767000
15.22827148,-76.50739000
15.25878906,-75.38454000
15.28930664,-77.04929000
15.31982422,-81.49963000
15.35034180,-83.36240000
15.38085938,-83.36728000
15.41137695,-87.94910000
15.44189453,-96.14806000
15.47241211,-97.55470000
15.50292969,-90.63351000
15.53344727,-90.13111000
15.56396484,-92.21493000
15.59448242,-85.84691000
15.62500000,-81.48754000
15.65551758,-80.22046000
15.68603516,-80.69217000
15.71655273,-83.34912000
15.74707031,-94.57965000
15.77758789,-89.57629000
15.80810547,-85.49458000
15.83862305,-88.30013000
15.86914063,-89.79679000
15.89965820,-89.42160000
15.93017578,-91.45908000
15.96069336,-85.38125000
15.99121094,-83.97054000
16.02172852,-89.70213000
16.05224609,-87.67532000
16.08276367,-82.26311000
16.11328125,-81.89461000
16.14379883,-84.60397000
16.17431641,-88.94451000
16.20483398,-89.46059000
16.23535156,-92.22932000
16.26586914,-100.45960000
16.29638672,-99.32825000
16.32690430,-97.33437000
16.35742188,-87.29932000
16.38793945,-84.49504000
16.41845703,-85.88272000
16.44897461,-90.89158000
16.47949219,-96.01561000
16.51000977,-94.49357000
16.54052734,-96.29594000
16.57104492,-101.57160000
16.60156250,-89.53049000
16.63208008,-86.33007000
16.66259766,-86.27488000
16.69311523,-88.95183000
16.72363281,-98.28119000
16.75415039,-101.83440000
16.78466797,-99.94701000
16.81518555,-108.86920000
16.84570313,-101.92970000
16.87622070,-110.79100000
16.90673828,-94.58894000
16.93725586,-90.89359000
16.96777344,-93.02690000
16.99829102,-96.16461000
17.02880859,-93.56017000
17.05932617,-92.99125000
17.08984375,-91.57878000
17.12036133,-91.57933000
17.15087891,-95.79045000
17.18139648,-106.11380000
17.21191406,-92.91982000
17.24243164,-91.15067000
17.27294922,-93.37373000
17.30346680,-91.77123000
17.33398438,-90.66179000
17.36450195,-92.47193000
17.39501953,-94.58482000
17.42553711,-95.58638000
17.45605469,-98.12675000
17.48657227,-98.14819000
17.51708984,-95.94618000
17.54760742,-96.50124000
17.57812500,-95.38171000
17.60864258,-91.33212000
17.63916016,-89.11000000
17.66967773,-83.93033000
17.70019531,-79.20609000
17.73071289,-77.09981000
17.76123047,-77.48956000
17.79174805,-80.27528000
17.82226563,-85.54941000
17.85278320,-93.40468000
17.88330078,-99.49117000
17.91381836,-95.73898000
17.94433594,-93.46161000
17.97485352,-93.85634000
18.00537109,-97.45613000
18.03588867,-106.59380000
18.06640625,-107.53320000
18.09692383,-102.80070000
18.12744141,-99.90208000
18.15795898,-98.23173000
18.18847656,-97.23613000
18.21899414,-95.90939000
18.24951172,-94.81469000
18.28002930,-95.37936000
18.31054688,-98.98291000
18.34106445,-102.71290000
18.37158203,-99.48689000
18.40209961,-100.97430000
18.43261719,-103.45560000
18.46313477,-98.07300000
18.49365234,-96.96198000
18.52416992,-98.34602000
18.55468750,-98.53523000
18.58520508,-98.09200000
18.61572266,-99.09212000
18.64624023,-101.99240000
18.67675781,-108.93610000
18.70727539,-103.46650000
18.73779297,-97.92350000
18.76831055,-96.96949000
18.79882813,-99.05460000
18.82934570,-102.12310000
18.85986328,-101.95150000
18.89038086,-99.45265000
18.92089844,-97.52248000
18.95141602,-96.45847000
18.98193359,-96.72607000
19.01245117,-99.71984000
19.04296875,-101.07220000
19.07348633,-96.00372000
19.10400391,-94.07014000
19.13452148,-95.11098000
19.16503906,-98.69658000
19.19555664,-105.20770000
19.22607422,-118.16610000
19.25659180,-120.76550000
19.28710938,-118.81160000
19.31762695,-123.76250000
19.34814453,-107.27330000
19.37866211,-99.47175000
19.40917969,-95.43445000
19.43969727,-94.46484000
19.47021484,-96.69437000
19.50073242,-99.43147000
19.53125000,-95.88860000
19.56176758,-94.10423000
19.59228516,-95.12561000
19.62280273,-97.77312000
19.65332031,-101.22890000
19.68383789,-104.45720000
19.71435547,-103.75090000
19.74487305,-105.41560000
19.77539063,-107.62800000
19.80590820,-99.12270000
19.83642578,-95.08765000
19.86694336,-94.41565000
19.89746094,-97.55125000
19.92797852,-113.03150000
19.95849609,-100.90330000
19.98901367,-97.93945000
20.01953125,-102.21300000
20.05004883,-101.68720000
20.08056641,-94.87561000
20.11108398,-92.19786000
20.14160156,-92.24812000
20.17211914,-95.88462000
20.20263672,-106.61150000
20.23315430,-96.33210000
20.26367188,-90.70320000
20.29418945,-88.53298000
20.32470703,-88.05317000
20.35522461,-87.45404000
20.38574219,-87.19680000
20.41625977,-88.13943000
20.44677734,-87.84552000
20.47729492,-84.46865000
20.50781250,-82.90903000
20.53833008,-84.78759000
20.56884766,-90.96310000
20.59936523,-92.21928000
20.62988281,-86.96084000
20.66040039,-85.15826000
20.69091797,-86.83160000
20.72143555,-93.02606000
20.75195313,-94.18874000
20.78247070,-90.62512000
20.81298828,-90.83556000
20.84350586,-93.65193000
20.87402344,-98.92684000
20.90454102,-109.72370000
20.93505859,-105.99330000
20.96557617,-98.18469000
20.99609375,-94.87094000
21.02661133,-94.48701000
21.05712891,-96.49467000
21.08764648,-98.76607000
21.11816406,-97.21613000
21.14868164,-94.46893000
21.17919922,-93.44345000
21.20971680,-91.29521000
21.24023438,-88.09811000
21.27075195,-87.08126000
21.30126953,-88.76826000
21.33178711,-93.16949000
21.36230469,-100.69810000
21.39282227,-102.32870000
21.42333984,-102.26370000
21.45385742,-112.86230000
21.48437500,-94.81655000
21.51489258,-90.39170000
21.54541016,-89.58833000
21.57592773,-90.57349000
21.60644531,-91.93987000
21.63696289,-94.06467000
21.66748047,-98.06987000
21.69799805,-99.06655000
21.72851563,-97.61634000
21.75903320,-96.75851000
21.78955078,-97.02380000
21.82006836,-99.40635000
21.85058594,-103.72960000
21.88110352,-101.41230000
21.91162109,-97.80361000
21.94213867,-96.28180000
21.97265625,-95.04002000
22.00317383,-93.78465000
22.03369141,-93.63186000
22.06420898,-95.64069000
22.09472656,-101.60050000
22.12524414,-99.01042000
22.15576172,-92.59728000
22.18627930,-91.33740000
22.21679688,-95.05368000
22.24731445,-110.70600000
22.27783203,-97.98730000
22.30834961,-93.49128000
22.33886719,-90.22469000
22.36938477,-88.96506000
22.39990234,-90.94518000
22.43041992,-97.72388000
22.46093750,-97.65862000
22.49145508,-92.42387000
22.52197266,-92.16064000
22.55249023,-94.39362000
22.58300781,-95.58334000
22.61352539,-95.97807000
22.64404297,-100.84390000
22.67456055,-105.13660000
22.70507813,-96.34973000
22.73559570,-96.58078000
22.76611328,-98.55714000
22.79663086,-95.40135000
22.82714844,-93.17626000
22.85766602,-92.92992000
22.88818359,-94.65056000
22.91870117,-98.07249000
22.94921875,-105.60670000
22.97973633,-105.04970000
23.01025391,-97.17815000
23.04077148,-94.49565000
23.07128906,-95.92309000
23.10180664,-99.01584000
23.13232422,-92.39305000
23.16284180,-89.10163000
23.19335938,-88.86024000
23.22387695,-90.54794000
23.25439453,-93.33595000
23.28491211,-95.43741000
23.31542969,-94.12476000
23.34594727,-91.70004000
23.37646484,-90.54515000
23.40698242,-90.65220000
23.43750000,-90.32182000
23.46801758,-88.48426000
23.49853516,-87.20744000
23.52905273,-87.79777000
23.55957031,-90.22855000
23.59008789,-92.74702000
23.62060547,-93.87469000
23.65112305,-97.22714000
23.68164063,-103.24910000
23.71215820,-95.46014000
23.74267578,-93.17013000
23.77319336,-96.63911000
23.80371094,-106.13760000
23.83422852,-93.71758000
23.86474609,-91.49479000
23.89526367,-94.52118000
23.92578125,-101.85030000
23.95629883,-97.87161000
23.98681641,-95.12375000
24.01733398,-93.85631000
24.04785156,-93.64914000
24.07836914,-96.80721000
24.10888672,-105.82690000
24.13940430,-93.66714000
24.16992188,-90.20329000
24.20043945,-90.29118000
24.23095703,-91.87892000
24.26147461,-93.63560000
24.29199219,-95.65441000
24.32250977,-97.25938000
24.35302734,-97.82751000
24.38354492,-97.26472000
24.41406250,-95.34540000
24.44458008,-93.46941000
24.47509766,-91.65114000
24.50561523,-90.16412000
24.53613281,-90.06344000
24.56665039,-92.57405000
24.59716797,-100.28280000
24.62768555,-111.65340000
24.65820313,-102.34800000
24.68872070,-98.57599000
24.71923828,-94.35176000
24.74975586,-93.51787000
24.78027344,-96.27060000
24.81079102,-105.04450000
24.84130859,-100.93980000
24.87182617,-95.58944000
24.90234375,-96.12411000
24.93286133,-101.49350000
24.96337891,-100.35100000
24.99389648,-95.74748000
25.02441406,-93.93974000
25.05493164,-93.96663000
25.08544922,-97.08691000
25.11596680,-114.16690000
25.14648438,-96.12701000
25.17700195,-91.66852000
25.20751953,-91.76874000
25.23803711,-95.30282000
25.26855469,-103.13370000
25.29907227,-105.08900000
25.32958984,-98.81809000
25.36010742,-99.10038000
25.39062500,-101.58320000
25.42114258,-97.19608000
25.45166016,-95.14999000
25.48217773,-95.36370000
25.51269531,-95.81352000
25.54321289,-96.28838000
25.57373047,-98.22648000
25.60424805,-103.16580000
25.63476563,-117.46490000
25.66528320,-105.57810000
25.69580078,-100.10670000
25.72631836,-97.13940000
25.75683594,-95.68309000
25.78735352,-96.22153000
25.81787109,-98.02993000
25.84838867,-95.70097000
25.87890625,-92.83501000
25.90942383,-92.76437000
25.93994141,-96.19135000
25.97045898,-105.47790000
26.00097656,-105.96150000
26.03149414,-105.55710000
26.06201172,-109.48940000
26.09252930,-103.59940000
26.12304688,-95.96336000
26.15356445,-93.07863000
26.18408203,-91.62189000
26.21459961,-91.18913000
26.24511719,-93.99075000
26.27563477,-103.55880000
26.30615234,-93.19670000
26.33666992,-89.94900000
26.36718750,-91.21835000
26.39770508,-93.34735000
26.42822266,-95.06223000
26.45874023,-99.79878000
26.48925781,-99.11113000
26.51977539,-101.71240000
26.55029297,-99.69423000
26.58081055,-94.20831000
26.61132813,-95.30014000
26.64184570,-98.33739000
26.67236328,-95.95540000
26.70288086,-94.66775000
26.73339844,-93.42432000
26.76391602,-93.13068000
26.79443359,-97.59147000
26.82495117,-99.67957000
26.85546875,-93.26308000
26.88598633,-94.01399000
26.91650391,-100.25880000
26.94702148,-99.66949000
26.97753906,-96.69290000
27.00805664,-96.12233000
27.03857422,-95.51281000
27.06909180,-94.53625000
27.09960938,-96.86367000
27.13012695,-107.18790000
27.16064453,-92.58483000
27.19116211,-88.72667000
27.22167969,-88.98258000
27.25219727,-91.56300000
27.28271484,-94.51744000
27.31323242,-96.66811000
27.34375000,-100.21820000
27.37426758,-112.71940000
27.40478516,-103.85180000
27.43530273,-101.78940000
27.46582031,-102.12090000
27.49633789,-97.73833000
27.52685547,-96.59958000
27.55737305,-98.76921000
27.58789063,-99.54177000
27.61840820,-97.37701000
27.64892578,-95.80669000
27.67944336,-97.36131000
27.70996094,-101.72910000
27.74047852,-94.64989000
27.77099609,-91.55770000
27.80151367,-92.54948000
27.83203125,-94.52836000
27.86254883,-93.98112000
27.89306641,-94.85399000
27.92358398,-98.35353000
27.95410156,-103.26460000
27.98461914,-105.28350000
28.01513672,-106.01050000
28.04565430,-106.84320000
28.07617188,-105.82190000
28.10668945,-111.94620000
28.13720703,-99.74619000
28.16772461,-94.93686000
28.19824219,-95.83922000
28.22875977,-98.77357000
28.25927734,-93.16487000
28.28979492,-90.05284000
28.32031250,-89.79700000
28.35083008,-91.34276000
28.38134766,-93.59943000
28.41186523,-95.13298000
28.44238281,-95.55497000
28.47290039,-96.35555000
28.50341797,-98.56630000
28.53393555,-102.60730000
28.56445313,-103.22130000
28.59497070,-95.01601000
28.62548828,-90.37378000
28.65600586,-88.32726000
28.68652344,-88.53758000
28.71704102,-91.83015000
28.74755859,-103.15390000
28.77807617,-100.31680000
28.80859375,-97.21131000
28.83911133,-105.02620000
28.86962891,-101.46640000
28.90014648,-96.48988000
28.93066406,-97.49866000
28.96118164,-101.24840000
28.99169922,-107.03500000
29.02221680,-122.35400000
29.05273438,-105.40680000
29.08325195,-100.36090000
29.11376953,-97.55894000
29.14428711,-95.41795000
29.17480469,-94.01122000
29.20532227,-92.97278000
29.23583984,-92.43415000
29.26635742,-94.05289000
29.29687500,-98.99947000
29.32739258,-93.10120000
29.35791016,-89.75376000
29.38842773,-91.57373000
29.41894531,-100.56120000
29.44946289,-100.57650000
29.47998047,-94.79348000
29.51049805,-94.50199000
29.54101563,-96.91093000
29.57153320,-100.10020000
29.60205078,-102.21130000
29.63256836,-102.67090000
29.66308594,-98.52536000
29.69360352,-95.21412000
29.72412109,-96.29928000
29.75463867,-105.33790000
29.78515625,-103.78150000
29.81567383,-101.11230000
29.84619141,-104.85420000
29.87670898,-100.89750000
29.90722656,-96.62869000
29.93774414,-95.10803000
29.96826172,-94.91620000
29.99877930,-94.01374000
30.02929688,-93.83060000
30.05981445,-96.24590000
30.09033203,-101.08880000
30.12084961,-107.92470000
30.15136719,-109.96210000
30.18188477,-101.73870000
30.21240234,-94.66035000
30.24291992,-90.84434000
30.27343750,-90.32731000
30.30395508,-93.54385000
30.33447266,-94.95326000
30.36499023,-90.66168000
30.39550781,-90.15995000
30.42602539,-92.81732000
30.45654297,-96.78352000
30.48706055,-99.31828000
30.51757813,-99.25400000
30.54809570,-98.13294000
30.57861328,-96.56456000
30.60913086,-93.73618000
30.63964844,-91.63274000
30.67016602,-91.40641000
30.70068359,-92.65014000
30.73120117,-95.44557000
30.76171875,-101.57830000
30.79223633,-101.57470000
30.82275391,-97.06261000
30.85327148,-97.05862000
30.88378906,-100.85240000
30.91430664,-98.90244000
30.94482422,-93.66873000
30.97534180,-89.61810000
31.00585938,-86.90962000
31.03637695,-86.18175000
31.06689453,-87.78711000
31.09741211,-91.54086000
31.12792969,-93.95682000
31.15844727,-94.92326000
31.18896484,-100.68480000
31.21948242,-115.84180000
31.25000000,-109.43280000
31.28051758,-94.02536000
31.31103516,-88.74798000
31.34155273,-88.32475000
31.37207031,-91.21291000
31.40258789,-94.72835000
31.43310547,-96.43714000
31.46362305,-94.95652000
31.49414063,-92.01750000
31.52465820,-90.27747000
31.55517578,-90.64228000
31.58569336,-91.28204000
31.61621094,-90.42724000
31.64672852,-89.62123000
31.67724609,-88.81914000
31.70776367,-89.69601000
31.73828125,-94.10057000
31.76879883,-97.94941000
31.79931641,-98.50442000
31.82983398,-109.75170000
31.86035156,-103.39300000
31.89086914,-98.10071000
31.92138672,-96.98457000
31.95190430,-99.88538000
31.98242188,-96.17039000
32.01293945,-90.08560000
32.04345703,-87.53857000
32.07397461,-87.55276000
32.10449219,-89.98253000
32.13500977,-93.62878000
32.16552734,-95.09763000
32.19604492,-97.30495000
32.22656250,-97.37118000
32.25708008,-91.93274000
32.28759766,-90.70942000
32.31811523,-93.93182000
32.34863281,-94.34262000
32.37915039,-91.38948000
32.40966797,-90.19754000
32.44018555,-89.15429000
32.47070313,-89.02362000
32.50122070,-91.04918000
32.53173828,-94.96933000
32.56225586,-96.98655000
32.59277344,-96.63324000
32.62329102,-95.73017000
32.65380859,-95.74185000
32.68432617,-97.65967000
32.71484375,-97.69294000
32.74536133,-96.24473000
32.77587891,-98.10302000
32.80639648,-102.89740000
32.83691406,-104.67400000
32.86743164,-99.77084000
32.89794922,-95.54558000
32.92846680,-93.51941000
32.95898438,-92.14787000
32.98950195,-90.94035000
33.02001953,-90.88814000
33.05053711,-93.39142000
33.08105469,-100.58320000
33.11157227,-123.73440000
33.14208984,-106.20970000
33.17260742,-99.43768000
33.20312500,-96.08745000
33.23364258,-97.35358000
33.26416016,-104.96740000
33.29467773,-98.83359000
33.32519531,-96.86947000
33.35571289,-101.32740000
33.38623047,-97.45048000
33.41674805,-93.06938000
33.44726563,-91.69778000
33.47778320,-91.16276000
33.50830078,-91.05453000
33.53881836,-92.34711000
33.56933594,-96.39701000
33.59985352,-102.63400000
33.63037109,-102.20200000
33.66088867,-97.64924000
33.69140625,-93.76141000
33.72192383,-92.74192000
33.75244141,-93.87901000
33.78295898,-95.64935000
33.81347656,-97.05690000
33.84399414,-96.53347000
33.87451172,-95.12801000
33.90502930,-95.50246000
33.93554688,-97.73949000
33.96606445,-101.03320000
33.99658203,-103.08160000
34.02709961,-100.02960000
34.05761719,-96.43797000
34.08813477,-97.06644000
34.11865234,-106.84730000
34.14916992,-99.94804000
34.17968750,-97.72696000
34.21020508,-106.43610000
34.24072266,-104.03990000
34.27124023,-98.53564000
34.30175781,-96.72023000
34.33227539,-95.17310000
34.36279297,-96.96540000
34.39331055,-106.08300000
34.42382813,-106.66280000
34.45434570,-101.15230000
34.48486328,-100.97550000
34.51538086,-99.54312000
34.54589844,-95.26965000
34.57641602,-94.17256000
34.60693359,-98.88622000
34.63745117,-109.31150000
34.66796875,-96.42110000
34.69848633,-94.57017000
34.72900391,-95.73070000
34.75952148,-100.13410000
34.79003906,-110.50410000
34.82055664,-119.95290000
34.85107422,-100.01330000
34.88159180,-94.02576000
34.91210938,-93.70651000
34.94262695,-99.60151000
34.97314453,-99.69652000
35.00366211,-95.36604000
35.03417969,-98.37941000
35.06469727,-115.19990000
35.09521484,-101.27230000
35.12573242,-96.93008000
35.15625000,-96.83946000
35.18676758,-100.39560000
35.21728516,-105.61660000
35.24780273,-107.92150000
35.27832031,-101.67350000
35.30883789,-105.04200000
35.33935547,-103.96060000
35.36987305,-97.59643000
35.40039063,-100.31350000
35.43090820,-112.76960000
35.46142578,-101.45820000
35.49194336,-101.83660000
35.52246094,-111.81390000
35.55297852,-103.04350000
35.58349609,-97.23798000
35.61401367,-95.69215000
35.64453125,-97.54796000
35.67504883,-98.79002000
35.70556641,-94.06532000
35.73608398,-91.11149000
35.76660156,-91.50877000
35.79711914,-97.02983000
35.82763672,-102.27380000
35.85815430,-94.96707000
35.88867188,-93.99174000
35.91918945,-96.35623000
35.94970703,-99.50160000
35.98022461,-97.97591000
36.01074219,-94.58317000
36.04125977,-93.47932000
36.07177734,-95.59640000
36.10229492,-100.72040000
36.13281250,-109.86500000
36.16333008,-106.52060000
36.19384766,-104.93930000
36.22436523,-105.11360000
36.25488281,-100.58600000
36.28540039,-97.18098000
36.31591797,-95.69988000
36.34643555,-98.24327000
36.37695313,-104.30080000
36.40747070,-99.54037000
36.43798828,-97.74319000
36.46850586,-98.13721000
36.49902344,-97.39310000
36.52954102,-95.96922000
36.56005859,-95.95333000
36.59057617,-97.34761000
36.62109375,-98.59428000
36.65161133,-97.93953000
36.68212891,-95.88760000
36.71264648,-94.81727000
36.74316406,-96.72849000
36.77368164,-103.04990000
36.80419922,-100.53080000
36.83471680,-97.03104000
36.86523438,-96.74603000
36.89575195,-96.91438000
36.92626953,-96.80111000
36.95678711,-97.09398000
36.98730469,-96.73125000
37.01782227,-95.79492000
37.04833984,-95.78407000
37.07885742,-96.80260000
37.10937500,-97.19746000
37.13989258,-98.19144000
37.17041016,-103.94010000
37.20092773,-111.92730000
37.23144531,-109.57300000
37.26196289,-103.90650000
37.29248047,-99.04028000
37.32299805,-97.44612000
37.35351563,-96.20042000
37.38403320,-95.80819000
37.41455078,-97.62480000
37.44506836,-101.28200000
37.47558594,-104.38270000
37.50610352,-112.23580000
37.53662109,-105.96300000
37.56713867,-101.02650000
37.59765625,-103.35730000
37.62817383,-100.03780000
37.65869141,-94.14249000
37.68920898,-92.64606000
37.71972656,-92.82257000
37.75024414,-93.67154000
37.78076172,-97.17175000
37.81127930,-104.18500000
37.84179688,-112.92620000
37.87231445,-101.28370000
37.90283203,-99.05617000
37.93334961,-103.19050000
37.96386719,-97.87044000
37.99438477,-94.14104000
38.02490234,-94.45757000
38.05541992,-97.06514000
38.08593750,-101.49320000
38.11645508,-108.64740000
38.14697266,-108.49620000
38.17749023,-106.82650000
38.20800781,-106.63620000
38.23852539,-106.15510000
38.26904297,-107.56450000
38.29956055,-99.79865000
38.33007813,-94.58125000
38.36059570,-93.39046000
38.39111328,-95.08829000
38.42163086,-98.98653000
38.45214844,-104.80660000
38.48266602,-112.06720000
38.51318359,-107.98140000
38.54370117,-101.17800000
38.57421875,-95.59487000
38.60473633,-91.38070000
38.63525391,-89.20190000
38.66577148,-89.47616000
38.69628906,-92.24039000
38.72680664,-95.89119000
38.75732422,-96.13797000
38.78784180,-94.54807000
38.81835938,-93.98545000
38.84887695,-94.50771000
38.87939453,-93.24812000
38.90991211,-90.01075000
38.94042969,-88.69846000
38.97094727,-90.01622000
39.00146484,-89.42115000
39.03198242,-86.60210000
39.06250000,-86.03432000
39.09301758,-88.04482000
39.12353516,-92.82365000
39.15405273,-101.15490000
39.18457031,-101.26090000
39.21508789,-97.93059000
39.24560547,-94.88431000
39.27612305,-91.85085000
39.30664063,-91.02161000
39.33715820,-93.57278000
39.36767578,-103.24140000
39.39819336,-102.99640000
39.42871094,-98.01399000
39.45922852,-95.39648000
39.48974609,-91.74313000
39.52026367,-89.68671000
39.55078125,-88.43120000
39.58129883,-87.58905000
39.61181641,-88.12465000
39.64233398,-90.39934000
39.67285156,-93.81340000
39.70336914,-97.77202000
39.73388672,-101.44570000
39.76440430,-100.51310000
39.79492188,-92.66177000
39.82543945,-89.42981000
39.85595703,-90.40276000
39.88647461,-94.17869000
39.91699219,-98.07973000
39.94750977,-97.15527000
39.97802734,-93.53445000
40.00854492,-97.80483000
40.03906250,-96.37166000
40.06958008,-88.95225000
40.10009766,-88.29248000
40.13061523,-90.88898000
40.16113281,-92.44156000
40.19165039,-91.87918000
40.22216797,-90.91431000
40.25268555,-89.30607000
40.28320313,-88.49518000
40.31372070,-88.71067000
40.34423828,-89.42966000
40.37475586,-91.71004000
40.40527344,-96.98021000
40.43579102,-105.15510000
40.46630859,-109.93650000
40.49682617,-96.51369000
40.52734375,-92.06833000
40.55786133,-89.40559000
40.58837891,-87.23931000
40.61889648,-86.82117000
40.64941406,-89.46207000
40.67993164,-94.96678000
40.71044922,-91.45523000
40.74096680,-86.85568000
40.77148438,-84.97667000
40.80200195,-85.19405000
40.83251953,-86.64545000
40.86303711,-89.51653000
40.89355469,-93.85598000
40.92407227,-96.24959000
40.95458984,-92.87830000
40.98510742,-89.03091000
41.01562500,-89.64748000
41.04614258,-95.51373000
41.07666016,-91.39190000
41.10717773,-87.58193000
41.13769531,-86.79564000
41.16821289,-88.13233000
41.19873047,-92.99287000
41.22924805,-113.71550000
41.25976563,-92.93671000
41.29028320,-86.41473000
41.32080078,-83.91709000
41.35131836,-83.40643000
41.38183594,-83.69597000
41.41235352,-84.11706000
41.44287109,-84.33942000
41.47338867,-84.34368000
41.50390625,-84.69612000
41.53442383,-86.26843000
41.56494141,-89.67233000
41.59545898,-95.20378000
41.62597656,-102.96690000
41.65649414,-107.69850000
41.68701172,-101.60500000
41.71752930,-101.19410000
41.74804688,-94.18243000
41.77856445,-88.08302000
41.80908203,-86.04903000
41.83959961,-86.48703000
41.87011719,-87.75400000
41.90063477,-88.17900000
41.93115234,-87.95392000
41.96166992,-88.35870000
41.99218750,-90.05830000
42.02270508,-93.79718000
42.05322266,-100.96950000
42.08374023,-97.75687000
42.11425781,-95.77368000
42.14477539,-103.73420000
42.17529297,-93.91753000
42.20581055,-88.08209000
42.23632813,-87.71111000
42.26684570,-89.32659000
42.29736328,-88.01853000
42.32788086,-88.47198000
42.35839844,-92.95377000
42.38891602,-101.59990000
42.41943359,-102.88990000
42.44995117,-98.30846000
42.48046875,-96.30821000
42.51098633,-90.30659000
42.54150391,-87.69494000
42.57202148,-90.00443000
42.60253906,-102.67030000
42.63305664,-97.54376000
42.66357422,-97.38976000
42.69409180,-108.37740000
42.72460938,-103.92010000
42.75512695,-98.26173000
42.78564453,-91.69937000
42.81616211,-88.83277000
42.84667969,-87.45807000
42.87719727,-87.08423000
42.90771484,-88.22541000
42.93823242,-89.99825000
42.96875000,-89.46681000
42.99926758,-87.72826000
43.02978516,-88.12518000
43.06030273,-91.62915000
43.09082031,-93.94164000
43.12133789,-92.45765000
43.15185547,-93.06441000
43.18237305,-91.48965000
43.21289063,-89.82194000
43.24340820,-91.91042000
43.27392578,-96.71300000
43.30444336,-96.23082000
43.33496094,-91.06697000
43.36547852,-87.59119000
43.39599609,-87.18612000
43.42651367,-88.35389000
43.45703125,-87.64888000
43.48754883,-84.42325000
43.51806641,-82.10722000
43.54858398,-82.38594000
43.57910156,-85.96314000
43.60961914,-94.44162000
43.64013672,-104.17160000
43.67065430,-98.61950000
43.70117188,-96.72173000
43.73168945,-95.40467000
43.76220703,-94.91185000
43.79272461,-95.02174000
43.82324219,-94.51699000
43.85375977,-94.31058000
43.88427734,-96.91959000
43.91479492,-104.32000000
43.94531250,-99.91512000
43.97583008,-96.69609000
44.00634766,-96.15708000
44.03686523,-97.55412000
44.06738281,-99.40087000
44.09790039,-95.19180000
44.12841797,-93.46894000
44.15893555,-92.13157000
44.18945313,-88.60739000
44.21997070,-87.59483000
44.25048828,-89.74964000
44.28100586,-94.22110000
44.31152344,-93.18107000
44.34204102,-88.64172000
44.37255859,-87.68649000
44.40307617,-90.22694000
44.43359375,-94.65987000
44.46411133,-92.95049000
44.49462891,-89.02838000
44.52514648,-86.86830000
44.55566406,-86.88892000
44.58618164,-89.08157000
44.61669922,-93.90707000
44.64721680,-98.26473000
44.67773438,-90.96879000
44.70825195,-88.49491000
44.73876953,-89.13087000
44.76928711,-91.45753000
44.79980469,-96.82573000
44.83032227,-108.62630000
44.86083984,-93.90002000
44.89135742,-91.05907000
44.92187500,-90.22267000
44.95239258,-89.08514000
44.98291016,-88.74921000
45.01342773,-90.04852000
45.04394531,-93.84223000
45.07446289,-98.08295000
45.10498047,-95.65349000
45.13549805,-96.92720000
45.16601563,-111.21650000
45.19653320,-99.51588000
45.22705078,-95.91869000
45.25756836,-96.93734000
45.28808594,-97.94905000
45.31860352,-95.56607000
45.34912109,-93.58527000
45.37963867,-94.51606000
45.41015625,-98.76266000
45.44067383,-103.31190000
45.47119141,-97.25013000
45.50170898,-91.98357000
45.53222656,-90.14478000
45.56274414,-91.29219000
45.59326172,-93.68053000
45.62377930,-92.28417000
45.65429688,-88.99080000
45.68481445,-86.88801000
45.71533203,-86.73369000
45.74584961,-89.13437000
45.77636719,-96.19042000
45.80688477,-104.06980000
45.83740234,-93.99960000
45.86791992,-92.81311000
45.89843750,-96.30379000
45.92895508,-104.10350000
45.95947266,-98.54005000
45.98999023,-96.62957000
46.02050781,-94.51076000
46.05102539,-92.81873000
46.08154297,-94.23351000
46.11206055,-98.58130000
46.14257813,-106.99920000
46.17309570,-104.09610000
46.20361328,-94.49818000
46.23413086,-90.66788000
46.26464844,-90.71999000
46.29516602,-94.31134000
46.32568359,-95.49187000
46.35620117,-91.85979000
46.38671875,-91.08546000
46.41723633,-93.27866000
46.44775391,-97.31666000
46.47827148,-97.17099000
46.50878906,-93.39037000
46.53930664,-90.34898000
46.56982422,-88.72400000
46.60034180,-88.64518000
46.63085938,-89.67381000
46.66137695,-90.78422000
46.69189453,-91.01711000
46.72241211,-91.08711000
46.75292969,-93.03632000
46.78344727,-100.37900000
46.81396484,-105.44270000
46.84448242,-96.18948000
46.87500000,-95.56461000
46.90551758,-101.11920000
46.93603516,-104.48370000
46.96655273,-95.12143000
46.99707031,-92.32662000
47.02758789,-91.58115000
47.05810547,-90.71750000
47.08862305,-89.93848000
47.11914063,-91.14791000
47.14965820,-96.79596000
47.18017578,-106.94280000
47.21069336,-95.53036000
47.24121094,-94.36040000
47.27172852,-99.08299000
47.30224609,-112.72560000
47.33276367,-98.56472000
47.36328125,-96.86455000
47.39379883,-98.07065000
47.42431641,-96.57868000
47.45483398,-95.23076000
47.48535156,-96.51252000
47.51586914,-98.67896000
47.54638672,-100.00510000
47.57690430,-100.74240000
47.60742188,-99.34515000
47.63793945,-96.79322000
47.66845703,-95.70398000
47.69897461,-96.05966000
47.72949219,-96.75203000
47.76000977,-98.66237000
47.79052734,-101.75590000
47.82104492,-102.70360000
47.85156250,-102.36320000
47.88208008,-97.13712000
47.91259766,-93.20792000
47.94311523,-91.02933000
47.97363281,-89.75166000
48.00415039,-89.81109000
48.03466797,-91.50871000
48.06518555,-95.19452000
48.09570313,-95.51597000
48.12622070,-91.50264000
48.15673828,-90.58976000
48.18725586,-92.59085000
48.21777344,-97.05351000
48.24829102,-97.68516000
48.27880859,-92.49730000
48.30932617,-89.97482000
48.33984375,-89.86230000
48.37036133,-90.67722000
48.40087891,-90.54516000
48.43139648,-89.67308000
48.46191406,-89.26231000
48.49243164,-90.01353000
48.52294922,-92.69049000
48.55346680,-98.67226000
48.58398438,-101.65790000
48.61450195,-97.58923000
48.64501953,-93.65892000
48.67553711,-89.69574000
48.70605469,-88.11135000
48.73657227,-89.06055000
48.76708984,-91.98634000
48.79760742,-94.93350000
48.82812500,-95.23746000
48.85864258,-94.74940000
48.88916016,-95.22743000
48.91967773,-96.75688000
48.95019531,-98.00008000
48.98071289,-95.82847000
49.01123047,-91.45964000
49.04174805,-88.64778000
49.07226563,-88.67939000
49.10278320,-92.54089000
49.13330078,-107.12070000
49.16381836,-96.83720000
49.19433594,-91.41903000
49.22485352,-89.68742000
49.25537109,-90.34026000
49.28588867,-91.52771000
49.31640625,-88.05287000
49.34692383,-85.14223000
49.37744141,-84.91240000
49.40795898,-86.94275000
49.43847656,-90.47459000
49.46899414,-94.14471000
49.49951172,-96.07042000
49.53002930,-95.12595000
49.56054688,-92.47013000
49.59106445,-91.34373000
49.62158203,-93.89652000
49.65209961,-108.07570000
49.68261719,-91.75336000
49.71313477,-87.27352000
49.74365234,-87.17484000
49.77416992,-89.54345000
49.80468750,-91.89231000
49.83520508,-92.37464000
49.86572266,-92.19786000
49.89624023,-93.07997000
49.92675781,-96.21387000
49.95727539,-102.23120000
49.98779297,-96.35173000
50.01831055,-90.40511000
