Frequency,Channel A
(MHz),(dBu)

0.00000000,-39.99845000
0.03051758,-39.97261000
0.06103516,-43.54181000
0.09155273,-48.84060000
0.12207031,-55.68428000
0.15258789,-60.33305000
0.18310547,-57.35111000
0.21362305,-56.58537000
0.24414063,-58.50337000
0.27465820,-62.57570000
0.30517578,-64.26287000
0.33569336,-62.67033000
0.36621094,-62.31688000
0.39672852,-60.00254000
0.42724609,-56.30247000
0.45776367,-54.22319000
0.48828125,-53.97848000
0.51879883,-55.30405000
0.54931641,-57.87184000
0.57983398,-59.48187000
0.61035156,-56.89870000
0.64086914,-54.43510000
0.67138672,-53.93998000
0.70190430,-55.52369000
0.73242188,-58.84818000
0.76293945,-60.31097000
0.79345703,-58.84380000
0.82397461,-58.50805000
0.85449219,-59.27252000
0.88500977,-60.17914000
0.91552734,-61.32429000
0.94604492,-63.61749000
0.97656250,-67.43832000
1.00708008,-76.15854000
1.03759766,-72.02409000
1.06811523,-64.13010000
1.09863281,-61.19102000
1.12915039,-60.50041000
1.15966797,-61.53545000
1.19018555,-63.05447000
1.22070313,-62.89009000
1.25122070,-61.95160000
1.28173828,-61.90920000
1.31225586,-62.94662000
1.34277344,-63.81372000
1.37329102,-63.37819000
1.40380859,-63.24634000
1.43432617,-64.63052000
1.46484375,-65.90188000
1.49536133,-63.44356000
1.52587891,-60.83352000
1.55639648,-59.93502000
1.58691406,-60.56579000
1.61743164,-62.18303000
1.64794922,-63.45396000
1.67846680,-63.37938000
1.70898438,-63.58297000
1.73950195,-65.52536000
1.77001953,-69.39671000
1.80053711,-70.77602000
1.83105469,-67.52319000
1.86157227,-65.05293000
1.89208984,-63.68006000
1.92260742,-63.11764000
1.95312500,-63.20578000
1.98364258,-63.65854000
2.01416016,-63.85536000
2.04467773,-63.65782000
2.07519531,-64.36311000
2.10571289,-67.31416000
2.13623047,-67.61940000
2.16674805,-63.16693000
2.19726563,-61.45233000
2.22778320,-62.46876000
2.25830078,-65.17888000
2.28881836,-67.07397000
2.31933594,-67.45185000
2.34985352,-67.92107000
2.38037109,-67.65015000
2.41088867,-66.83293000
2.44140625,-67.06891000
2.47192383,-67.54578000
2.50244141,-66.29042000
2.53295898,-64.97839000
2.56347656,-64.79594000
2.59399414,-65.47482000
2.62451172,-66.73089000
2.65502930,-67.87038000
2.68554688,-67.07899000
2.71606445,-65.32520000
2.74658203,-64.46502000
2.77709961,-64.78565000
2.80761719,-65.80858000
2.83813477,-66.30388000
2.86865234,-66.18707000
2.89916992,-67.06198000
2.92968750,-68.18934000
2.96020508,-66.02390000
2.99072266,-63.32054000
3.02124023,-62.02959000
3.05175781,-62.01685000
3.08227539,-62.82706000
3.11279297,-63.87320000
3.14331055,-65.13281000
3.17382813,-66.35715000
3.20434570,-65.32686000
3.23486328,-63.64117000
3.26538086,-63.56736000
3.29589844,-64.57869000
3.32641602,-64.74650000
3.35693359,-64.01954000
3.38745117,-63.51971000
3.41796875,-63.44864000
3.44848633,-63.94111000
3.47900391,-64.83183000
3.50952148,-64.83105000
3.54003906,-63.62688000
3.57055664,-62.43645000
3.60107422,-61.70084000
3.63159180,-61.50280000
3.66210938,-61.96351000
3.69262695,-62.99450000
3.72314453,-64.20370000
3.75366211,-65.13506000
3.78417969,-65.15818000
3.81469727,-64.03428000
3.84521484,-62.69111000
3.87573242,-61.85072000
3.90625000,-61.66998000
3.93676758,-62.03098000
3.96728516,-62.58210000
3.99780273,-62.94370000
4.02832031,-62.92681000
4.05883789,-62.57982000
4.08935547,-62.28741000
4.11987305,-62.06891000
4.15039063,-61.47048000
4.18090820,-61.02500000
4.21142578,-61.67174000
4.24194336,-63.24808000
4.27246094,-64.37498000
4.30297852,-65.07568000
4.33349609,-66.43556000
4.36401367,-66.51687000
4.39453125,-64.39394000
4.42504883,-62.74042000
4.45556641,-62.25010000
4.48608398,-62.86884000
4.51660156,-64.54752000
4.54711914,-66.57123000
4.57763672,-66.45642000
4.60815430,-64.45978000
4.63867188,-62.95122000
4.66918945,-62.38295000
4.69970703,-62.47565000
4.73022461,-62.95817000
4.76074219,-63.95342000
4.79125977,-65.94827000
4.82177734,-69.11702000
4.85229492,-70.29905000
4.88281250,-67.10217000
4.91333008,-64.15168000
4.94384766,-62.40784000
4.97436523,-61.76905000
5.00488281,-62.13405000
5.03540039,-63.36087000
5.06591797,-65.15596000
5.09643555,-66.71339000
5.12695313,-66.56360000
5.15747070,-64.86990000
5.18798828,-63.28759000
5.21850586,-62.66626000
5.24902344,-63.18051000
5.27954102,-64.70757000
5.31005859,-67.37404000
5.34057617,-72.84563000
5.37109375,-95.14066000
5.40161133,-73.85617000
5.43212891,-70.35203000
5.46264648,-70.77733000
5.49316406,-74.77287000
5.52368164,-88.16985000
5.55419922,-77.21519000
5.58471680,-70.81439000
5.61523438,-67.14759000
5.64575195,-65.07288000
5.67626953,-64.65819000
5.70678711,-65.96096000
5.73730469,-67.63108000
5.76782227,-65.50597000
5.79833984,-62.10215000
5.82885742,-59.76466000
5.85937500,-58.39565000
5.88989258,-57.87360000
5.92041016,-58.21089000
5.95092773,-59.36090000
5.98144531,-61.12082000
6.01196289,-62.63633000
6.04248047,-62.11825000
6.07299805,-60.15438000
6.10351563,-58.55728000
6.13403320,-57.82805000
6.16455078,-57.94961000
6.19506836,-58.85596000
6.22558594,-60.52086000
6.25610352,-62.82779000
6.28662109,-65.04736000
6.31713867,-65.47377000
6.34765625,-63.97041000
6.37817383,-62.39687000
6.40869141,-61.72084000
6.43920898,-62.05135000
6.46972656,-63.23788000
6.50024414,-65.31254000
6.53076172,-68.92936000
6.56127930,-76.40891000
6.59179688,-83.08262000
6.62231445,-73.54079000
6.65283203,-70.20746000
6.68334961,-68.68584000
6.71386719,-68.33755000
6.74438477,-69.27903000
6.77490234,-71.69500000
6.80541992,-76.07232000
6.83593750,-82.76349000
6.86645508,-79.01424000
6.89697266,-74.90703000
6.92749023,-74.04472000
6.95800781,-75.49996000
6.98852539,-77.86208000
7.01904297,-78.85211000
7.04956055,-79.47322000
7.08007813,-82.15667000
7.11059570,-88.64803000
7.14111328,-85.02116000
7.17163086,-79.71869000
7.20214844,-76.97083000
7.23266602,-75.65506000
7.26318359,-76.21077000
7.29370117,-79.83670000
7.32421875,-88.31978000
7.35473633,-83.38730000
7.38525391,-79.44455000
7.41577148,-78.37263000
7.44628906,-77.75989000
7.47680664,-76.38068000
7.50732422,-75.24522000
7.53784180,-75.29126000
7.56835938,-76.69356000
7.59887695,-79.85545000
7.62939453,-87.21523000
7.65991211,-90.87909000
7.69042969,-80.90831000
7.72094727,-77.16018000
7.75146484,-75.88535000
7.78198242,-76.48219000
7.81250000,-78.13992000
7.84301758,-78.75658000
7.87353516,-78.91174000
7.90405273,-81.12400000
7.93457031,-87.85165000
7.96508789,-91.13300000
7.99560547,-82.47652000
8.02612305,-79.01442000
8.05664063,-77.48360000
8.08715820,-76.91898000
8.11767578,-77.09428000
8.14819336,-78.27766000
8.17871094,-80.58205000
8.20922852,-82.37598000
8.23974609,-82.50830000
8.27026367,-82.96585000
8.30078125,-82.34528000
8.33129883,-79.72791000
8.36181641,-77.40115000
8.39233398,-76.29964000
8.42285156,-76.86434000
8.45336914,-79.42200000
8.48388672,-83.74097000
8.51440430,-87.85855000
8.54492188,-89.39726000
8.57543945,-91.47766000
8.60595703,-97.95473000
8.63647461,-93.77979000
8.66699219,-89.52829000
8.69750977,-90.54446000
8.72802734,-101.27310000
8.75854492,-92.86951000
8.78906250,-86.73344000
8.81958008,-84.54301000
8.85009766,-83.87378000
8.88061523,-84.01893000
8.91113281,-85.17867000
8.94165039,-89.03342000
8.97216797,-100.59610000
9.00268555,-89.42195000
9.03320313,-84.78237000
9.06372070,-82.44275000
9.09423828,-80.58437000
9.12475586,-79.76386000
9.15527344,-80.54208000
9.18579102,-83.01042000
9.21630859,-87.06723000
9.24682617,-92.61484000
9.27734375,-99.12548000
9.30786133,-97.05422000
9.33837891,-90.07695000
9.36889648,-85.43504000
9.39941406,-83.19424000
9.42993164,-82.79626000
9.46044922,-83.08784000
9.49096680,-82.10049000
9.52148438,-79.59051000
9.55200195,-77.58512000
9.58251953,-76.94442000
9.61303711,-77.69353000
9.64355469,-79.72276000
9.67407227,-82.88223000
9.70458984,-86.81008000
9.73510742,-87.68108000
9.76562500,-84.74232000
9.79614258,-82.32635000
9.82666016,-80.77361000
9.85717773,-80.25710000
9.88769531,-81.19579000
9.91821289,-83.05222000
9.94873047,-81.97898000
9.97924805,-79.08202000
10.00976563,-77.43943000
10.04028320,-77.15472000
10.07080078,-77.70178000
10.10131836,-78.34017000
10.13183594,-78.90989000
10.16235352,-79.87813000
10.19287109,-81.64705000
10.22338867,-85.34386000
10.25390625,-92.18307000
10.28442383,-88.36712000
10.31494141,-83.46101000
10.34545898,-80.36399000
10.37597656,-78.60371000
10.40649414,-78.71516000
10.43701172,-81.56022000
10.46752930,-87.68577000
10.49804688,-85.33298000
10.52856445,-83.54241000
10.55908203,-84.65125000
10.58959961,-79.21027000
10.62011719,-74.68156000
10.65063477,-72.77675000
10.68115234,-72.86700000
10.71166992,-74.51778000
10.74218750,-77.26465000
10.77270508,-81.55238000
10.80322266,-83.40300000
10.83374023,-79.02646000
10.86425781,-77.35307000
10.89477539,-77.78421000
10.92529297,-78.76154000
10.95581055,-79.24864000
10.98632813,-79.62263000
11.01684570,-80.98343000
11.04736328,-83.85454000
11.07788086,-86.74361000
11.10839844,-88.20839000
11.13891602,-88.66512000
11.16943359,-85.44574000
11.19995117,-82.79237000
11.23046875,-82.89056000
11.26098633,-86.01221000
11.29150391,-90.04311000
11.32202148,-85.48982000
11.35253906,-79.53394000
11.38305664,-76.31583000
11.41357422,-75.26056000
11.44409180,-75.88731000
11.47460938,-78.28559000
11.50512695,-83.12227000
11.53564453,-94.67360000
11.56616211,-85.97528000
11.59667969,-78.16465000
11.62719727,-73.97235000
11.65771484,-72.18291000
11.68823242,-72.66042000
11.71875000,-75.43143000
11.74926758,-81.34953000
11.77978516,-91.16971000
11.81030273,-80.92987000
11.84082031,-75.45652000
11.87133789,-72.10210000
11.90185547,-70.47439000
11.93237305,-70.33076000
11.96289063,-71.18204000
11.99340820,-72.65784000
12.02392578,-75.09641000
12.05444336,-78.32488000
12.08496094,-77.19350000
12.11547852,-74.76883000
12.14599609,-75.00502000
12.17651367,-79.09019000
12.20703125,-99.75847000
12.23754883,-81.35213000
12.26806641,-77.02742000
12.29858398,-76.27685000
12.32910156,-76.96569000
12.35961914,-77.86941000
12.39013672,-78.43034000
12.42065430,-79.54986000
12.45117188,-81.24228000
12.48168945,-81.26568000
12.51220703,-81.09550000
12.54272461,-83.00635000
12.57324219,-87.39096000
12.60375977,-90.14470000
12.63427734,-87.89455000
12.66479492,-83.59982000
12.69531250,-80.46422000
12.72583008,-80.66738000
12.75634766,-83.86461000
12.78686523,-82.38236000
12.81738281,-79.30675000
12.84790039,-77.63702000
12.87841797,-76.14236000
12.90893555,-74.65630000
12.93945313,-73.47925000
12.96997070,-72.66808000
13.00048828,-72.35615000
13.03100586,-72.96124000
13.06152344,-74.62477000
13.09204102,-76.78697000
13.12255859,-78.99428000
13.15307617,-81.21587000
13.18359375,-83.76456000
13.21411133,-84.55276000
13.24462891,-79.87012000
13.27514648,-75.95435000
13.30566406,-74.21095000
13.33618164,-74.54613000
13.36669922,-77.34014000
13.39721680,-84.71790000
13.42773438,-86.67067000
13.45825195,-81.91173000
13.48876953,-79.26854000
13.51928711,-71.54922000
13.54980469,-67.16113000
13.58032227,-65.88306000
13.61083984,-66.75133000
13.64135742,-68.92850000
13.67187500,-71.70335000
13.70239258,-70.97917000
13.73291016,-67.54057000
13.76342773,-66.46860000
13.79394531,-68.31901000
13.82446289,-73.12083000
13.85498047,-81.53297000
13.88549805,-86.41133000
13.91601563,-81.20622000
13.94653320,-79.79242000
13.97705078,-81.10004000
14.00756836,-87.53162000
14.03808594,-96.06425000
14.06860352,-88.81558000
14.09912109,-90.20523000
14.12963867,-82.60075000
14.16015625,-78.71043000
14.19067383,-76.06384000
14.22119141,-74.31467000
14.25170898,-74.56750000
14.28222656,-77.29073000
14.31274414,-83.53960000
14.34326172,-98.02191000
14.37377930,-83.47926000
14.40429688,-78.30890000
14.43481445,-76.05615000
14.46533203,-75.79993000
14.49584961,-77.05853000
14.52636719,-78.43322000
14.55688477,-76.89409000
14.58740234,-73.87325000
14.61791992,-72.16263000
14.64843750,-72.23092000
14.67895508,-73.98307000
14.70947266,-77.69525000
14.73999023,-85.64101000
14.77050781,-94.31271000
14.80102539,-83.05740000
14.83154297,-79.32772000
14.86206055,-76.24953000
14.89257813,-74.26175000
14.92309570,-74.06040000
14.95361328,-75.79333000
14.98413086,-79.81423000
15.01464844,-87.35616000
15.04516602,-88.33632000
15.07568359,-83.50852000
15.10620117,-82.84142000
15.13671875,-84.93034000
15.16723633,-84.31227000
15.19775391,-81.09740000
15.22827148,-80.75805000
15.25878906,-85.00772000
15.28930664,-99.23112000
15.31982422,-83.65292000
15.35034180,-79.51619000
15.38085938,-78.56325000
15.41137695,-79.82367000
15.44189453,-83.26291000
15.47241211,-86.91312000
15.50292969,-84.42902000
15.53344727,-81.40398000
15.56396484,-80.07839000
15.59448242,-80.26694000
15.62500000,-81.59814000
15.65551758,-82.58408000
15.68603516,-81.97204000
15.71655273,-81.59184000
15.74707031,-81.95433000
15.77758789,-81.04305000
15.80810547,-79.10486000
15.83862305,-77.85989000
15.86914063,-77.58369000
15.89965820,-78.16863000
15.93017578,-79.08186000
15.96069336,-79.33926000
15.99121094,-79.71581000
16.02172852,-81.84071000
16.05224609,-84.44095000
16.08276367,-83.00885000
16.11328125,-81.06831000
16.14379883,-80.08792000
16.17431641,-79.86033000
16.20483398,-80.83088000
16.23535156,-83.50318000
16.26586914,-86.42083000
16.29638672,-85.10063000
16.32690430,-83.59369000
16.35742188,-83.86784000
16.38793945,-83.58657000
16.41845703,-82.22047000
16.44897461,-82.15094000
16.47949219,-83.96883000
16.51000977,-87.24362000
16.54052734,-90.69869000
16.57104492,-92.72285000
16.60156250,-92.84842000
16.63208008,-91.73553000
16.66259766,-90.25606000
16.69311523,-88.93536000
16.72363281,-90.00237000
16.75415039,-99.08900000
16.78466797,-92.48338000
16.81518555,-85.52682000
16.84570313,-82.94861000
16.87622070,-82.04489000
16.90673828,-82.52961000
16.93725586,-84.83502000
16.96777344,-89.36101000
16.99829102,-95.89645000
17.02880859,-95.11272000
17.05932617,-89.76006000
17.08984375,-86.71761000
17.12036133,-85.42372000
17.15087891,-84.93362000
17.18139648,-84.62887000
17.21191406,-85.00995000
17.24243164,-87.00873000
17.27294922,-91.40899000
17.30346680,-99.94096000
17.33398438,-109.39770000
17.36450195,-97.68981000
17.39501953,-93.91213000
17.42553711,-92.76427000
17.45605469,-95.68491000
17.48657227,-110.03040000
17.51708984,-93.47131000
17.54760742,-89.33173000
17.57812500,-88.85059000
17.60864258,-90.58997000
17.63916016,-92.03079000
17.66967773,-88.00564000
17.70019531,-83.87672000
17.73071289,-82.29275000
17.76123047,-83.58125000
17.79174805,-87.94679000
17.82226563,-94.56947000
17.85278320,-96.90098000
17.88330078,-93.98666000
17.91381836,-92.84363000
17.94433594,-91.53983000
17.97485352,-88.92668000
18.00537109,-87.28326000
18.03588867,-86.70892000
18.06640625,-86.10130000
18.09692383,-85.10609000
18.12744141,-84.47157000
18.15795898,-84.57488000
18.18847656,-85.45139000
18.21899414,-87.37893000
18.24951172,-91.20949000
18.28002930,-97.29292000
18.31054688,-94.54818000
18.34106445,-91.34505000
18.37158203,-90.39912000
18.40209961,-88.69749000
18.43261719,-86.36349000
18.46313477,-85.54697000
18.49365234,-86.68327000
18.52416992,-87.95898000
18.55468750,-86.83864000
18.58520508,-85.55310000
18.61572266,-85.67389000
18.64624023,-87.88080000
18.67675781,-93.17741000
18.70727539,-92.21336000
18.73779297,-88.41496000
18.76831055,-88.68086000
18.79882813,-92.34550000
18.82934570,-99.60529000
18.85986328,-113.32990000
18.89038086,-102.31630000
18.92089844,-98.40414000
18.95141602,-98.15273000
18.98193359,-101.30270000
19.01245117,-102.68930000
19.04296875,-98.40292000
19.07348633,-96.04668000
19.10400391,-95.86707000
19.13452148,-97.33496000
19.16503906,-98.93555000
19.19555664,-100.61580000
19.22607422,-104.37190000
19.25659180,-107.36450000
19.28710938,-103.39240000
19.31762695,-101.64400000
19.34814453,-97.14969000
19.37866211,-92.29222000
19.40917969,-90.55161000
19.43969727,-90.52077000
19.47021484,-90.43661000
19.50073242,-91.00844000
19.53125000,-93.37231000
19.56176758,-97.26128000
19.59228516,-99.20164000
19.62280273,-97.37538000
19.65332031,-95.74856000
19.68383789,-94.67548000
19.71435547,-94.44392000
19.74487305,-95.95107000
19.77539063,-100.24550000
19.80590820,-111.17330000
19.83642578,-108.73060000
19.86694336,-99.36665000
19.89746094,-95.02295000
19.92797852,-93.25736000
19.95849609,-93.02444000
19.98901367,-92.87642000
20.01953125,-91.64318000
20.05004883,-89.85053000
20.08056641,-87.82547000
20.11108398,-85.74977000
20.14160156,-84.52586000
20.17211914,-84.88382000
20.20263672,-86.67473000
20.23315430,-88.19453000
20.26367188,-87.95181000
20.29418945,-86.37618000
20.32470703,-84.61929000
20.35522461,-84.25592000
20.38574219,-85.54356000
20.41625977,-86.44582000
20.44677734,-87.55913000
20.47729492,-93.55901000
20.50781250,-88.27615000
20.53833008,-83.89728000
20.56884766,-84.27797000
20.59936523,-87.32642000
20.62988281,-89.43863000
20.66040039,-90.80997000
20.69091797,-92.90080000
20.72143555,-90.98946000
20.75195313,-88.15323000
20.78247070,-86.53942000
20.81298828,-85.12996000
20.84350586,-83.84192000
20.87402344,-83.88596000
20.90454102,-85.72458000
20.93505859,-86.93307000
20.96557617,-85.75698000
20.99609375,-85.27786000
21.02661133,-84.88231000
21.05712891,-83.11099000
21.08764648,-81.67327000
21.11816406,-81.88139000
21.14868164,-84.33691000
21.17919922,-90.81709000
21.20971680,-106.39560000
21.24023438,-91.20245000
21.27075195,-89.21240000
21.30126953,-90.86868000
21.33178711,-91.74786000
21.36230469,-88.00986000
21.39282227,-85.39600000
21.42333984,-84.94238000
21.45385742,-86.82118000
21.48437500,-91.49375000
21.51489258,-89.48187000
21.54541016,-84.24693000
21.57592773,-82.04987000
21.60644531,-81.94861000
21.63696289,-83.13797000
21.66748047,-85.03630000
21.69799805,-87.64744000
21.72851563,-91.35125000
21.75903320,-96.10886000
21.78955078,-100.74560000
21.82006836,-102.86360000
21.85058594,-96.39096000
21.88110352,-90.82861000
21.91162109,-86.78905000
21.94213867,-83.77450000
21.97265625,-82.08839000
22.00317383,-82.13535000
22.03369141,-84.06944000
22.06420898,-87.58750000
22.09472656,-91.30682000
22.12524414,-90.95491000
22.15576172,-87.21203000
22.18627930,-84.62147000
22.21679688,-83.54893000
22.24731445,-83.64441000
22.27783203,-84.90108000
22.30834961,-86.71395000
22.33886719,-86.53062000
22.36938477,-85.66689000
22.39990234,-87.10292000
22.43041992,-90.45447000
22.46093750,-88.20972000
22.49145508,-85.23076000
22.52197266,-85.14056000
22.55249023,-87.86171000
22.58300781,-91.58795000
22.61352539,-89.63955000
22.64404297,-86.72072000
22.67456055,-85.24560000
22.70507813,-85.01076000
22.73559570,-85.26833000
22.76611328,-84.90902000
22.79663086,-83.95625000
22.82714844,-83.25738000
22.85766602,-83.69340000
22.88818359,-86.16949000
22.91870117,-91.34026000
22.94921875,-93.40865000
22.97973633,-89.81815000
23.01025391,-87.37192000
23.04077148,-86.28014000
23.07128906,-86.93977000
23.10180664,-89.38998000
23.13232422,-92.91606000
23.16284180,-96.74371000
23.19335938,-102.26200000
23.22387695,-100.78870000
23.25439453,-95.06160000
23.28491211,-93.08689000
23.31542969,-93.09378000
23.34594727,-94.20235000
23.37646484,-97.42120000
23.40698242,-113.83070000
23.43750000,-96.20462000
23.46801758,-88.81049000
23.49853516,-85.54501000
23.52905273,-85.09514000
23.55957031,-87.07323000
23.59008789,-88.27290000
23.62060547,-85.76643000
23.65112305,-84.19688000
23.68164063,-84.61999000
23.71215820,-87.05589000
23.74267578,-92.01025000
23.77319336,-99.87323000
23.80371094,-96.70198000
23.83422852,-93.75017000
23.86474609,-95.65827000
23.89526367,-109.51490000
23.92578125,-94.86832000
23.95629883,-88.53987000
23.98681641,-86.08276000
24.01733398,-86.19537000
24.04785156,-89.23081000
24.07836914,-94.81289000
24.10888672,-91.32812000
24.13940430,-88.57816000
24.16992188,-88.11984000
24.20043945,-87.58005000
24.23095703,-86.82796000
24.26147461,-86.69882000
24.29199219,-87.13927000
24.32250977,-87.89680000
24.35302734,-88.98976000
24.38354492,-90.73090000
24.41406250,-93.22266000
24.44458008,-98.72284000
24.47509766,-93.08509000
24.50561523,-85.84247000
24.53613281,-83.20838000
24.56665039,-83.85599000
24.59716797,-87.76944000
24.62768555,-93.09222000
24.65820313,-89.55920000
24.68872070,-86.36911000
24.71923828,-85.24692000
24.74975586,-85.76104000
24.78027344,-87.49142000
24.81079102,-87.80841000
24.84130859,-85.70549000
24.87182617,-84.95044000
24.90234375,-87.21910000
24.93286133,-94.69064000
24.96337891,-99.79874000
24.99389648,-91.91231000
25.02441406,-89.94019000
25.05493164,-90.45712000
25.08544922,-93.28269000
25.11596680,-97.79741000
25.14648438,-93.69591000
25.17700195,-89.99741000
25.20751953,-89.64538000
25.23803711,-91.39769000
25.26855469,-94.18021000
25.29907227,-98.03621000
25.32958984,-103.10350000
25.36010742,-106.40840000
25.39062500,-103.84330000
25.42114258,-99.53912000
25.45166016,-95.80158000
25.48217773,-93.06939000
25.51269531,-91.48904000
25.54321289,-91.61906000
25.57373047,-95.16829000
25.60424805,-106.58220000
25.63476563,-94.66737000
25.66528320,-90.08424000
25.69580078,-88.41637000
25.72631836,-87.82780000
25.75683594,-87.18545000
25.78735352,-85.66593000
25.81787109,-83.60035000
25.84838867,-82.39320000
25.87890625,-83.27930000
25.90942383,-87.17546000
25.93994141,-94.13943000
25.97045898,-98.00246000
26.00097656,-105.96490000
26.03149414,-93.55915000
26.06201172,-86.99851000
26.09252930,-83.99994000
26.12304688,-83.01709000
26.15356445,-83.66936000
26.18408203,-86.02725000
26.21459961,-89.49667000
26.24511719,-91.57864000
26.27563477,-96.22887000
26.30615234,-93.42088000
26.33666992,-85.56408000
26.36718750,-82.68047000
26.39770508,-82.43206000
26.42822266,-84.28772000
26.45874023,-89.18571000
26.48925781,-110.18590000
26.51977539,-91.00475000
26.55029297,-85.82957000
26.58081055,-83.98373000
26.61132813,-83.60520000
26.64184570,-83.75294000
26.67236328,-84.06348000
26.70288086,-85.25813000
26.73339844,-88.18419000
26.76391602,-92.57565000
26.79443359,-94.35177000
26.82495117,-89.48795000
26.85546875,-85.47080000
26.88598633,-84.03350000
26.91650391,-84.49024000
26.94702148,-85.36782000
26.97753906,-85.47763000
27.00805664,-85.60693000
27.03857422,-87.20489000
27.06909180,-91.07030000
27.09960938,-98.23703000
27.13012695,-103.51480000
27.16064453,-94.61369000
27.19116211,-91.19019000
27.22167969,-90.11885000
27.25219727,-90.06268000
27.28271484,-90.95139000
27.31323242,-92.00946000
27.34375000,-92.48322000
27.37426758,-95.08205000
27.40478516,-104.27310000
27.43530273,-102.27760000
27.46582031,-94.46369000
27.49633789,-90.58389000
27.52685547,-88.52451000
27.55737305,-88.11817000
27.58789063,-88.89212000
27.61840820,-89.40060000
27.64892578,-89.29922000
27.67944336,-90.36958000
27.70996094,-95.15123000
27.74047852,-109.43370000
27.77099609,-92.45123000
27.80151367,-88.26845000
27.83203125,-87.23598000
27.86254883,-88.30286000
27.89306641,-90.37586000
27.92358398,-90.21539000
27.95410156,-89.09445000
27.98461914,-89.77599000
28.01513672,-93.00502000
28.04565430,-100.37620000
28.07617188,-106.33840000
28.10668945,-97.16452000
28.13720703,-93.85436000
28.16772461,-93.58656000
28.19824219,-95.46460000
28.22875977,-97.43195000
28.25927734,-98.73887000
28.28979492,-103.94100000
28.32031250,-102.44420000
28.35083008,-93.95798000
28.38134766,-91.08211000
28.41186523,-91.15643000
28.44238281,-93.01872000
28.47290039,-96.39240000
28.50341797,-102.98440000
28.53393555,-96.18848000
28.56445313,-90.36925000
28.59497070,-87.62206000
28.62548828,-86.35833000
28.65600586,-86.16886000
28.68652344,-87.31693000
28.71704102,-89.92311000
28.74755859,-93.52070000
28.77807617,-97.80678000
28.80859375,-102.21880000
28.83911133,-103.05520000
28.86962891,-98.92824000
28.90014648,-98.53529000
28.93066406,-104.05070000
28.96118164,-113.03510000
28.99169922,-98.52875000
29.02221680,-92.90375000
29.05273438,-90.00329000
29.08325195,-89.54803000
29.11376953,-91.31146000
29.14428711,-93.83862000
29.17480469,-95.21507000
29.20532227,-96.79268000
29.23583984,-99.31106000
29.26635742,-100.73770000
29.29687500,-99.28787000
29.32739258,-97.73618000
29.35791016,-98.28851000
29.38842773,-100.83360000
29.41894531,-100.13020000
29.44946289,-95.77307000
29.47998047,-91.23512000
29.51049805,-87.24464000
29.54101563,-84.68726000
29.57153320,-83.91232000
29.60205078,-84.71542000
29.63256836,-86.48486000
29.66308594,-88.43685000
29.69360352,-90.10965000
29.72412109,-91.69936000
29.75463867,-94.28453000
29.78515625,-99.25859000
29.81567383,-97.99995000
29.84619141,-93.68268000
29.87670898,-92.31885000
29.90722656,-93.54210000
29.93774414,-98.00513000
29.96826172,-98.99089000
29.99877930,-95.65552000
30.02929688,-94.91891000
30.05981445,-93.99818000
30.09033203,-91.64890000
30.12084961,-90.67375000
30.15136719,-92.67678000
30.18188477,-99.11300000
30.21240234,-124.29330000
30.24291992,-109.95300000
30.27343750,-119.06030000
30.30395508,-110.49700000
30.33447266,-107.43990000
30.36499023,-102.19640000
30.39550781,-98.60741000
30.42602539,-101.21080000
30.45654297,-105.46730000
30.48706055,-95.62791000
30.51757813,-91.42013000
30.54809570,-89.25079000
30.57861328,-88.18953000
30.60913086,-87.79319000
30.63964844,-87.68771000
30.67016602,-88.05347000
30.70068359,-89.32823000
30.73120117,-92.03145000
30.76171875,-96.52444000
30.79223633,-97.93766000
30.82275391,-97.01308000
30.85327148,-101.57470000
30.88378906,-107.80290000
30.91430664,-97.78737000
30.94482422,-94.84288000
30.97534180,-93.00610000
31.00585938,-91.24947000
31.03637695,-90.75633000
31.06689453,-92.57542000
31.09741211,-96.24210000
31.12792969,-98.18044000
31.15844727,-95.94058000
31.18896484,-94.55766000
31.21948242,-96.89121000
31.25000000,-96.19157000
31.28051758,-92.66926000
31.31103516,-92.42816000
31.34155273,-94.76244000
31.37207031,-96.97997000
31.40258789,-94.61785000
31.43310547,-92.44175000
31.46362305,-92.37775000
31.49414063,-93.53436000
31.52465820,-94.50790000
31.55517578,-94.13201000
31.58569336,-91.29746000
31.61621094,-88.58702000
31.64672852,-87.50882000
31.67724609,-88.21808000
31.70776367,-91.70338000
31.73828125,-103.18570000
31.76879883,-95.45909000
31.79931641,-91.51152000
31.82983398,-92.61311000
31.86035156,-98.07298000
31.89086914,-109.02890000
31.92138672,-97.38132000
31.95190430,-92.21927000
31.98242188,-90.56724000
32.01293945,-92.27429000
32.04345703,-94.98605000
32.07397461,-91.86371000
32.10449219,-90.08439000
32.13500977,-91.09503000
32.16552734,-93.93383000
32.19604492,-95.05957000
32.22656250,-92.43689000
32.25708008,-90.96294000
32.28759766,-92.03203000
32.31811523,-95.30698000
32.34863281,-98.95958000
32.37915039,-98.98929000
32.40966797,-97.17389000
32.44018555,-95.86517000
32.47070313,-95.36989000
32.50122070,-98.05685000
32.53173828,-112.23130000
32.56225586,-102.99690000
32.59277344,-97.11262000
32.62329102,-93.98116000
32.65380859,-93.58872000
32.68432617,-96.32031000
32.71484375,-101.37750000
32.74536133,-104.50670000
32.77587891,-102.31300000
32.80639648,-99.74129000
32.83691406,-99.11002000
32.86743164,-100.09400000
32.89794922,-102.50770000
32.92846680,-107.10240000
32.95898438,-114.56360000
32.98950195,-118.66850000
33.02001953,-110.21650000
33.05053711,-101.02500000
33.08105469,-94.76047000
33.11157227,-91.65071000
33.14208984,-91.04496000
33.17260742,-92.17886000
33.20312500,-94.83806000
33.23364258,-98.55544000
33.26416016,-101.65470000
33.29467773,-98.88078000
33.32519531,-93.95341000
33.35571289,-91.53494000
33.38623047,-90.87959000
33.41674805,-91.05605000
33.44726563,-91.06945000
33.47778320,-90.95894000
33.50830078,-91.31946000
33.53881836,-91.97845000
33.56933594,-92.32202000
33.59985352,-91.71375000
33.63037109,-90.89462000
33.66088867,-91.30502000
33.69140625,-92.95463000
33.72192383,-95.31125000
33.75244141,-100.62950000
33.78295898,-99.87009000
33.81347656,-91.79118000
33.84399414,-88.39717000
33.87451172,-87.89626000
33.90502930,-90.25447000
33.93554688,-96.23321000
33.96606445,-96.07193000
33.99658203,-92.40223000
34.02709961,-92.34832000
34.05761719,-94.66038000
34.08813477,-94.27952000
34.11865234,-91.31299000
34.14916992,-90.56773000
34.17968750,-92.27473000
34.21020508,-96.23363000
34.24072266,-104.69250000
34.27124023,-106.64680000
34.30175781,-98.94001000
34.33227539,-99.06129000
34.36279297,-101.94140000
34.39331055,-99.66911000
34.42382813,-97.90912000
34.45434570,-96.07598000
34.48486328,-94.01343000
34.51538086,-93.78165000
34.54589844,-94.21143000
34.57641602,-93.72337000
34.60693359,-94.83102000
34.63745117,-98.78510000
34.66796875,-98.29108000
34.69848633,-95.74677000
34.72900391,-95.80875000
34.75952148,-98.71410000
34.79003906,-111.75900000
34.82055664,-101.05990000
34.85107422,-96.18761000
34.88159180,-97.10479000
34.91210938,-100.98810000
34.94262695,-95.93216000
34.97314453,-93.13660000
35.00366211,-94.50837000
35.03417969,-100.27090000
35.06469727,-99.29877000
35.09521484,-92.89741000
35.12573242,-89.53320000
35.15625000,-87.86523000
35.18676758,-87.46802000
35.21728516,-88.37679000
35.24780273,-90.57710000
35.27832031,-93.12759000
35.30883789,-94.50873000
35.33935547,-95.10812000
35.36987305,-94.16714000
35.40039063,-91.84328000
35.43090820,-90.43484000
35.46142578,-90.82825000
35.49194336,-92.86336000
35.52246094,-93.67690000
35.55297852,-91.61492000
35.58349609,-89.99360000
35.61401367,-89.35179000
35.64453125,-89.56633000
35.67504883,-91.12497000
35.70556641,-93.87894000
35.73608398,-93.33844000
35.76660156,-91.47986000
35.79711914,-92.37273000
35.82763672,-96.48418000
35.85815430,-99.31476000
35.88867188,-97.75133000
35.91918945,-99.73130000
35.94970703,-103.20880000
35.98022461,-96.22016000
36.01074219,-92.45534000
36.04125977,-91.46547000
36.07177734,-92.20161000
36.10229492,-93.93857000
36.13281250,-96.08860000
36.16333008,-96.43460000
36.19384766,-94.01750000
36.22436523,-92.34687000
36.25488281,-92.61180000
36.28540039,-95.69215000
36.31591797,-98.99612000
36.34643555,-94.39761000
36.37695313,-92.06191000
36.40747070,-92.24698000
36.43798828,-92.37878000
36.46850586,-91.16689000
36.49902344,-91.01743000
36.52954102,-92.76212000
36.56005859,-95.41609000
36.59057617,-97.05122000
36.62109375,-97.29744000
36.65161133,-96.55091000
36.68212891,-95.04325000
36.71264648,-93.01399000
36.74316406,-91.00671000
36.77368164,-89.75862000
36.80419922,-89.63432000
36.83471680,-90.50816000
36.86523438,-91.89264000
36.89575195,-93.80954000
36.92626953,-97.32597000
36.95678711,-103.89000000
36.98730469,-103.27650000
37.01782227,-98.18053000
37.04833984,-97.16943000
37.07885742,-101.67500000
37.10937500,-99.89661000
37.13989258,-93.35811000
37.17041016,-92.53500000
37.20092773,-95.95914000
37.23144531,-100.53860000
37.26196289,-97.91016000
37.29248047,-96.80162000
37.32299805,-99.11917000
37.35351563,-106.97620000
37.38403320,-113.58500000
37.41455078,-107.73290000
37.44506836,-111.86050000
37.47558594,-108.35810000
37.50610352,-101.02570000
37.53662109,-97.68787000
37.56713867,-96.26083000
37.59765625,-96.02513000
37.62817383,-96.39917000
37.65869141,-96.60431000
37.68920898,-95.15820000
37.71972656,-93.10111000
37.75024414,-91.96715000
37.78076172,-91.96831000
37.81127930,-93.51067000
37.84179688,-97.91246000
37.87231445,-112.38610000
37.90283203,-103.97490000
37.93334961,-99.64937000
37.96386719,-99.21349000
37.99438477,-99.97357000
38.02490234,-102.50020000
38.05541992,-110.05700000
38.08593750,-105.49100000
38.11645508,-98.55423000
38.14697266,-95.96829000
38.17749023,-96.91478000
38.20800781,-105.13480000
38.23852539,-101.23100000
38.26904297,-93.25220000
38.29956055,-90.71204000
38.33007813,-90.71039000
38.36059570,-93.04892000
38.39111328,-99.77982000
38.42163086,-98.99989000
38.45214844,-92.87476000
38.48266602,-91.43811000
38.51318359,-93.33296000
38.54370117,-98.46355000
38.57421875,-100.50680000
38.60473633,-98.50151000
38.63525391,-98.96550000
38.66577148,-100.99450000
38.69628906,-101.42690000
38.72680664,-103.11690000
38.75732422,-110.53360000
38.78784180,-120.69380000
38.81835938,-101.07160000
38.84887695,-93.97499000
38.87939453,-90.69847000
38.90991211,-88.26917000
38.94042969,-86.57968000
38.97094727,-87.14237000
39.00146484,-90.30605000
39.03198242,-94.28959000
39.06250000,-94.85886000
39.09301758,-92.00825000
39.12353516,-89.70093000
39.15405273,-88.59138000
39.18457031,-87.73911000
39.21508789,-87.20663000
39.24560547,-87.90977000
39.27612305,-90.42915000
39.30664063,-94.92392000
39.33715820,-99.59567000
39.36767578,-98.92032000
39.39819336,-95.52190000
39.42871094,-93.74879000
39.45922852,-92.51812000
39.48974609,-89.85825000
39.52026367,-89.17751000
39.55078125,-92.58414000
39.58129883,-105.95680000
39.61181641,-95.16603000
39.64233398,-91.26538000
39.67285156,-91.43575000
39.70336914,-94.21024000
39.73388672,-97.39203000
39.76440430,-96.67059000
39.79492188,-95.66170000
39.82543945,-94.20139000
39.85595703,-89.70135000
39.88647461,-85.89928000
39.91699219,-84.03942000
39.94750977,-83.70311000
39.97802734,-84.77210000
40.00854492,-87.76709000
40.03906250,-94.39773000
40.06958008,-113.69420000
40.10009766,-96.87766000
40.13061523,-92.75928000
40.16113281,-89.66786000
40.19165039,-87.10634000
40.22216797,-86.08942000
40.25268555,-87.40314000
40.28320313,-92.09831000
40.31372070,-99.74538000
40.34423828,-93.85870000
40.37475586,-91.31374000
40.40527344,-92.78710000
40.43579102,-99.22720000
40.46630859,-97.68562000
40.49682617,-91.77483000
40.52734375,-88.93341000
40.55786133,-88.81776000
40.58837891,-93.57802000
40.61889648,-99.59425000
40.64941406,-88.83102000
40.67993164,-86.42551000
40.71044922,-88.01952000
40.74096680,-93.55660000
40.77148438,-95.00548000
40.80200195,-90.00138000
40.83251953,-88.22842000
40.86303711,-87.68665000
40.89355469,-86.45560000
40.92407227,-84.69621000
40.95458984,-84.19189000
40.98510742,-86.74267000
41.01562500,-98.20904000
41.04614258,-91.57793000
41.07666016,-85.16290000
41.10717773,-83.47475000
41.13769531,-84.20024000
41.16821289,-87.01112000
41.19873047,-90.82292000
41.22924805,-90.20746000
41.25976563,-87.97860000
41.29028320,-87.13767000
41.32080078,-87.43729000
41.35131836,-88.81054000
41.38183594,-91.28543000
41.41235352,-93.77728000
41.44287109,-95.43526000
41.47338867,-98.12324000
41.50390625,-90.81859000
41.53442383,-85.62445000
41.56494141,-83.86074000
41.59545898,-84.18339000
41.62597656,-86.39221000
41.65649414,-90.85855000
41.68701172,-95.73758000
41.71752930,-96.66611000
41.74804688,-93.02019000
41.77856445,-88.71941000
41.80908203,-88.35365000
41.83959961,-94.87357000
41.87011719,-93.55721000
41.90063477,-86.57635000
41.93115234,-84.17491000
41.96166992,-83.37966000
41.99218750,-83.81089000
42.02270508,-85.93647000
42.05322266,-90.00698000
42.08374023,-95.17459000
42.11425781,-101.09360000
42.14477539,-98.96411000
42.17529297,-88.96562000
42.20581055,-84.96558000
42.23632813,-85.34157000
42.26684570,-90.09254000
42.29736328,-96.96239000
42.32788086,-99.29108000
42.35839844,-93.81541000
42.38891602,-92.29861000
42.41943359,-93.69772000
42.44995117,-87.96111000
42.48046875,-84.54285000
42.51098633,-83.54027000
42.54150391,-83.35834000
42.57202148,-82.95810000
42.60253906,-82.41173000
42.63305664,-82.14852000
42.66357422,-82.31105000
42.69409180,-83.35907000
42.72460938,-85.29342000
42.75512695,-87.13736000
42.78564453,-89.71558000
42.81616211,-91.72303000
42.84667969,-87.06572000
42.87719727,-84.08868000
42.90771484,-83.80589000
42.93823242,-85.50111000
42.96875000,-87.58704000
42.99926758,-86.54835000
43.02978516,-84.74043000
43.06030273,-85.96725000
43.09082031,-93.46410000
43.12133789,-96.18329000
43.15185547,-86.71546000
43.18237305,-83.69656000
43.21289063,-83.35059000
43.24340820,-85.98244000
43.27392578,-91.90321000
43.30444336,-92.72263000
43.33496094,-94.38118000
43.36547852,-103.27090000
43.39599609,-93.69384000
43.42651367,-90.47029000
43.45703125,-90.48390000
43.48754883,-93.13835000
43.51806641,-94.50179000
43.54858398,-89.73987000
43.57910156,-87.86980000
43.60961914,-88.57384000
43.64013672,-89.60888000
43.67065430,-89.32970000
43.70117188,-89.08805000
43.73168945,-90.61288000
43.76220703,-93.97156000
43.79272461,-95.20222000
43.82324219,-90.95702000
43.85375977,-87.29555000
43.88427734,-86.27464000
43.91479492,-87.99281000
43.94531250,-91.11095000
43.97583008,-91.97086000
44.00634766,-89.76249000
44.03686523,-88.02944000
44.06738281,-88.87917000
44.09790039,-92.72343000
44.12841797,-98.77983000
44.15893555,-99.59975000
44.18945313,-96.50922000
44.21997070,-94.78195000
44.25048828,-94.78477000
44.28100586,-95.30654000
44.31152344,-94.23035000
44.34204102,-92.41022000
44.37255859,-91.05505000
44.40307617,-91.49151000
44.43359375,-94.85365000
44.46411133,-103.27300000
44.49462891,-104.28810000
44.52514648,-97.79059000
44.55566406,-94.39526000
44.58618164,-91.96440000
44.61669922,-90.62045000
44.64721680,-89.11263000
44.67773438,-86.97984000
44.70825195,-86.51381000
44.73876953,-89.07791000
44.76928711,-96.09723000
44.79980469,-101.19670000
44.83032227,-93.79660000
44.86083984,-90.55948000
44.89135742,-89.48319000
44.92187500,-89.61308000
44.95239258,-89.18637000
44.98291016,-87.97011000
45.01342773,-86.83081000
45.04394531,-86.73359000
45.07446289,-88.93800000
45.10498047,-95.21961000
45.13549805,-113.32450000
45.16601563,-96.60690000
45.19653320,-92.96191000
45.22705078,-92.79400000
45.25756836,-95.18188000
45.28808594,-96.93063000
45.31860352,-93.93119000
45.34912109,-89.86190000
45.37963867,-87.97701000
45.41015625,-88.76791000
45.44067383,-92.60235000
45.47119141,-102.32710000
45.50170898,-95.80146000
45.53222656,-90.73228000
45.56274414,-90.04921000
45.59326172,-92.04945000
45.62377930,-93.91306000
45.65429688,-91.97177000
45.68481445,-89.21628000
45.71533203,-89.26994000
45.74584961,-95.08189000
45.77636719,-100.85490000
45.80688477,-90.27171000
45.83740234,-87.64465000
45.86791992,-87.58465000
45.89843750,-89.17201000
45.92895508,-92.19719000
45.95947266,-95.51830000
45.98999023,-93.22542000
46.02050781,-89.88644000
46.05102539,-89.62894000
46.08154297,-93.55968000
46.11206055,-104.75030000
46.14257813,-94.46474000
46.17309570,-90.72079000
46.20361328,-90.55111000
46.23413086,-92.86239000
46.26464844,-95.86240000
46.29516602,-95.58038000
46.32568359,-94.50199000
46.35620117,-94.03080000
46.38671875,-94.54202000
46.41723633,-97.84567000
46.44775391,-107.29420000
46.47827148,-104.54860000
46.50878906,-100.00810000
46.53930664,-97.14214000
46.56982422,-95.87267000
46.60034180,-97.68739000
46.63085938,-98.64136000
46.66137695,-95.13062000
46.69189453,-92.78690000
46.72241211,-92.28833000
46.75292969,-93.90557000
46.78344727,-97.81937000
46.81396484,-104.23000000
46.84448242,-108.75760000
46.87500000,-101.42440000
46.90551758,-98.38284000
46.93603516,-99.17508000
46.96655273,-102.84140000
46.99707031,-99.90193000
47.02758789,-96.11321000
47.05810547,-96.52981000
47.08862305,-103.70380000
47.11914063,-99.52364000
47.14965820,-93.44688000
47.18017578,-92.46967000
47.21069336,-94.99892000
47.24121094,-101.00170000
47.27172852,-103.40050000
47.30224609,-101.22900000
47.33276367,-101.15630000
47.36328125,-100.47000000
47.39379883,-99.13017000
47.42431641,-98.91132000
47.45483398,-99.96788000
47.48535156,-100.75890000
47.51586914,-99.45565000
47.54638672,-98.45940000
47.57690430,-99.11797000
47.60742188,-100.03860000
47.63793945,-100.91150000
47.66845703,-104.23880000
47.69897461,-106.63920000
47.72949219,-103.46380000
47.76000977,-101.02060000
47.79052734,-99.29165000
47.82104492,-97.56070000
47.85156250,-95.14056000
47.88208008,-93.08685000
47.91259766,-92.00940000
47.94311523,-91.93788000
47.97363281,-92.86659000
48.00415039,-95.05386000
48.03466797,-97.58073000
48.06518555,-95.99281000
48.09570313,-94.92454000
48.12622070,-98.18841000
48.15673828,-98.20705000
48.18725586,-93.95891000
48.21777344,-92.99575000
48.24829102,-92.91052000
48.27880859,-93.14803000
48.30932617,-94.72606000
48.33984375,-99.24867000
48.37036133,-103.37840000
48.40087891,-95.95605000
48.43139648,-92.01727000
48.46191406,-90.41220000
48.49243164,-91.10260000
48.52294922,-94.46773000
48.55346680,-100.57100000
48.58398438,-106.47080000
48.61450195,-103.58020000
48.64501953,-98.38550000
48.67553711,-91.84813000
48.70605469,-87.67091000
48.73657227,-86.82161000
48.76708984,-89.08359000
48.79760742,-94.16831000
48.82812500,-101.12290000
48.85864258,-104.91360000
48.88916016,-102.68170000
48.91967773,-102.85860000
48.95019531,-99.18811000
48.98071289,-93.63168000
49.01123047,-90.06590000
49.04174805,-88.12524000
49.07226563,-88.76299000
49.10278320,-93.70222000
49.13330078,-109.42210000
49.16381836,-102.40090000
49.19433594,-102.37370000
49.22485352,-99.40080000
49.25537109,-97.09210000
49.28588867,-97.44669000
49.31640625,-99.24036000
49.34692383,-97.16590000
49.37744141,-94.48241000
49.40795898,-95.03732000
49.43847656,-97.24072000
49.46899414,-96.19902000
49.49951172,-92.86061000
49.53002930,-90.38142000
49.56054688,-89.78237000
49.59106445,-91.31230000
49.62158203,-96.21657000
49.65209961,-98.23978000
49.68261719,-89.54066000
49.71313477,-85.39597000
49.74365234,-83.94144000
49.77416992,-84.45737000
49.80468750,-86.42121000
49.83520508,-88.98853000
49.86572266,-91.32011000
49.89624023,-93.85820000
49.92675781,-97.97691000
49.95727539,-105.36530000
49.98779297,-95.57095000
50.01831055,-89.15770000
