Frequency,Channel A
(MHz),(dBu)

0.00000000,-30.46893000
0.03051758,-30.97147000
0.06103516,-36.64802000
0.09155273,-46.98942000
0.12207031,-55.46240000
0.15258789,-62.01946000
0.18310547,-62.97034000
0.21362305,-65.36340000
0.24414063,-69.88633000
0.27465820,-70.72553000
0.30517578,-66.51154000
0.33569336,-66.30750000
0.36621094,-70.60352000
0.39672852,-66.48799000
0.42724609,-63.38211000
0.45776367,-62.63195000
0.48828125,-62.10493000
0.51879883,-63.29699000
0.54931641,-61.96642000
0.57983398,-58.51818000
0.61035156,-54.57934000
0.64086914,-51.52790000
0.67138672,-51.37575000
0.70190430,-54.54233000
0.73242188,-58.85604000
0.76293945,-57.67704000
0.79345703,-57.68295000
0.82397461,-61.13247000
0.85449219,-62.71568000
0.88500977,-60.60151000
0.91552734,-61.39558000
0.94604492,-63.01074000
0.97656250,-62.50145000
1.00708008,-62.86560000
1.03759766,-64.79943000
1.06811523,-67.27719000
1.09863281,-71.47948000
1.12915039,-72.22798000
1.15966797,-67.14705000
1.19018555,-64.75475000
1.22070313,-62.82685000
1.25122070,-62.94708000
1.28173828,-65.31747000
1.31225586,-66.17506000
1.34277344,-67.14745000
1.37329102,-74.30850000
1.40380859,-71.63842000
1.43432617,-65.94530000
1.46484375,-65.95213000
1.49536133,-71.15250000
1.52587891,-70.40818000
1.55639648,-65.39301000
1.58691406,-65.56123000
1.61743164,-68.70459000
1.64794922,-67.42996000
1.67846680,-65.15527000
1.70898438,-65.51850000
1.73950195,-68.85903000
1.77001953,-76.48771000
1.80053711,-73.25591000
1.83105469,-69.68001000
1.86157227,-68.37451000
1.89208984,-67.73815000
1.92260742,-69.98105000
1.95312500,-75.75359000
1.98364258,-68.25960000
2.01416016,-65.25558000
2.04467773,-66.89256000
2.07519531,-74.05223000
2.10571289,-82.30821000
2.13623047,-74.65792000
2.16674805,-74.14816000
2.19726563,-75.62965000
2.22778320,-72.11870000
2.25830078,-68.30449000
2.28881836,-66.96239000
2.31933594,-67.15205000
2.34985352,-67.96443000
2.38037109,-69.59517000
2.41088867,-72.79518000
2.44140625,-75.02971000
2.47192383,-72.57300000
2.50244141,-71.43526000
2.53295898,-72.63000000
2.56347656,-74.31152000
2.59399414,-72.03637000
2.62451172,-68.81071000
2.65502930,-67.59377000
2.68554688,-68.35936000
2.71606445,-69.29422000
2.74658203,-69.27429000
2.77709961,-70.43619000
2.80761719,-71.36806000
2.83813477,-69.81042000
2.86865234,-68.73418000
2.89916992,-67.54556000
2.92968750,-66.21044000
2.96020508,-66.64772000
2.99072266,-69.67551000
3.02124023,-71.84309000
3.05175781,-69.71534000
3.08227539,-69.05849000
3.11279297,-70.21444000
3.14331055,-72.54231000
3.17382813,-75.86998000
3.20434570,-77.29544000
3.23486328,-74.06368000
3.26538086,-70.67621000
3.29589844,-68.39629000
3.32641602,-67.27433000
3.35693359,-67.03876000
3.38745117,-67.43117000
3.41796875,-67.81124000
3.44848633,-67.34676000
3.47900391,-66.88921000
3.50952148,-67.42056000
3.54003906,-68.56421000
3.57055664,-68.76630000
3.60107422,-67.57339000
3.63159180,-66.37176000
3.66210938,-65.98262000
3.69262695,-66.35390000
3.72314453,-66.69933000
3.75366211,-66.64780000
3.78417969,-67.42578000
3.81469727,-69.53998000
3.84521484,-70.00693000
3.87573242,-69.02924000
3.90625000,-69.35503000
3.93676758,-68.36949000
3.96728516,-65.97396000
3.99780273,-65.19402000
4.02832031,-66.61569000
4.05883789,-69.52428000
4.08935547,-70.82436000
4.11987305,-69.79112000
4.15039063,-68.57460000
4.18090820,-67.98866000
4.21142578,-68.63552000
4.24194336,-70.05978000
4.27246094,-70.64121000
4.30297852,-70.64246000
4.33349609,-71.53155000
4.36401367,-72.27383000
4.39453125,-70.64712000
4.42504883,-68.97363000
4.45556641,-68.48486000
4.48608398,-68.48206000
4.51660156,-68.32772000
4.54711914,-68.15324000
4.57763672,-68.30771000
4.60815430,-68.81091000
4.63867188,-69.07441000
4.66918945,-69.05685000
4.69970703,-69.31219000
4.73022461,-69.25685000
4.76074219,-68.54305000
4.79125977,-67.97323000
4.82177734,-68.01795000
4.85229492,-68.55440000
4.88281250,-68.34371000
4.91333008,-67.09666000
4.94384766,-66.96002000
4.97436523,-69.25695000
5.00488281,-73.53177000
5.03540039,-72.48720000
5.06591797,-69.26540000
5.09643555,-68.07051000
5.12695313,-68.78484000
5.15747070,-70.66891000
5.18798828,-71.59029000
5.21850586,-71.51364000
5.24902344,-71.68158000
5.27954102,-72.06697000
5.31005859,-73.33189000
5.34057617,-75.79051000
5.37109375,-77.98441000
5.40161133,-77.49553000
5.43212891,-75.59423000
5.46264648,-73.67039000
5.49316406,-72.07876000
5.52368164,-71.27648000
5.55419922,-70.95663000
5.58471680,-69.68074000
5.61523438,-67.65157000
5.64575195,-66.16513000
5.67626953,-65.40099000
5.70678711,-64.95972000
5.73730469,-64.37193000
5.76782227,-63.51073000
5.79833984,-62.66296000
5.82885742,-62.12080000
5.85937500,-62.10806000
5.88989258,-62.62003000
5.92041016,-63.01022000
5.95092773,-62.82156000
5.98144531,-62.80872000
6.01196289,-63.62665000
6.04248047,-64.84752000
6.07299805,-65.12330000
6.10351563,-64.70466000
6.13403320,-64.79137000
6.16455078,-65.23148000
6.19506836,-65.54837000
6.22558594,-66.05137000
6.25610352,-67.00672000
6.28662109,-68.12233000
6.31713867,-68.70290000
6.34765625,-68.30291000
6.37817383,-67.78111000
6.40869141,-68.12926000
6.43920898,-69.36406000
6.46972656,-70.79202000
6.50024414,-71.95863000
6.53076172,-73.14533000
6.56127930,-74.51003000
6.59179688,-75.32325000
6.62231445,-75.57426000
6.65283203,-76.95036000
6.68334961,-80.44308000
6.71386719,-83.38351000
6.74438477,-81.59148000
6.77490234,-79.83060000
6.80541992,-79.41499000
6.83593750,-80.43854000
6.86645508,-83.97533000
6.89697266,-89.06140000
6.92749023,-80.48881000
6.95800781,-75.88640000
6.98852539,-74.78337000
7.01904297,-77.49332000
7.04956055,-91.86812000
7.08007813,-80.96179000
7.11059570,-76.12397000
7.14111328,-75.85019000
7.17163086,-77.35925000
7.20214844,-79.34546000
7.23266602,-82.85558000
7.26318359,-90.80992000
7.29370117,-84.54123000
7.32421875,-80.30063000
7.35473633,-80.53452000
7.38525391,-85.16579000
7.41577148,-95.94722000
7.44628906,-90.95110000
7.47680664,-89.89545000
7.50732422,-90.79655000
7.53784180,-90.09656000
7.56835938,-88.08670000
7.59887695,-85.84592000
7.62939453,-84.09402000
7.65991211,-83.79622000
7.69042969,-86.14850000
7.72094727,-93.07418000
7.75146484,-92.60746000
7.78198242,-86.96212000
7.81250000,-83.58755000
7.84301758,-81.55025000
7.87353516,-81.57608000
7.90405273,-84.59616000
7.93457031,-92.74064000
7.96508789,-93.57896000
7.99560547,-91.00956000
8.02612305,-91.57454000
8.05664063,-87.93779000
8.08715820,-85.50388000
8.11767578,-85.71063000
8.14819336,-86.30161000
8.17871094,-84.84081000
8.20922852,-83.55462000
8.23974609,-83.71532000
8.27026367,-85.52907000
8.30078125,-88.04112000
8.33129883,-86.62353000
8.36181641,-83.99566000
8.39233398,-83.00285000
8.42285156,-83.84932000
8.45336914,-86.41109000
8.48388672,-89.00548000
8.51440430,-87.46158000
8.54492188,-85.18620000
8.57543945,-84.77990000
8.60595703,-84.17599000
8.63647461,-83.58983000
8.66699219,-85.08028000
8.69750977,-87.50793000
8.72802734,-86.83592000
8.75854492,-85.87508000
8.78906250,-86.11923000
8.81958008,-87.43439000
8.85009766,-90.95641000
8.88061523,-92.26924000
8.91113281,-90.13749000
8.94165039,-91.84261000
8.97216797,-98.89957000
9.00268555,-109.45530000
9.03320313,-95.29297000
9.06372070,-89.95968000
9.09423828,-87.37907000
9.12475586,-86.85441000
9.15527344,-88.30705000
9.18579102,-92.02402000
9.21630859,-94.77800000
9.24682617,-91.81454000
9.27734375,-89.07263000
9.30786133,-88.00892000
9.33837891,-89.92488000
9.36889648,-95.84612000
9.39941406,-92.83237000
9.42993164,-88.45476000
9.46044922,-86.82481000
9.49096680,-87.61304000
9.52148438,-91.23842000
9.55200195,-97.40285000
9.58251953,-93.20760000
9.61303711,-87.46237000
9.64355469,-84.95025000
9.67407227,-86.35139000
9.70458984,-93.78986000
9.73510742,-94.89960000
9.76562500,-90.68367000
9.79614258,-91.67572000
9.82666016,-96.71375000
9.85717773,-91.05574000
9.88769531,-86.33942000
9.91821289,-85.16280000
9.94873047,-84.25272000
9.97924805,-82.05484000
10.00976563,-80.54577000
10.04028320,-81.57687000
10.07080078,-86.99508000
10.10131836,-97.22144000
10.13183594,-87.08497000
10.16235352,-84.16640000
10.19287109,-83.43228000
10.22338867,-82.61031000
10.25390625,-80.84068000
10.28442383,-79.64004000
10.31494141,-80.46622000
10.34545898,-83.50517000
10.37597656,-87.61352000
10.40649414,-89.78038000
10.43701172,-85.79611000
10.46752930,-81.99205000
10.49804688,-79.92292000
10.52856445,-79.70071000
10.55908203,-82.16246000
10.58959961,-88.37758000
10.62011719,-85.78424000
10.65063477,-83.97290000
10.68115234,-86.10181000
10.71166992,-87.57256000
10.74218750,-88.22884000
10.77270508,-90.09800000
10.80322266,-99.51295000
10.83374023,-91.32737000
10.86425781,-85.69520000
10.89477539,-82.66113000
10.92529297,-80.80350000
10.95581055,-81.13339000
10.98632813,-81.10787000
11.01684570,-80.21148000
11.04736328,-81.69236000
11.07788086,-85.62569000
11.10839844,-84.74770000
11.13891602,-81.44345000
11.16943359,-79.72211000
11.19995117,-78.58257000
11.23046875,-77.10593000
11.26098633,-76.77583000
11.29150391,-80.37047000
11.32202148,-94.29083000
11.35253906,-80.33737000
11.38305664,-77.35365000
11.41357422,-77.60014000
11.44409180,-78.40878000
11.47460938,-79.18108000
11.50512695,-81.14639000
11.53564453,-83.36736000
11.56616211,-80.53710000
11.59667969,-78.21436000
11.62719727,-78.56657000
11.65771484,-78.74589000
11.68823242,-77.49239000
11.71875000,-77.87631000
11.74926758,-80.38116000
11.77978516,-84.12284000
11.81030273,-93.92632000
11.84082031,-87.76923000
11.87133789,-80.94461000
11.90185547,-81.17984000
11.93237305,-86.22082000
11.96289063,-79.46905000
11.99340820,-75.97554000
12.02392578,-77.03794000
12.05444336,-82.53536000
12.08496094,-93.60905000
12.11547852,-90.41160000
12.14599609,-89.27177000
12.17651367,-89.66096000
12.20703125,-86.88834000
12.23754883,-87.44322000
12.26806641,-101.85170000
12.29858398,-85.27435000
12.32910156,-81.57651000
12.35961914,-83.07685000
12.39013672,-89.57405000
12.42065430,-102.10170000
12.45117188,-90.55983000
12.48168945,-84.48680000
12.51220703,-79.52709000
12.54272461,-75.72568000
12.57324219,-73.87884000
12.60375977,-74.77206000
12.63427734,-79.19827000
12.66479492,-82.68121000
12.69531250,-81.42503000
12.72583008,-84.85434000
12.75634766,-87.10925000
12.78686523,-83.73285000
12.81738281,-81.47069000
12.84790039,-80.63239000
12.87841797,-83.04363000
12.90893555,-86.08012000
12.93945313,-80.99760000
12.96997070,-78.36740000
13.00048828,-78.57596000
13.03100586,-80.66528000
13.06152344,-84.27719000
13.09204102,-87.86777000
13.12255859,-85.30409000
13.15307617,-83.54318000
13.18359375,-83.82251000
13.21411133,-84.50574000
13.24462891,-86.28958000
13.27514648,-91.36864000
13.30566406,-91.80159000
13.33618164,-86.17248000
13.36669922,-85.60642000
13.39721680,-93.04259000
13.42773438,-95.21745000
13.45825195,-104.64270000
13.48876953,-76.15393000
13.51928711,-67.79533000
13.54980469,-64.37284000
13.58032227,-64.47539000
13.61083984,-67.93286000
13.64135742,-74.88921000
13.67187500,-76.87925000
13.70239258,-71.67892000
13.73291016,-68.50356000
13.76342773,-67.95692000
13.79394531,-70.18620000
13.82446289,-74.45229000
13.85498047,-76.00652000
13.88549805,-75.96826000
13.91601563,-78.13580000
13.94653320,-80.91826000
13.97705078,-81.40382000
14.00756836,-83.62586000
14.03808594,-92.01179000
14.06860352,-95.49247000
14.09912109,-89.27344000
14.12963867,-86.92792000
14.16015625,-85.60035000
14.19067383,-86.10725000
14.22119141,-91.79031000
14.25170898,-92.56747000
14.28222656,-82.37708000
14.31274414,-80.02480000
14.34326172,-82.70309000
14.37377930,-95.99845000
14.40429688,-83.49364000
14.43481445,-79.31322000
14.46533203,-78.60136000
14.49584961,-78.68867000
14.52636719,-78.51759000
14.55688477,-79.46851000
14.58740234,-83.65427000
14.61791992,-83.57492000
14.64843750,-78.17429000
14.67895508,-76.61417000
14.70947266,-77.73261000
14.73999023,-80.64154000
14.77050781,-84.03758000
14.80102539,-85.07935000
14.83154297,-85.64624000
14.86206055,-88.20892000
14.89257813,-84.37141000
14.92309570,-80.24347000
14.95361328,-79.21996000
14.98413086,-80.82626000
15.01464844,-85.27038000
15.04516602,-96.76031000
15.07568359,-90.62554000
15.10620117,-84.30790000
15.13671875,-83.41335000
15.16723633,-88.96272000
15.19775391,-89.36954000
15.22827148,-81.63905000
15.25878906,-80.69823000
15.28930664,-83.34535000
15.31982422,-87.82059000
15.35034180,-91.06599000
15.38085938,-94.17101000
15.41137695,-110.15490000
15.44189453,-88.37246000
15.47241211,-83.55820000
15.50292969,-82.56176000
15.53344727,-83.38310000
15.56396484,-85.47723000
15.59448242,-90.18593000
15.62500000,-102.15000000
15.65551758,-97.20436000
15.68603516,-92.40498000
15.71655273,-91.89449000
15.74707031,-91.83569000
15.77758789,-90.16723000
15.80810547,-87.72549000
15.83862305,-85.63358000
15.86914063,-85.12310000
15.89965820,-85.62297000
15.93017578,-85.52095000
15.96069336,-84.72104000
15.99121094,-84.81424000
16.02172852,-87.18268000
16.05224609,-93.86681000
16.08276367,-109.57360000
16.11328125,-94.53830000
16.14379883,-92.70203000
16.17431641,-93.11269000
16.20483398,-93.30863000
16.23535156,-93.53915000
16.26586914,-94.13064000
16.29638672,-98.26361000
16.32690430,-91.44778000
16.35742188,-87.21767000
16.38793945,-87.17930000
16.41845703,-90.35541000
16.44897461,-96.75203000
16.47949219,-98.58072000
16.51000977,-98.95496000
16.54052734,-98.89820000
16.57104492,-95.72748000
16.60156250,-95.92095000
16.63208008,-97.84918000
16.66259766,-98.12580000
16.69311523,-99.34795000
16.72363281,-102.11450000
16.75415039,-101.01890000
16.78466797,-98.90397000
16.81518555,-100.72550000
16.84570313,-105.12790000
16.87622070,-101.04050000
16.90673828,-102.05860000
16.93725586,-92.39129000
16.96777344,-86.78421000
16.99829102,-85.66246000
17.02880859,-88.14187000
17.05932617,-93.47055000
17.08984375,-102.40110000
17.12036133,-97.33334000
17.15087891,-91.57330000
17.18139648,-90.16406000
17.21191406,-89.74626000
17.24243164,-89.87209000
17.27294922,-90.93429000
17.30346680,-91.22957000
17.33398438,-90.13838000
17.36450195,-89.08516000
17.39501953,-88.81796000
17.42553711,-91.23552000
17.45605469,-104.45720000
17.48657227,-93.92510000
17.51708984,-88.34447000
17.54760742,-86.91367000
17.57812500,-87.71744000
17.60864258,-90.07318000
17.63916016,-90.03326000
17.66967773,-89.18987000
17.70019531,-87.92106000
17.73071289,-85.09429000
17.76123047,-83.65425000
17.79174805,-83.34308000
17.82226563,-83.17002000
17.85278320,-83.55842000
17.88330078,-85.92668000
17.91381836,-91.78369000
17.94433594,-96.59315000
17.97485352,-97.57829000
18.00537109,-105.50870000
18.03588867,-94.58600000
18.06640625,-92.08482000
18.09692383,-95.25597000
18.12744141,-102.18430000
18.15795898,-96.41058000
18.18847656,-96.61370000
18.21899414,-103.08060000
18.24951172,-103.77480000
18.28002930,-95.45313000
18.31054688,-92.15199000
18.34106445,-92.70134000
18.37158203,-96.36631000
18.40209961,-100.44520000
18.43261719,-98.67070000
18.46313477,-93.98703000
18.49365234,-90.96374000
18.52416992,-90.25908000
18.55468750,-92.36168000
18.58520508,-96.68873000
18.61572266,-96.18854000
18.64624023,-95.85911000
18.67675781,-99.19035000
18.70727539,-103.04390000
18.73779297,-102.58660000
18.76831055,-98.19881000
18.79882813,-94.57320000
18.82934570,-92.95976000
18.85986328,-94.22012000
18.89038086,-97.44582000
18.92089844,-95.91114000
18.95141602,-96.86632000
18.98193359,-104.47870000
19.01245117,-98.96442000
19.04296875,-95.80115000
19.07348633,-95.90245000
19.10400391,-97.68269000
19.13452148,-100.25130000
19.16503906,-102.12470000
19.19555664,-103.28850000
19.22607422,-102.30460000
19.25659180,-99.89114000
19.28710938,-102.02160000
19.31762695,-106.54610000
19.34814453,-96.70020000
19.37866211,-93.43640000
19.40917969,-93.97150000
19.43969727,-99.17549000
19.47021484,-115.15630000
19.50073242,-100.26560000
19.53125000,-100.29800000
19.56176758,-108.18590000
19.59228516,-109.63300000
19.62280273,-101.79240000
19.65332031,-98.03933000
19.68383789,-96.36631000
19.71435547,-98.41948000
19.74487305,-106.54350000
19.77539063,-97.73808000
19.80590820,-95.40060000
19.83642578,-100.06130000
19.86694336,-102.73820000
19.89746094,-98.42154000
19.92797852,-108.35640000
19.95849609,-94.20872000
19.98901367,-89.33145000
20.01953125,-89.73618000
20.05004883,-93.62537000
20.08056641,-97.08779000
20.11108398,-95.07854000
20.14160156,-90.23143000
20.17211914,-87.73691000
20.20263672,-87.97322000
20.23315430,-90.99321000
20.26367188,-97.92633000
20.29418945,-116.93830000
20.32470703,-94.72762000
20.35522461,-88.87112000
20.38574219,-87.86589000
20.41625977,-91.50581000
20.44677734,-114.63310000
20.47729492,-91.23306000
20.50781250,-88.14513000
20.53833008,-91.55861000
20.56884766,-88.81963000
20.59936523,-83.96863000
20.62988281,-83.75647000
20.66040039,-86.73878000
20.69091797,-89.45790000
20.72143555,-89.62477000
20.75195313,-92.16475000
20.78247070,-95.02234000
20.81298828,-95.95180000
20.84350586,-109.42050000
20.87402344,-89.65424000
20.90454102,-86.35125000
20.93505859,-88.75652000
20.96557617,-95.54913000
20.99609375,-95.16618000
21.02661133,-95.08373000
21.05712891,-91.47991000
21.08764648,-90.21812000
21.11816406,-94.41154000
21.14868164,-112.80800000
21.17919922,-94.80816000
21.20971680,-91.71848000
21.24023438,-91.04027000
21.27075195,-91.19055000
21.30126953,-91.49123000
21.33178711,-90.33484000
21.36230469,-89.00739000
21.39282227,-89.01768000
21.42333984,-91.00536000
21.45385742,-97.22919000
21.48437500,-113.85240000
21.51489258,-100.38110000
21.54541016,-97.65117000
21.57592773,-92.39424000
21.60644531,-90.51864000
21.63696289,-92.48383000
21.66748047,-96.84224000
21.69799805,-96.29579000
21.72851563,-95.70824000
21.75903320,-99.38938000
21.78955078,-96.28893000
21.82006836,-94.20233000
21.85058594,-107.57340000
21.88110352,-92.17204000
21.91162109,-87.28577000
21.94213867,-87.98351000
21.97265625,-93.00293000
22.00317383,-106.70250000
22.03369141,-95.88422000
22.06420898,-91.04594000
22.09472656,-90.83913000
22.12524414,-93.11092000
22.15576172,-95.16517000
22.18627930,-95.97649000
22.21679688,-100.85320000
22.24731445,-103.17170000
22.27783203,-92.37278000
22.30834961,-90.09301000
22.33886719,-92.01508000
22.36938477,-99.01122000
22.39990234,-95.85112000
22.43041992,-91.22679000
22.46093750,-90.94193000
22.49145508,-93.08702000
22.52197266,-95.75081000
22.55249023,-97.51306000
22.58300781,-101.63570000
22.61352539,-108.21310000
22.64404297,-95.79125000
22.67456055,-92.43848000
22.70507813,-92.72454000
22.73559570,-96.90060000
22.76611328,-101.03300000
22.79663086,-91.67632000
22.82714844,-88.62311000
22.85766602,-89.08131000
22.88818359,-92.03186000
22.91870117,-96.18527000
22.94921875,-97.77063000
22.97973633,-95.04376000
23.01025391,-91.84386000
23.04077148,-89.88837000
23.07128906,-89.43211000
23.10180664,-90.95539000
23.13232422,-95.32711000
23.16284180,-100.40310000
23.19335938,-99.80348000
23.22387695,-97.73302000
23.25439453,-96.99840000
23.28491211,-102.27490000
23.31542969,-102.22720000
23.34594727,-94.72049000
23.37646484,-91.43365000
23.40698242,-90.46188000
23.43750000,-91.40089000
23.46801758,-90.58571000
23.49853516,-87.96785000
23.52905273,-87.44051000
23.55957031,-89.15704000
23.59008789,-92.01958000
23.62060547,-95.81529000
23.65112305,-99.74786000
23.68164063,-100.91980000
23.71215820,-103.69350000
23.74267578,-107.88390000
23.77319336,-95.42403000
23.80371094,-90.58072000
23.83422852,-89.66844000
23.86474609,-91.83418000
23.89526367,-96.82233000
23.92578125,-102.48230000
23.95629883,-104.91400000
23.98681641,-101.49640000
24.01733398,-97.96048000
24.04785156,-95.94341000
24.07836914,-94.29806000
24.10888672,-93.54561000
24.13940430,-95.17731000
24.16992188,-101.25620000
24.20043945,-99.31110000
24.23095703,-93.81870000
24.26147461,-92.83375000
24.29199219,-94.76842000
24.32250977,-97.34996000
24.35302734,-98.41327000
24.38354492,-95.96081000
24.41406250,-93.41602000
24.44458008,-94.79434000
24.47509766,-98.97721000
24.50561523,-95.03424000
24.53613281,-92.98249000
24.56665039,-94.21671000
24.59716797,-97.77839000
24.62768555,-98.23036000
24.65820313,-95.54961000
24.68872070,-95.93242000
24.71923828,-98.87955000
24.74975586,-102.44130000
24.78027344,-103.18070000
24.81079102,-97.87338000
24.84130859,-94.27324000
24.87182617,-92.64703000
24.90234375,-92.43495000
24.93286133,-93.84820000
24.96337891,-98.78268000
24.99389648,-114.06690000
25.02441406,-101.17000000
25.05493164,-101.52800000
25.08544922,-96.38737000
25.11596680,-92.25098000
25.14648438,-91.42473000
25.17700195,-89.97981000
25.20751953,-88.21110000
25.23803711,-88.63720000
25.26855469,-91.69929000
25.29907227,-95.25026000
25.32958984,-94.70573000
25.36010742,-94.07357000
25.39062500,-94.04796000
25.42114258,-95.49610000
25.45166016,-103.00010000
25.48217773,-103.70490000
25.51269531,-96.45511000
25.54321289,-95.64127000
25.57373047,-96.59044000
25.60424805,-94.81300000
25.63476563,-92.13414000
25.66528320,-91.93178000
25.69580078,-95.35968000
25.72631836,-93.99750000
25.75683594,-88.77530000
25.78735352,-87.09209000
25.81787109,-88.11340000
25.84838867,-91.12152000
25.87890625,-93.88814000
25.90942383,-93.64025000
25.93994141,-92.74945000
25.97045898,-92.19089000
26.00097656,-93.54289000
26.03149414,-98.77477000
26.06201172,-92.87448000
26.09252930,-88.31097000
26.12304688,-87.41570000
26.15356445,-88.57095000
26.18408203,-90.59444000
26.21459961,-94.36337000
26.24511719,-102.37290000
26.27563477,-97.26213000
26.30615234,-95.19352000
26.33666992,-95.97430000
26.36718750,-96.80594000
26.39770508,-98.10590000
26.42822266,-99.43318000
26.45874023,-97.10448000
26.48925781,-91.87675000
26.51977539,-88.12425000
26.55029297,-86.71879000
26.58081055,-87.76977000
26.61132813,-91.76492000
26.64184570,-100.96270000
26.67236328,-100.53300000
26.70288086,-94.40895000
26.73339844,-91.70476000
26.76391602,-91.34558000
26.79443359,-94.69779000
26.82495117,-102.43010000
26.85546875,-92.46543000
26.88598633,-89.30782000
26.91650391,-90.64429000
26.94702148,-97.25303000
26.97753906,-105.85820000
27.00805664,-97.20393000
27.03857422,-94.30904000
27.06909180,-92.42545000
27.09960938,-92.10654000
27.13012695,-94.93949000
27.16064453,-101.29650000
27.19116211,-93.35829000
27.22167969,-89.21292000
27.25219727,-88.10055000
27.28271484,-88.51940000
27.31323242,-89.95033000
27.34375000,-92.37193000
27.37426758,-95.99305000
27.40478516,-99.04839000
27.43530273,-94.20876000
27.46582031,-88.93802000
27.49633789,-85.91759000
27.52685547,-85.11806000
27.55737305,-86.82056000
27.58789063,-91.39324000
27.61840820,-96.82269000
27.64892578,-100.30120000
27.67944336,-111.17890000
27.70996094,-99.60323000
27.74047852,-94.61800000
27.77099609,-92.30507000
27.80151367,-91.70979000
27.83203125,-93.01530000
27.86254883,-93.50457000
27.89306641,-91.65658000
27.92358398,-90.97464000
27.95410156,-92.03950000
27.98461914,-94.36965000
28.01513672,-95.74535000
28.04565430,-95.06606000
28.07617188,-93.98078000
28.10668945,-92.85493000
28.13720703,-93.15383000
28.16772461,-97.32906000
28.19824219,-99.99359000
28.22875977,-93.98245000
28.25927734,-92.32864000
28.28979492,-92.49703000
28.32031250,-92.51308000
28.35083008,-92.21889000
28.38134766,-91.24009000
28.41186523,-89.42546000
28.44238281,-88.73093000
28.47290039,-90.14421000
28.50341797,-93.52994000
28.53393555,-97.76215000
28.56445313,-100.22850000
28.59497070,-96.03903000
28.62548828,-93.65052000
28.65600586,-95.10480000
28.68652344,-97.24793000
28.71704102,-94.27451000
28.74755859,-91.34566000
28.77807617,-90.20286000
28.80859375,-91.67867000
28.83911133,-97.85633000
28.86962891,-112.80820000
28.90014648,-104.49350000
28.93066406,-108.56110000
28.96118164,-111.60560000
28.99169922,-105.22840000
29.02221680,-101.86910000
29.05273438,-102.17230000
29.08325195,-103.51290000
29.11376953,-102.70630000
29.14428711,-99.62669000
29.17480469,-96.92062000
29.20532227,-96.01170000
29.23583984,-97.35627000
29.26635742,-101.15790000
29.29687500,-105.18940000
29.32739258,-103.80690000
29.35791016,-99.98519000
29.38842773,-99.26759000
29.41894531,-103.62260000
29.44946289,-118.43240000
29.47998047,-108.14560000
29.51049805,-97.61391000
29.54101563,-92.32800000
29.57153320,-90.17915000
29.60205078,-90.58118000
29.63256836,-93.97118000
29.66308594,-100.31020000
29.69360352,-98.27567000
29.72412109,-95.25189000
29.75463867,-93.60393000
29.78515625,-91.55323000
29.81567383,-90.09643000
29.84619141,-90.44266000
29.87670898,-92.77500000
29.90722656,-96.87738000
29.93774414,-102.45740000
29.96826172,-106.17290000
29.99877930,-100.83260000
30.02929688,-96.58462000
30.05981445,-95.26036000
30.09033203,-97.75867000
30.12084961,-106.93440000
30.15136719,-98.34797000
30.18188477,-95.17682000
30.21240234,-96.96572000
30.24291992,-104.13590000
30.27343750,-107.93020000
30.30395508,-99.56094000
30.33447266,-95.66932000
30.36499023,-94.43803000
30.39550781,-97.37059000
30.42602539,-100.73380000
30.45654297,-92.74678000
30.48706055,-90.70299000
30.51757813,-91.90464000
30.54809570,-90.80315000
30.57861328,-89.01864000
30.60913086,-89.86909000
30.63964844,-92.30660000
30.67016602,-93.78331000
30.70068359,-94.55558000
30.73120117,-96.03516000
30.76171875,-97.72225000
30.79223633,-96.78600000
30.82275391,-93.62304000
30.85327148,-91.13389000
30.88378906,-89.76402000
30.91430664,-89.15742000
30.94482422,-88.86430000
30.97534180,-88.37716000
31.00585938,-88.34045000
31.03637695,-89.64799000
31.06689453,-91.91453000
31.09741211,-93.10485000
31.12792969,-92.03507000
31.15844727,-90.80376000
31.18896484,-91.34902000
31.21948242,-94.52064000
31.25000000,-101.02790000
31.28051758,-107.57730000
31.31103516,-98.00540000
31.34155273,-94.08606000
31.37207031,-92.93313000
31.40258789,-93.53755000
31.43310547,-94.88541000
31.46362305,-93.09116000
31.49414063,-89.98765000
31.52465820,-88.59831000
31.55517578,-89.22794000
31.58569336,-91.64086000
31.61621094,-96.13496000
31.64672852,-101.47510000
31.67724609,-96.40568000
31.70776367,-94.40181000
31.73828125,-94.19873000
31.76879883,-92.26794000
31.79931641,-90.49277000
31.82983398,-90.00043000
31.86035156,-90.94341000
31.89086914,-93.68481000
31.92138672,-97.16409000
31.95190430,-98.60739000
31.98242188,-100.46400000
32.01293945,-95.59335000
32.04345703,-90.30330000
32.07397461,-87.63255000
32.10449219,-86.66897000
32.13500977,-87.14837000
32.16552734,-89.59084000
32.19604492,-95.71296000
32.22656250,-105.22750000
32.25708008,-100.52020000
32.28759766,-99.58197000
32.31811523,-96.77704000
32.34863281,-94.77512000
32.37915039,-96.14969000
32.40966797,-104.18870000
32.44018555,-112.80810000
32.47070313,-102.96530000
32.50122070,-92.42023000
32.53173828,-87.45892000
32.56225586,-86.25270000
32.59277344,-88.37495000
32.62329102,-95.34596000
32.65380859,-101.75910000
32.68432617,-96.15238000
32.71484375,-99.53481000
32.74536133,-108.16750000
32.77587891,-95.82092000
32.80639648,-92.82759000
32.83691406,-92.88576000
32.86743164,-94.11649000
32.89794922,-95.76260000
32.92846680,-101.96730000
32.95898438,-103.88690000
32.98950195,-93.87253000
33.02001953,-91.65379000
33.05053711,-93.40173000
33.08105469,-101.30650000
33.11157227,-104.91590000
33.14208984,-98.69086000
33.17260742,-104.37390000
33.20312500,-100.24480000
33.23364258,-93.73764000
33.26416016,-92.80437000
33.29467773,-94.34097000
33.32519531,-95.89186000
33.35571289,-97.63704000
33.38623047,-97.31969000
33.41674805,-95.63317000
33.44726563,-99.41438000
33.47778320,-107.13910000
33.50830078,-93.72690000
33.53881836,-90.10159000
33.56933594,-89.12296000
33.59985352,-89.98396000
33.63037109,-93.12852000
33.66088867,-98.16631000
33.69140625,-100.20150000
33.72192383,-105.62040000
33.75244141,-105.66890000
33.78295898,-95.91808000
33.81347656,-93.06870000
33.84399414,-92.70419000
33.87451172,-93.53922000
33.90502930,-93.92262000
33.93554688,-93.20334000
33.96606445,-92.98408000
33.99658203,-93.62244000
34.02709961,-94.60964000
34.05761719,-95.58733000
34.08813477,-94.96041000
34.11865234,-94.02088000
34.14916992,-96.37738000
34.17968750,-102.92170000
34.21020508,-95.08511000
34.24072266,-91.42501000
34.27124023,-91.43132000
34.30175781,-92.64493000
34.33227539,-90.52726000
34.36279297,-88.22143000
34.39331055,-88.34270000
34.42382813,-90.95346000
34.45434570,-94.42415000
34.48486328,-94.04572000
34.51538086,-91.63971000
34.54589844,-90.12659000
34.57641602,-90.83508000
34.60693359,-95.68215000
34.63745117,-108.47080000
34.66796875,-94.97311000
34.69848633,-92.07424000
34.72900391,-91.38126000
34.75952148,-89.66782000
34.79003906,-88.49178000
34.82055664,-90.04753000
34.85107422,-94.75661000
34.88159180,-91.80006000
34.91210938,-87.72205000
34.94262695,-87.21942000
34.97314453,-90.49944000
35.00366211,-93.82539000
35.03417969,-87.82761000
35.06469727,-85.25427000
35.09521484,-85.47192000
35.12573242,-87.68449000
35.15625000,-92.90129000
35.18676758,-99.56536000
35.21728516,-91.00023000
35.24780273,-88.70769000
35.27832031,-90.80786000
35.30883789,-99.52559000
35.33935547,-99.38538000
35.36987305,-93.25804000
35.40039063,-92.66949000
35.43090820,-93.56924000
35.46142578,-91.52412000
35.49194336,-88.97179000
35.52246094,-89.08898000
35.55297852,-93.64434000
35.58349609,-98.61180000
35.61401367,-90.36774000
35.64453125,-87.69321000
35.67504883,-87.74049000
35.70556641,-89.14524000
35.73608398,-91.27155000
35.76660156,-94.41975000
35.79711914,-94.46506000
35.82763672,-91.52588000
35.85815430,-91.21510000
35.88867188,-92.04655000
35.91918945,-91.19788000
35.94970703,-91.57019000
35.98022461,-95.86766000
36.01074219,-106.24860000
36.04125977,-101.48730000
36.07177734,-102.33620000
36.10229492,-113.43610000
36.13281250,-99.79559000
36.16333008,-94.47091000
36.19384766,-91.71989000
36.22436523,-91.65073000
36.25488281,-96.31074000
36.28540039,-103.44900000
36.31591797,-95.24071000
36.34643555,-94.27394000
36.37695313,-96.44550000
36.40747070,-100.32510000
36.43798828,-110.02710000
36.46850586,-100.29370000
36.49902344,-95.43031000
36.52954102,-95.76666000
36.56005859,-100.03390000
36.59057617,-95.42290000
36.62109375,-91.26556000
36.65161133,-91.25929000
36.68212891,-95.84933000
36.71264648,-99.96178000
36.74316406,-93.46493000
36.77368164,-91.48423000
36.80419922,-91.50182000
36.83471680,-92.29324000
36.86523438,-94.04440000
36.89575195,-93.39599000
36.92626953,-90.83795000
36.95678711,-90.92044000
36.98730469,-94.63429000
37.01782227,-95.07608000
37.04833984,-90.22220000
37.07885742,-88.75678000
37.10937500,-90.77071000
37.13989258,-98.62649000
37.17041016,-102.69900000
37.20092773,-94.03446000
37.23144531,-93.13248000
37.26196289,-96.60546000
37.29248047,-108.30040000
37.32299805,-102.78980000
37.35351563,-96.76896000
37.38403320,-94.43523000
37.41455078,-94.46545000
37.44506836,-95.23072000
37.47558594,-93.64915000
37.50610352,-93.38303000
37.53662109,-99.45174000
37.56713867,-101.24080000
37.59765625,-91.94915000
37.62817383,-90.63120000
37.65869141,-93.47927000
37.68920898,-97.27917000
37.71972656,-95.45760000
37.75024414,-94.86081000
37.78076172,-96.87010000
37.81127930,-102.10150000
37.84179688,-111.80640000
37.87231445,-107.73790000
37.90283203,-110.95370000
37.93334961,-97.84029000
37.96386719,-92.68497000
37.99438477,-92.54379000
38.02490234,-98.16349000
38.05541992,-109.62380000
38.08593750,-96.32108000
38.11645508,-92.20554000
38.14697266,-89.29562000
38.17749023,-88.09600000
38.20800781,-89.34093000
38.23852539,-93.64364000
38.26904297,-101.79150000
38.29956055,-100.97720000
38.33007813,-98.35059000
38.36059570,-100.86260000
38.39111328,-106.71110000
38.42163086,-99.64883000
38.45214844,-96.68663000
38.48266602,-96.21903000
38.51318359,-97.21822000
38.54370117,-100.71030000
38.57421875,-105.87300000
38.60473633,-99.42200000
38.63525391,-96.49538000
38.66577148,-96.56325000
38.69628906,-97.47305000
38.72680664,-97.28355000
38.75732422,-96.31924000
38.78784180,-93.70658000
38.81835938,-90.83760000
38.84887695,-89.98409000
38.87939453,-91.93973000
38.90991211,-97.58316000
38.94042969,-101.48780000
38.97094727,-95.60094000
39.00146484,-92.43153000
39.03198242,-90.57544000
39.06250000,-89.15390000
39.09301758,-89.17300000
39.12353516,-92.80651000
39.15405273,-97.49559000
39.18457031,-90.21596000
39.21508789,-88.14132000
39.24560547,-89.86012000
39.27612305,-93.72227000
39.30664063,-95.99220000
39.33715820,-97.10303000
39.36767578,-99.09943000
39.39819336,-99.03840000
39.42871094,-93.45321000
39.45922852,-90.02608000
39.48974609,-90.17026000
39.52026367,-93.10134000
39.55078125,-93.85686000
39.58129883,-91.99045000
39.61181641,-89.91802000
39.64233398,-88.70884000
39.67285156,-89.20190000
39.70336914,-91.28819000
39.73388672,-93.63869000
39.76440430,-93.38704000
39.79492188,-91.00338000
39.82543945,-88.75310000
39.85595703,-88.83912000
39.88647461,-93.33452000
39.91699219,-105.14050000
39.94750977,-92.30338000
39.97802734,-89.90750000
40.00854492,-91.88247000
40.03906250,-97.67496000
40.06958008,-105.66090000
40.10009766,-105.26050000
40.13061523,-100.79750000
40.16113281,-98.38337000
40.19165039,-95.69069000
40.22216797,-91.87036000
40.25268555,-89.25151000
40.28320313,-89.04680000
40.31372070,-91.95284000
40.34423828,-95.49248000
40.37475586,-91.09943000
40.40527344,-87.49366000
40.43579102,-85.97279000
40.46630859,-86.99368000
40.49682617,-90.91290000
40.52734375,-92.59279000
40.55786133,-91.49383000
40.58837891,-92.83060000
40.61889648,-94.63251000
40.64941406,-93.63469000
40.67993164,-90.62816000
40.71044922,-87.31223000
40.74096680,-85.13824000
40.77148438,-84.76556000
40.80200195,-86.65291000
40.83251953,-92.04399000
40.86303711,-100.03820000
40.89355469,-95.60235000
40.92407227,-92.21238000
40.95458984,-89.37611000
40.98510742,-88.38802000
41.01562500,-88.74864000
41.04614258,-88.38242000
41.07666016,-88.20184000
41.10717773,-91.06552000
41.13769531,-101.96850000
41.16821289,-95.90293000
41.19873047,-90.12822000
41.22924805,-88.70204000
41.25976563,-88.86407000
41.29028320,-87.13902000
41.32080078,-85.13353000
41.35131836,-84.94523000
41.38183594,-87.12493000
41.41235352,-93.67260000
41.44287109,-101.92570000
41.47338867,-89.03611000
41.50390625,-85.15702000
41.53442383,-83.99812000
41.56494141,-84.43772000
41.59545898,-85.90702000
41.62597656,-88.28317000
41.65649414,-91.94610000
41.68701172,-96.79280000
41.71752930,-100.17190000
41.74804688,-98.72302000
41.77856445,-94.59705000
41.80908203,-91.54759000
41.83959961,-89.98721000
41.87011719,-88.98319000
41.90063477,-88.20438000
41.93115234,-87.82681000
41.96166992,-87.21223000
41.99218750,-86.12778000
42.02270508,-85.48311000
42.05322266,-85.79513000
42.08374023,-86.76971000
42.11425781,-88.59392000
42.14477539,-90.17365000
42.17529297,-87.55254000
42.20581055,-85.63634000
42.23632813,-86.58326000
42.26684570,-89.04285000
42.29736328,-90.27283000
42.32788086,-92.52648000
42.35839844,-99.71947000
42.38891602,-114.07270000
42.41943359,-102.33800000
42.44995117,-100.38310000
42.48046875,-98.14417000
42.51098633,-97.16068000
42.54150391,-99.71686000
42.57202148,-97.09412000
42.60253906,-90.99908000
42.63305664,-89.36734000
42.66357422,-90.73987000
42.69409180,-91.62257000
42.72460938,-92.30205000
42.75512695,-97.18849000
42.78564453,-104.34350000
42.81616211,-92.56768000
42.84667969,-87.78304000
42.87719727,-86.71203000
42.90771484,-90.25850000
42.93823242,-104.16500000
42.96875000,-93.04431000
42.99926758,-93.38695000
43.02978516,-105.48210000
43.06030273,-100.85710000
43.09082031,-100.75920000
43.12133789,-102.70700000
43.15185547,-90.13966000
43.18237305,-85.26538000
43.21289063,-84.30744000
43.24340820,-87.06400000
43.27392578,-94.35594000
43.30444336,-101.16930000
43.33496094,-96.81990000
43.36547852,-92.66705000
43.39599609,-92.14835000
43.42651367,-94.82990000
43.45703125,-100.43130000
43.48754883,-99.18517000
43.51806641,-90.09690000
43.54858398,-85.27946000
43.57910156,-83.33818000
43.60961914,-83.56473000
43.64013672,-85.58678000
43.67065430,-89.31123000
43.70117188,-92.02717000
43.73168945,-92.02316000
43.76220703,-94.09756000
43.79272461,-101.37690000
43.82324219,-102.91430000
43.85375977,-92.52175000
43.88427734,-89.16002000
43.91479492,-89.41666000
43.94531250,-92.10870000
43.97583008,-94.05054000
44.00634766,-93.81575000
44.03686523,-92.89975000
44.06738281,-93.74602000
44.09790039,-97.24311000
44.12841797,-94.58630000
44.15893555,-89.14535000
44.18945313,-86.18789000
44.21997070,-85.63699000
44.25048828,-87.48589000
44.28100586,-91.19279000
44.31152344,-94.37656000
44.34204102,-93.67733000
44.37255859,-90.93055000
44.40307617,-90.07798000
44.43359375,-92.25488000
44.46411133,-98.90935000
44.49462891,-95.27843000
44.52514648,-89.84186000
44.55566406,-88.99445000
44.58618164,-92.09242000
44.61669922,-97.34625000
44.64721680,-97.59473000
44.67773438,-94.04636000
44.70825195,-90.64230000
44.73876953,-90.58902000
44.76928711,-94.21939000
44.79980469,-104.88140000
44.83032227,-100.32360000
44.86083984,-92.98872000
44.89135742,-90.77950000
44.92187500,-91.60903000
44.95239258,-94.00658000
44.98291016,-96.10580000
45.01342773,-95.45120000
45.04394531,-92.46942000
45.07446289,-91.01262000
45.10498047,-91.02317000
45.13549805,-92.31039000
45.16601563,-96.18858000
45.19653320,-101.09160000
45.22705078,-95.80675000
45.25756836,-93.04855000
45.28808594,-92.29669000
45.31860352,-91.76598000
45.34912109,-90.52298000
45.37963867,-90.44860000
45.41015625,-92.65915000
45.44067383,-97.02145000
45.47119141,-102.17800000
45.50170898,-112.75110000
45.53222656,-94.63100000
45.56274414,-89.64037000
45.59326172,-88.94461000
45.62377930,-90.54081000
45.65429688,-92.43191000
45.68481445,-93.67555000
45.71533203,-94.27174000
45.74584961,-96.20840000
45.77636719,-101.03230000
45.80688477,-100.70980000
45.83740234,-98.38142000
45.86791992,-96.41827000
45.89843750,-93.80827000
45.92895508,-92.94385000
45.95947266,-93.97040000
45.98999023,-93.82013000
46.02050781,-91.76337000
46.05102539,-91.30444000
46.08154297,-92.62677000
46.11206055,-93.47449000
46.14257813,-94.26186000
46.17309570,-98.41653000
46.20361328,-108.34800000
46.23413086,-102.29050000
46.26464844,-101.06110000
46.29516602,-99.68940000
46.32568359,-99.92614000
46.35620117,-101.95010000
46.38671875,-103.42640000
46.41723633,-106.07420000
46.44775391,-117.50500000
46.47827148,-101.28470000
46.50878906,-96.42491000
46.53930664,-94.05956000
46.56982422,-92.46952000
46.60034180,-92.70802000
46.63085938,-94.19109000
46.66137695,-95.91895000
46.69189453,-94.87457000
46.72241211,-92.17408000
46.75292969,-92.38303000
46.78344727,-95.87407000
46.81396484,-98.41129000
46.84448242,-94.34810000
46.87500000,-91.55644000
46.90551758,-91.34209000
46.93603516,-93.61519000
46.96655273,-95.45426000
46.99707031,-94.23476000
47.02758789,-94.28168000
47.05810547,-96.34530000
47.08862305,-97.02759000
47.11914063,-95.55596000
47.14965820,-96.33895000
47.18017578,-102.11250000
47.21069336,-105.98150000
47.24121094,-98.22857000
47.27172852,-97.45613000
47.30224609,-98.36571000
47.33276367,-97.09618000
47.36328125,-94.11811000
47.39379883,-90.96610000
47.42431641,-89.20085000
47.45483398,-88.62365000
47.48535156,-88.40984000
47.51586914,-87.96457000
47.54638672,-87.52742000
47.57690430,-87.87406000
47.60742188,-89.68420000
47.63793945,-93.71123000
47.66845703,-99.79205000
47.69897461,-100.78220000
47.72949219,-103.70680000
47.76000977,-112.25840000
47.79052734,-104.65360000
47.82104492,-98.35178000
47.85156250,-90.83952000
47.88208008,-87.03347000
47.91259766,-86.37050000
47.94311523,-88.66566000
47.97363281,-94.34688000
48.00415039,-104.28160000
48.03466797,-113.24660000
48.06518555,-105.59850000
48.09570313,-100.50460000
48.12622070,-97.71324000
48.15673828,-96.77777000
48.18725586,-99.04250000
48.21777344,-107.13280000
48.24829102,-98.63832000
48.27880859,-93.54367000
48.30932617,-91.59766000
48.33984375,-91.14911000
48.37036133,-91.79317000
48.40087891,-93.28961000
48.43139648,-96.81599000
48.46191406,-100.32690000
48.49243164,-93.68679000
48.52294922,-91.54102000
48.55346680,-93.60069000
48.58398438,-100.82440000
48.61450195,-107.93310000
48.64501953,-108.53300000
48.67553711,-103.54160000
48.70605469,-94.31598000
48.73657227,-92.25052000
48.76708984,-93.67053000
48.79760742,-95.81622000
48.82812500,-96.65108000
48.85864258,-96.56564000
48.88916016,-96.37730000
48.91967773,-98.15759000
48.95019531,-102.91120000
48.98071289,-101.34370000
49.01123047,-92.74178000
49.04174805,-87.41585000
49.07226563,-85.39284000
49.10278320,-85.92213000
49.13330078,-88.57289000
49.16381836,-93.37268000
49.19433594,-98.04977000
49.22485352,-97.92046000
49.25537109,-101.48650000
49.28588867,-108.23290000
49.31640625,-101.23750000
49.34692383,-94.12232000
49.37744141,-90.40459000
49.40795898,-90.35143000
49.43847656,-93.74974000
49.46899414,-100.57510000
49.49951172,-107.61670000
49.53002930,-107.60650000
49.56054688,-102.99770000
49.59106445,-100.38910000
49.62158203,-98.67158000
49.65209961,-95.20421000
49.68261719,-91.06800000
49.71313477,-88.94634000
49.74365234,-90.08363000
49.77416992,-96.22554000
49.80468750,-116.59060000
49.83520508,-99.73079000
49.86572266,-99.21619000
49.89624023,-104.37360000
49.92675781,-105.43240000
49.95727539,-97.12126000
49.98779297,-95.40383000
50.01831055,-96.72011000
