Frequency,Channel A
(MHz),(dBu)

0.00000000,-40.67142000
0.03051758,-41.07695000
0.06103516,-46.71841000
0.09155273,-59.93044000
0.12207031,-59.44990000
0.15258789,-59.29227000
0.18310547,-63.48302000
0.21362305,-68.00883000
0.24414063,-68.45901000
0.27465820,-65.60129000
0.30517578,-63.60511000
0.33569336,-63.49290000
0.36621094,-66.81315000
0.39672852,-77.53407000
0.42724609,-65.86906000
0.45776367,-62.38573000
0.48828125,-63.20615000
0.51879883,-67.54500000
0.54931641,-78.77577000
0.57983398,-76.30174000
0.61035156,-70.62277000
0.64086914,-68.68539000
0.67138672,-69.24053000
0.70190430,-74.02338000
0.73242188,-75.93797000
0.76293945,-71.06976000
0.79345703,-67.43826000
0.82397461,-64.36980000
0.85449219,-62.32916000
0.88500977,-62.01057000
0.91552734,-63.83662000
0.94604492,-67.44395000
0.97656250,-70.22025000
1.00708008,-71.56741000
1.03759766,-74.35529000
1.06811523,-77.69690000
1.09863281,-79.33541000
1.12915039,-78.88267000
1.15966797,-77.22634000
1.19018555,-78.11251000
1.22070313,-86.27839000
1.25122070,-86.00809000
1.28173828,-81.51277000
1.31225586,-86.32120000
1.34277344,-92.34666000
1.37329102,-83.62453000
1.40380859,-77.76962000
1.43432617,-76.36508000
1.46484375,-78.62846000
1.49536133,-82.46980000
1.52587891,-81.52885000
1.55639648,-80.88225000
1.58691406,-81.82751000
1.61743164,-78.15708000
1.64794922,-73.13409000
1.67846680,-69.21142000
1.70898438,-67.03788000
1.73950195,-67.25422000
1.77001953,-70.39124000
1.80053711,-77.93481000
1.83105469,-95.65556000
1.86157227,-79.66131000
1.89208984,-77.16685000
1.92260742,-77.70533000
1.95312500,-79.65176000
1.98364258,-81.73492000
2.01416016,-82.37854000
2.04467773,-82.09117000
2.07519531,-84.00327000
2.10571289,-89.06409000
2.13623047,-92.22906000
2.16674805,-89.62440000
2.19726563,-89.03448000
2.22778320,-92.63351000
2.25830078,-93.53428000
2.28881836,-88.49496000
2.31933594,-84.34653000
2.34985352,-81.69733000
2.38037109,-81.07301000
2.41088867,-83.41652000
2.44140625,-91.60674000
2.47192383,-92.64493000
2.50244141,-80.58357000
2.53295898,-73.99738000
2.56347656,-70.40317000
2.59399414,-69.88041000
2.62451172,-72.86941000
2.65502930,-80.82130000
2.68554688,-101.83020000
2.71606445,-88.61301000
2.74658203,-84.58722000
2.77709961,-81.61662000
2.80761719,-78.89867000
2.83813477,-77.79063000
2.86865234,-79.26813000
2.89916992,-84.05646000
2.92968750,-87.23654000
2.96020508,-84.01627000
2.99072266,-82.84216000
3.02124023,-83.59200000
3.05175781,-86.29120000
3.08227539,-90.43899000
3.11279297,-92.26684000
3.14331055,-92.17130000
3.17382813,-92.97520000
3.20434570,-88.77185000
3.23486328,-89.10899000
3.26538086,-86.59468000
3.29589844,-79.45302000
3.32641602,-76.76347000
3.35693359,-76.66999000
3.38745117,-76.48072000
3.41796875,-75.00579000
3.44848633,-74.51460000
3.47900391,-76.53252000
3.50952148,-82.66209000
3.54003906,-102.86380000
3.57055664,-90.71044000
3.60107422,-87.90543000
3.63159180,-85.59341000
3.66210938,-84.71462000
3.69262695,-89.92622000
3.72314453,-87.51723000
3.75366211,-78.16648000
3.78417969,-76.03024000
3.81469727,-78.77605000
3.84521484,-87.63386000
3.87573242,-85.07653000
3.90625000,-85.23466000
3.93676758,-90.88195000
3.96728516,-95.87842000
3.99780273,-104.48260000
4.02832031,-106.62850000
4.05883789,-96.43749000
4.08935547,-93.97334000
4.11987305,-98.97055000
4.15039063,-89.51105000
4.18090820,-85.91788000
4.21142578,-81.42280000
4.24194336,-76.48057000
4.27246094,-74.10133000
4.30297852,-74.38525000
4.33349609,-77.35210000
4.36401367,-83.31151000
4.39453125,-94.41425000
4.42504883,-96.07687000
4.45556641,-89.80267000
4.48608398,-91.10724000
4.51660156,-100.80830000
4.54711914,-97.88991000
4.57763672,-95.22299000
4.60815430,-96.47446000
4.63867188,-99.33328000
4.66918945,-88.63040000
4.69970703,-81.38012000
4.73022461,-79.25477000
4.76074219,-81.03775000
4.79125977,-86.45958000
4.82177734,-88.95817000
4.85229492,-86.72779000
4.88281250,-89.15318000
4.91333008,-101.87300000
4.94384766,-88.03659000
4.97436523,-85.07848000
5.00488281,-86.53171000
5.03540039,-90.45586000
5.06591797,-85.70456000
5.09643555,-80.76700000
5.12695313,-77.68235000
5.15747070,-77.93256000
5.18798828,-83.90995000
5.21850586,-96.84834000
5.24902344,-88.30106000
5.27954102,-93.38429000
5.31005859,-96.81438000
5.34057617,-91.05551000
5.37109375,-90.38860000
5.40161133,-92.70253000
5.43212891,-86.33473000
5.46264648,-85.35825000
5.49316406,-88.84388000
5.52368164,-91.18359000
5.55419922,-88.51868000
5.58471680,-85.64418000
5.61523438,-86.99586000
5.64575195,-88.31341000
5.67626953,-90.13381000
5.70678711,-89.66788000
5.73730469,-87.10979000
5.76782227,-93.87799000
5.79833984,-93.95576000
5.82885742,-87.28842000
5.85937500,-87.60011000
5.88989258,-94.37820000
5.92041016,-94.60544000
5.95092773,-83.96031000
5.98144531,-79.39435000
6.01196289,-78.63728000
6.04248047,-83.60707000
6.07299805,-94.50629000
6.10351563,-84.38341000
6.13403320,-87.65067000
6.16455078,-90.32533000
6.19506836,-87.50238000
6.22558594,-90.35203000
6.25610352,-88.50864000
6.28662109,-86.61393000
6.31713867,-87.95581000
6.34765625,-85.62212000
6.37817383,-84.18318000
6.40869141,-85.40656000
6.43920898,-85.30736000
6.46972656,-87.65698000
6.50024414,-100.17080000
6.53076172,-88.53158000
6.56127930,-86.42044000
6.59179688,-89.63686000
6.62231445,-86.48201000
6.65283203,-83.30215000
6.68334961,-83.29488000
6.71386719,-83.83223000
6.74438477,-84.95940000
6.77490234,-89.15202000
6.80541992,-89.99710000
6.83593750,-82.25208000
6.86645508,-79.88068000
6.89697266,-81.65580000
6.92749023,-86.41678000
6.95800781,-84.86955000
6.98852539,-79.85355000
7.01904297,-77.61914000
7.04956055,-78.18784000
7.08007813,-81.09454000
7.11059570,-87.19666000
7.14111328,-101.84900000
7.17163086,-89.01031000
7.20214844,-90.17508000
7.23266602,-98.85873000
7.26318359,-95.86427000
7.29370117,-85.06804000
7.32421875,-80.56011000
7.35473633,-80.19054000
7.38525391,-82.50591000
7.41577148,-85.44221000
7.44628906,-86.91911000
7.47680664,-88.55190000
7.50732422,-95.64388000
7.53784180,-94.57841000
7.56835938,-86.79833000
7.59887695,-84.39937000
7.62939453,-83.45237000
7.65991211,-82.58079000
7.69042969,-81.99435000
7.72094727,-82.58676000
7.75146484,-85.35684000
7.78198242,-92.67863000
7.81250000,-96.91716000
7.84301758,-90.99869000
7.87353516,-91.50543000
7.90405273,-92.75517000
7.93457031,-90.38095000
7.96508789,-87.03297000
7.99560547,-85.32645000
8.02612305,-85.47772000
8.05664063,-87.87011000
8.08715820,-93.44640000
8.11767578,-96.81332000
8.14819336,-97.27795000
8.17871094,-101.01570000
8.20922852,-94.43218000
8.23974609,-88.42418000
8.27026367,-87.02600000
8.30078125,-89.29924000
8.33129883,-92.73100000
8.36181641,-91.25450000
8.39233398,-91.20995000
8.42285156,-96.86803000
8.45336914,-95.48573000
8.48388672,-90.39838000
8.51440430,-90.15086000
8.54492188,-93.42178000
8.57543945,-103.39350000
8.60595703,-92.76988000
8.63647461,-88.09131000
8.66699219,-88.90354000
8.69750977,-96.46667000
8.72802734,-104.68420000
8.75854492,-99.00687000
8.78906250,-105.26250000
8.81958008,-104.37080000
8.85009766,-101.10400000
8.88061523,-91.90617000
8.91113281,-87.85752000
8.94165039,-87.37072000
8.97216797,-90.50610000
9.00268555,-95.83493000
9.03320313,-90.44850000
9.06372070,-88.68027000
9.09423828,-89.90121000
9.12475586,-91.50948000
9.15527344,-91.47809000
9.18579102,-89.65911000
9.21630859,-88.54240000
9.24682617,-90.36022000
9.27734375,-97.18590000
9.30786133,-93.47434000
9.33837891,-90.43420000
9.36889648,-90.49988000
9.39941406,-89.57742000
9.42993164,-89.45526000
9.46044922,-94.24068000
9.49096680,-100.16280000
9.52148438,-89.47955000
9.55200195,-87.75467000
9.58251953,-89.14451000
9.61303711,-90.01225000
9.64355469,-88.38206000
9.67407227,-86.27728000
9.70458984,-85.05840000
9.73510742,-85.50020000
9.76562500,-88.10083000
9.79614258,-91.52955000
9.82666016,-97.86337000
9.85717773,-97.89120000
9.88769531,-88.85280000
9.91821289,-87.25013000
9.94873047,-87.39088000
9.97924805,-86.63598000
10.00976563,-87.18263000
10.04028320,-90.21016000
10.07080078,-94.00125000
10.10131836,-93.52927000
10.13183594,-90.25526000
10.16235352,-89.51198000
10.19287109,-87.76878000
10.22338867,-83.69814000
10.25390625,-81.85059000
10.28442383,-82.28912000
10.31494141,-84.78085000
10.34545898,-89.93823000
10.37597656,-92.47162000
10.40649414,-94.90433000
10.43701172,-90.03030000
10.46752930,-83.51373000
10.49804688,-82.05918000
10.52856445,-84.35162000
10.55908203,-88.82188000
10.58959961,-83.49938000
10.62011719,-80.55084000
10.65063477,-81.23779000
10.68115234,-83.87009000
10.71166992,-85.22195000
10.74218750,-84.82043000
10.77270508,-86.22443000
10.80322266,-90.31173000
10.83374023,-87.03734000
10.86425781,-85.65491000
10.89477539,-91.56754000
10.92529297,-96.66949000
10.95581055,-92.93804000
10.98632813,-92.83111000
11.01684570,-85.69454000
11.04736328,-83.74062000
11.07788086,-83.56955000
11.10839844,-82.92725000
11.13891602,-81.75063000
11.16943359,-80.75267000
11.19995117,-81.77891000
11.23046875,-87.52567000
11.26098633,-100.46650000
11.29150391,-91.32877000
11.32202148,-101.83540000
11.35253906,-90.61547000
11.38305664,-85.29980000
11.41357422,-87.77055000
11.44409180,-90.73043000
11.47460938,-80.95924000
11.50512695,-79.32655000
11.53564453,-82.76251000
11.56616211,-86.51555000
11.59667969,-84.10265000
11.62719727,-83.25948000
11.65771484,-84.07411000
11.68823242,-86.32054000
11.71875000,-88.44444000
11.74926758,-84.30008000
11.77978516,-77.34405000
11.81030273,-74.07713000
11.84082031,-73.68629000
11.87133789,-75.20277000
11.90185547,-77.06452000
11.93237305,-78.26669000
11.96289063,-79.57233000
11.99340820,-81.14586000
12.02392578,-82.21252000
12.05444336,-83.40544000
12.08496094,-88.03889000
12.11547852,-96.34644000
12.14599609,-86.01765000
12.17651367,-84.88910000
12.20703125,-86.64297000
12.23754883,-85.72511000
12.26806641,-84.48422000
12.29858398,-82.49292000
12.32910156,-79.36478000
12.35961914,-78.42601000
12.39013672,-80.66580000
12.42065430,-83.65317000
12.45117188,-82.49696000
12.48168945,-82.01964000
12.51220703,-82.78285000
12.54272461,-84.28219000
12.57324219,-86.51161000
12.60375977,-86.24109000
12.63427734,-83.61990000
12.66479492,-81.70925000
12.69531250,-80.54829000
12.72583008,-79.85232000
12.75634766,-79.36452000
12.78686523,-79.41103000
12.81738281,-81.18652000
12.84790039,-85.65395000
12.87841797,-89.21075000
12.90893555,-88.23083000
12.93945313,-85.21336000
12.96997070,-83.00805000
13.00048828,-82.07556000
13.03100586,-81.36242000
13.06152344,-82.51401000
13.09204102,-87.58749000
13.12255859,-117.49730000
13.15307617,-87.04974000
13.18359375,-81.66254000
13.21411133,-79.53775000
13.24462891,-79.30376000
13.27514648,-79.37477000
13.30566406,-78.55204000
13.33618164,-78.59934000
13.36669922,-80.91393000
13.39721680,-84.08997000
13.42773438,-83.64389000
13.45825195,-85.39989000
13.48876953,-81.42605000
13.51928711,-71.98880000
13.54980469,-68.19140000
13.58032227,-68.42892000
13.61083984,-72.43987000
13.64135742,-80.34099000
13.67187500,-81.13039000
13.70239258,-73.67039000
13.73291016,-69.53645000
13.76342773,-68.37590000
13.79394531,-69.80795000
13.82446289,-73.38857000
13.85498047,-78.47764000
13.88549805,-84.89566000
13.91601563,-92.05571000
13.94653320,-92.29972000
13.97705078,-84.89088000
14.00756836,-79.82053000
14.03808594,-77.24699000
14.06860352,-77.13935000
14.09912109,-80.27646000
14.12963867,-88.84103000
14.16015625,-86.16678000
14.19067383,-81.03451000
14.22119141,-79.71237000
14.25170898,-80.91385000
14.28222656,-82.94189000
14.31274414,-83.18405000
14.34326172,-83.22544000
14.37377930,-82.93343000
14.40429688,-80.92006000
14.43481445,-78.87697000
14.46533203,-78.42559000
14.49584961,-79.91799000
14.52636719,-83.33011000
14.55688477,-88.21812000
14.58740234,-91.88487000
14.61791992,-89.72263000
14.64843750,-85.52316000
14.67895508,-83.02911000
14.70947266,-83.29540000
14.73999023,-86.80721000
14.77050781,-91.14517000
14.80102539,-89.25892000
14.83154297,-86.93950000
14.86206055,-84.42842000
14.89257813,-81.73927000
14.92309570,-79.40727000
14.95361328,-78.31013000
14.98413086,-78.97665000
15.01464844,-81.26873000
15.04516602,-84.47082000
15.07568359,-87.28168000
15.10620117,-88.51556000
15.13671875,-88.88832000
15.16723633,-84.86456000
15.19775391,-78.63075000
15.22827148,-75.49422000
15.25878906,-75.42693000
15.28930664,-77.88918000
15.31982422,-81.67107000
15.35034180,-84.57210000
15.38085938,-86.11026000
15.41137695,-87.12167000
15.44189453,-87.76913000
15.47241211,-88.38312000
15.50292969,-86.02747000
15.53344727,-83.82874000
15.56396484,-83.93123000
15.59448242,-85.77498000
15.62500000,-89.42890000
15.65551758,-98.32444000
15.68603516,-98.83987000
15.71655273,-92.83087000
15.74707031,-90.96233000
15.77758789,-89.57047000
15.80810547,-88.34094000
15.83862305,-88.60831000
15.86914063,-91.00153000
15.89965820,-92.55642000
15.93017578,-91.48192000
15.96069336,-92.76305000
15.99121094,-96.46533000
16.02172852,-96.99832000
16.05224609,-95.75172000
16.08276367,-94.81838000
16.11328125,-95.64797000
16.14379883,-101.53860000
16.17431641,-99.68814000
16.20483398,-95.75736000
16.23535156,-100.03500000
16.26586914,-107.30520000
16.29638672,-97.11292000
16.32690430,-98.44669000
16.35742188,-95.80216000
16.38793945,-89.63314000
16.41845703,-87.27448000
16.44897461,-87.06952000
16.47949219,-87.60467000
16.51000977,-88.19395000
16.54052734,-89.53148000
16.57104492,-92.71789000
16.60156250,-97.31920000
16.63208008,-94.98646000
16.66259766,-92.35005000
16.69311523,-94.43951000
16.72363281,-99.93314000
16.75415039,-95.55754000
16.78466797,-98.15067000
16.81518555,-97.95373000
16.84570313,-91.16791000
16.87622070,-89.00755000
16.90673828,-88.15579000
16.93725586,-87.81052000
16.96777344,-88.78452000
16.99829102,-92.19385000
17.02880859,-98.29884000
17.05932617,-96.38627000
17.08984375,-93.46885000
17.12036133,-92.31922000
17.15087891,-91.02119000
17.18139648,-90.14032000
17.21191406,-90.91913000
17.24243164,-93.76746000
17.27294922,-99.78336000
17.30346680,-104.82240000
17.33398438,-97.59634000
17.36450195,-97.31805000
17.39501953,-100.64000000
17.42553711,-98.45996000
17.45605469,-94.24559000
17.48657227,-91.79711000
17.51708984,-91.29102000
17.54760742,-92.64838000
17.57812500,-95.78436000
17.60864258,-101.82630000
17.63916016,-104.02300000
17.66967773,-92.26655000
17.70019531,-86.93223000
17.73071289,-85.44662000
17.76123047,-86.73170000
17.79174805,-87.43295000
17.82226563,-86.51167000
17.85278320,-87.84738000
17.88330078,-93.09972000
17.91381836,-105.82750000
17.94433594,-103.51140000
17.97485352,-99.60354000
18.00537109,-96.65431000
18.03588867,-95.59338000
18.06640625,-96.89938000
18.09692383,-98.41949000
18.12744141,-97.01126000
18.15795898,-94.18245000
18.18847656,-93.20549000
18.21899414,-95.23767000
18.24951172,-101.29480000
18.28002930,-103.78190000
18.31054688,-94.35464000
18.34106445,-91.27579000
18.37158203,-92.33163000
18.40209961,-97.51996000
18.43261719,-104.54460000
18.46313477,-100.66790000
18.49365234,-96.75783000
18.52416992,-97.12796000
18.55468750,-104.74310000
18.58520508,-101.49960000
18.61572266,-94.79656000
18.64624023,-92.34804000
18.67675781,-91.42999000
18.70727539,-91.55385000
18.73779297,-93.87939000
18.76831055,-102.31140000
18.79882813,-101.68730000
18.82934570,-95.70930000
18.85986328,-95.49796000
18.89038086,-99.16129000
18.92089844,-106.00730000
18.95141602,-99.20177000
18.98193359,-97.39359000
19.01245117,-99.33209000
19.04296875,-101.30530000
19.07348633,-100.99650000
19.10400391,-98.90393000
19.13452148,-96.05640000
19.16503906,-94.35944000
19.19555664,-94.33944000
19.22607422,-95.79057000
19.25659180,-97.84927000
19.28710938,-99.36364000
19.31762695,-99.46938000
19.34814453,-97.58469000
19.37866211,-95.63058000
19.40917969,-95.83742000
19.43969727,-96.05171000
19.47021484,-93.17291000
19.50073242,-92.50988000
19.53125000,-95.62878000
19.56176758,-102.56230000
19.59228516,-111.44070000
19.62280273,-113.80270000
19.65332031,-104.82870000
19.68383789,-104.00340000
19.71435547,-107.71010000
19.74487305,-111.21970000
19.77539063,-105.84560000
19.80590820,-100.38130000
19.83642578,-97.65553000
19.86694336,-96.25963000
19.89746094,-94.27419000
19.92797852,-93.75298000
19.95849609,-95.15595000
19.98901367,-96.80572000
20.01953125,-98.02502000
20.05004883,-95.19456000
20.08056641,-91.68606000
20.11108398,-92.75690000
20.14160156,-99.74464000
20.17211914,-96.45096000
20.20263672,-96.36578000
20.23315430,-97.94217000
20.26367188,-93.68152000
20.29418945,-92.97271000
20.32470703,-93.61625000
20.35522461,-94.77281000
20.38574219,-99.67067000
20.41625977,-103.27370000
20.44677734,-98.60361000
20.47729492,-105.90970000
20.50781250,-99.81726000
20.53833008,-96.12164000
20.56884766,-98.67905000
20.59936523,-99.08633000
20.62988281,-97.90659000
20.66040039,-94.38992000
20.69091797,-93.02308000
20.72143555,-96.55529000
20.75195313,-105.05200000
20.78247070,-99.53448000
20.81298828,-92.43970000
20.84350586,-88.86858000
20.87402344,-88.19615000
20.90454102,-89.03094000
20.93505859,-89.95338000
20.96557617,-91.89679000
20.99609375,-98.31931000
21.02661133,-100.80520000
21.05712891,-94.83781000
21.08764648,-94.31551000
21.11816406,-94.62319000
21.14868164,-95.59436000
21.17919922,-99.13246000
21.20971680,-104.83630000
21.24023438,-104.40260000
21.27075195,-99.40323000
21.30126953,-98.13610000
21.33178711,-98.50317000
21.36230469,-96.84158000
21.39282227,-96.02832000
21.42333984,-95.73286000
21.45385742,-92.43961000
21.48437500,-90.27701000
21.51489258,-90.82761000
21.54541016,-94.29587000
21.57592773,-103.11830000
21.60644531,-105.73760000
21.63696289,-96.45085000
21.66748047,-92.86744000
21.69799805,-90.95293000
21.72851563,-89.75147000
21.75903320,-88.71756000
21.78955078,-87.52639000
21.82006836,-87.03949000
21.85058594,-88.67387000
21.88110352,-93.47129000
21.91162109,-98.09009000
21.94213867,-96.75444000
21.97265625,-97.22559000
22.00317383,-97.59331000
22.03369141,-95.59534000
22.06420898,-93.18500000
22.09472656,-91.81282000
22.12524414,-91.05813000
22.15576172,-90.66563000
22.18627930,-91.42413000
22.21679688,-94.06511000
22.24731445,-99.61720000
22.27783203,-116.68700000
22.30834961,-104.67120000
22.33886719,-99.32156000
22.36938477,-97.31433000
22.39990234,-95.36872000
22.43041992,-94.03774000
22.46093750,-96.13367000
22.49145508,-103.20910000
22.52197266,-99.75914000
22.55249023,-97.68836000
22.58300781,-98.17743000
22.61352539,-97.95554000
22.64404297,-97.24394000
22.67456055,-97.05458000
22.70507813,-97.89026000
22.73559570,-101.48790000
22.76611328,-119.39480000
22.79663086,-96.36150000
22.82714844,-90.85027000
22.85766602,-89.40350000
22.88818359,-90.93102000
22.91870117,-94.76021000
22.94921875,-98.16415000
22.97973633,-99.71118000
23.01025391,-103.30450000
23.04077148,-107.04150000
23.07128906,-101.29670000
23.10180664,-100.34240000
23.13232422,-100.34560000
23.16284180,-93.19112000
23.19335938,-89.66363000
23.22387695,-89.09003000
23.25439453,-90.74922000
23.28491211,-94.24646000
23.31542969,-97.15186000
23.34594727,-98.15929000
23.37646484,-98.03996000
23.40698242,-95.93398000
23.43750000,-95.60071000
23.46801758,-99.06991000
23.49853516,-105.02400000
23.52905273,-102.74580000
23.55957031,-100.88080000
23.59008789,-98.43199000
23.62060547,-96.48918000
23.65112305,-96.78025000
23.68164063,-99.61204000
23.71215820,-101.38070000
23.74267578,-99.89220000
23.77319336,-103.23270000
23.80371094,-105.52990000
23.83422852,-94.13448000
23.86474609,-91.66171000
23.89526367,-93.42503000
23.92578125,-97.89444000
23.95629883,-98.24547000
23.98681641,-96.91700000
24.01733398,-98.53782000
24.04785156,-103.69980000
24.07836914,-105.95030000
24.10888672,-97.06551000
24.13940430,-91.19674000
24.16992188,-87.90574000
24.20043945,-86.79414000
24.23095703,-87.61916000
24.26147461,-89.75905000
24.29199219,-91.33729000
24.32250977,-90.76862000
24.35302734,-89.49917000
24.38354492,-89.65145000
24.41406250,-92.81354000
24.44458008,-98.86367000
24.47509766,-93.85764000
24.50561523,-90.86976000
24.53613281,-91.41270000
24.56665039,-94.32687000
24.59716797,-97.07220000
24.62768555,-96.64314000
24.65820313,-95.56886000
24.68872070,-94.94511000
24.71923828,-93.82378000
24.74975586,-93.89156000
24.78027344,-98.08270000
24.81079102,-100.55130000
24.84130859,-93.20670000
24.87182617,-92.05245000
24.90234375,-94.81544000
24.93286133,-100.17790000
24.96337891,-108.53860000
24.99389648,-110.67860000
25.02441406,-100.00600000
25.05493164,-94.52794000
25.08544922,-91.39098000
25.11596680,-89.60715000
25.14648438,-88.48583000
25.17700195,-87.99248000
25.20751953,-88.77135000
25.23803711,-91.70915000
25.26855469,-97.60687000
25.29907227,-101.83670000
25.32958984,-101.18310000
25.36010742,-103.61020000
25.39062500,-100.18720000
25.42114258,-95.56683000
25.45166016,-93.44379000
25.48217773,-91.85238000
25.51269531,-90.77744000
25.54321289,-91.30074000
25.57373047,-93.43998000
25.60424805,-97.02022000
25.63476563,-105.58340000
25.66528320,-101.65300000
25.69580078,-94.41745000
25.72631836,-92.73055000
25.75683594,-93.58651000
25.78735352,-93.75713000
25.81787109,-92.57823000
25.84838867,-91.33337000
25.87890625,-90.66215000
25.90942383,-91.62909000
25.93994141,-95.55579000
25.97045898,-103.85510000
26.00097656,-104.31000000
26.03149414,-107.27930000
26.06201172,-101.38830000
26.09252930,-94.10885000
26.12304688,-91.87540000
26.15356445,-93.19534000
26.18408203,-97.51068000
26.21459961,-103.23390000
26.24511719,-100.75490000
26.27563477,-95.87182000
26.30615234,-94.40813000
26.33666992,-96.05690000
26.36718750,-98.73872000
26.39770508,-100.75570000
26.42822266,-112.98880000
26.45874023,-101.10760000
26.48925781,-95.29626000
26.51977539,-93.39669000
26.55029297,-93.31458000
26.58081055,-93.45898000
26.61132813,-91.83402000
26.64184570,-89.31748000
26.67236328,-86.92939000
26.70288086,-85.64545000
26.73339844,-86.11497000
26.76391602,-88.85324000
26.79443359,-95.63841000
26.82495117,-100.63340000
26.85546875,-92.89062000
26.88598633,-91.21537000
26.91650391,-92.38565000
26.94702148,-94.65816000
26.97753906,-96.93703000
27.00805664,-97.73019000
27.03857422,-96.20961000
27.06909180,-97.09068000
27.09960938,-103.49220000
27.13012695,-96.48758000
27.16064453,-91.86535000
27.19116211,-90.98678000
27.22167969,-91.47017000
27.25219727,-91.79737000
27.28271484,-92.30831000
27.31323242,-91.84567000
27.34375000,-89.53673000
27.37426758,-88.36777000
27.40478516,-89.46913000
27.43530273,-92.90244000
27.46582031,-96.55771000
27.49633789,-93.69788000
27.52685547,-90.82845000
27.55737305,-90.29616000
27.58789063,-91.59123000
27.61840820,-94.00293000
27.64892578,-96.85482000
27.67944336,-99.85459000
27.70996094,-104.10000000
27.74047852,-109.59070000
27.77099609,-103.20030000
27.80151367,-98.58525000
27.83203125,-95.65916000
27.86254883,-94.54713000
27.89306641,-96.87766000
27.92358398,-105.40350000
27.95410156,-104.92880000
27.98461914,-101.76780000
28.01513672,-102.60160000
28.04565430,-105.92990000
28.07617188,-97.33669000
28.10668945,-91.61534000
28.13720703,-88.94372000
28.16772461,-87.98558000
28.19824219,-88.22818000
28.22875977,-89.75725000
28.25927734,-93.00835000
28.28979492,-98.61571000
28.32031250,-106.36660000
28.35083008,-103.00120000
28.38134766,-98.26476000
28.41186523,-95.15728000
28.44238281,-93.40089000
28.47290039,-92.22928000
28.50341797,-91.05584000
28.53393555,-90.11138000
28.56445313,-89.90617000
28.59497070,-90.59358000
28.62548828,-92.17179000
28.65600586,-94.86945000
28.68652344,-97.43486000
28.71704102,-96.18308000
28.74755859,-94.03542000
28.77807617,-93.59413000
28.80859375,-95.81874000
28.83911133,-99.02751000
28.86962891,-96.45088000
28.90014648,-95.45952000
28.93066406,-98.21659000
28.96118164,-102.25880000
28.99169922,-97.67654000
29.02221680,-94.55651000
29.05273438,-94.98318000
29.08325195,-99.20938000
29.11376953,-96.95335000
29.14428711,-93.50050000
29.17480469,-94.59993000
29.20532227,-99.56017000
29.23583984,-100.27340000
29.26635742,-99.22510000
29.29687500,-103.70990000
29.32739258,-102.48870000
29.35791016,-95.78862000
29.38842773,-93.61832000
29.41894531,-94.33959000
29.44946289,-98.05770000
29.47998047,-109.23360000
29.51049805,-99.62395000
29.54101563,-94.20934000
29.57153320,-93.68023000
29.60205078,-96.27189000
29.63256836,-96.87646000
29.66308594,-93.49831000
29.69360352,-90.51789000
29.72412109,-89.01497000
29.75463867,-89.09937000
29.78515625,-90.77682000
29.81567383,-93.91045000
29.84619141,-97.02138000
29.87670898,-98.34840000
29.90722656,-99.20335000
29.93774414,-100.99150000
29.96826172,-94.48566000
29.99877930,-90.00644000
30.02929688,-89.02875000
30.05981445,-90.55446000
30.09033203,-93.53538000
30.12084961,-96.25797000
30.15136719,-97.67204000
30.18188477,-98.78745000
30.21240234,-98.57730000
30.24291992,-95.64359000
30.27343750,-93.52882000
30.30395508,-93.71616000
30.33447266,-95.73658000
30.36499023,-97.26200000
30.39550781,-97.50290000
30.42602539,-98.34549000
30.45654297,-100.55710000
30.48706055,-105.10910000
30.51757813,-110.11650000
30.54809570,-100.31900000
30.57861328,-96.46947000
30.60913086,-95.67191000
30.63964844,-96.61772000
30.67016602,-98.91380000
30.70068359,-101.11330000
30.73120117,-99.54694000
30.76171875,-97.10580000
30.79223633,-95.50166000
30.82275391,-92.46509000
30.85327148,-89.98232000
30.88378906,-90.02776000
30.91430664,-92.76254000
30.94482422,-98.04472000
30.97534180,-101.80260000
31.00585938,-96.62695000
31.03637695,-92.63812000
31.06689453,-90.93666000
31.09741211,-90.95284000
31.12792969,-91.74306000
31.15844727,-92.22209000
31.18896484,-91.61215000
31.21948242,-90.28079000
31.25000000,-89.60799000
31.28051758,-90.57733000
31.31103516,-93.95171000
31.34155273,-100.63750000
31.37207031,-109.91370000
31.40258789,-109.57050000
31.43310547,-104.21380000
31.46362305,-103.72740000
31.49414063,-108.06000000
31.52465820,-102.85280000
31.55517578,-95.91958000
31.58569336,-92.99716000
31.61621094,-92.46799000
31.64672852,-92.90904000
31.67724609,-91.00417000
31.70776367,-88.46615000
31.73828125,-88.60512000
31.76879883,-92.89897000
31.79931641,-97.32327000
31.82983398,-92.15088000
31.86035156,-90.74036000
31.89086914,-90.84122000
31.92138672,-89.96794000
31.95190430,-88.99323000
31.98242188,-89.40128000
32.01293945,-90.93750000
32.04345703,-90.95195000
32.07397461,-89.75380000
32.10449219,-90.66728000
32.13500977,-95.60921000
32.16552734,-101.50040000
32.19604492,-96.07741000
32.22656250,-96.22646000
32.25708008,-101.48950000
32.28759766,-102.76650000
32.31811523,-95.40694000
32.34863281,-90.76163000
32.37915039,-89.58633000
32.40966797,-92.34087000
32.44018555,-97.16130000
32.47070313,-92.36713000
32.50122070,-89.72859000
32.53173828,-89.62140000
32.56225586,-91.32021000
32.59277344,-96.39664000
32.62329102,-99.10092000
32.65380859,-91.78531000
32.68432617,-89.70737000
32.71484375,-90.53024000
32.74536133,-92.95100000
32.77587891,-96.21585000
32.80639648,-101.58010000
32.83691406,-103.47810000
32.86743164,-97.44511000
32.89794922,-94.88869000
32.92846680,-94.70340000
32.95898438,-96.54321000
32.98950195,-100.72470000
33.02001953,-102.08790000
33.05053711,-97.44032000
33.08105469,-93.77264000
33.11157227,-91.84815000
33.14208984,-92.10346000
33.17260742,-93.72826000
33.20312500,-93.38623000
33.23364258,-91.29762000
33.26416016,-90.29881000
33.29467773,-91.06599000
33.32519531,-93.34402000
33.35571289,-93.78183000
33.38623047,-90.79085000
33.41674805,-88.51027000
33.44726563,-87.78835000
33.47778320,-88.37292000
33.50830078,-89.30504000
33.53881836,-89.14452000
33.56933594,-88.27380000
33.59985352,-87.82648000
33.63037109,-88.23051000
33.66088867,-89.81003000
33.69140625,-93.08755000
33.72192383,-96.28203000
33.75244141,-93.01370000
33.78295898,-90.29184000
33.81347656,-90.45150000
33.84399414,-92.52592000
33.87451172,-91.40739000
33.90502930,-88.33801000
33.93554688,-87.16110000
33.96606445,-88.26073000
33.99658203,-91.25116000
34.02709961,-93.28037000
34.05761719,-92.80083000
34.08813477,-92.05431000
34.11865234,-91.14532000
34.14916992,-90.55142000
34.17968750,-91.33183000
34.21020508,-93.38440000
34.24072266,-93.68255000
34.27124023,-93.58652000
34.30175781,-94.53307000
34.33227539,-91.55761000
34.36279297,-87.81884000
34.39331055,-85.98276000
34.42382813,-85.98557000
34.45434570,-87.59309000
34.48486328,-90.20538000
34.51538086,-92.84232000
34.54589844,-94.55285000
34.57641602,-92.89392000
34.60693359,-89.70374000
34.63745117,-87.63477000
34.66796875,-86.91662000
34.69848633,-86.98802000
34.72900391,-87.00998000
34.75952148,-87.01679000
34.79003906,-87.89039000
34.82055664,-90.05133000
34.85107422,-90.99934000
34.88159180,-88.89350000
34.91210938,-88.14111000
34.94262695,-89.98277000
34.97314453,-93.24952000
35.00366211,-93.43607000
35.03417969,-91.09262000
35.06469727,-89.11653000
35.09521484,-87.92713000
35.12573242,-87.32876000
35.15625000,-86.90640000
35.18676758,-86.33205000
35.21728516,-85.81998000
35.24780273,-85.72366000
35.27832031,-86.13425000
35.30883789,-87.12730000
35.33935547,-89.00455000
35.36987305,-90.78323000
35.40039063,-89.54098000
35.43090820,-87.94817000
35.46142578,-88.56713000
35.49194336,-92.11124000
35.52246094,-95.22917000
35.55297852,-91.36725000
35.58349609,-88.89817000
35.61401367,-87.84382000
35.64453125,-87.43156000
35.67504883,-87.83202000
35.70556641,-89.28603000
35.73608398,-91.26472000
35.76660156,-91.14571000
35.79711914,-88.70702000
35.82763672,-87.02527000
35.85815430,-86.88190000
35.88867188,-87.97031000
35.91918945,-89.55898000
35.94970703,-90.92876000
35.98022461,-91.83620000
36.01074219,-92.45781000
36.04125977,-93.38942000
36.07177734,-95.07419000
36.10229492,-95.95950000
36.13281250,-94.30785000
36.16333008,-92.90604000
36.19384766,-93.04940000
36.22436523,-94.19089000
36.25488281,-94.63278000
36.28540039,-93.45583000
36.31591797,-91.65205000
36.34643555,-89.95874000
36.37695313,-88.87094000
36.40747070,-88.69876000
36.43798828,-89.30088000
36.46850586,-90.26951000
36.49902344,-90.96877000
36.52954102,-91.10344000
36.56005859,-92.37656000
36.59057617,-97.85129000
36.62109375,-101.31820000
36.65161133,-94.58073000
36.68212891,-93.40326000
36.71264648,-94.71024000
36.74316406,-94.37730000
36.77368164,-91.79946000
36.80419922,-90.50544000
36.83471680,-90.34236000
36.86523438,-89.74403000
36.89575195,-89.19602000
36.92626953,-89.95050000
36.95678711,-91.83328000
36.98730469,-94.10114000
37.01782227,-96.35252000
37.04833984,-97.66885000
37.07885742,-94.72711000
37.10937500,-91.37457000
37.13989258,-90.51471000
37.17041016,-92.36206000
37.20092773,-97.99271000
37.23144531,-103.87270000
37.26196289,-95.25497000
37.29248047,-91.75450000
37.32299805,-90.51004000
37.35351563,-90.42525000
37.38403320,-91.14755000
37.41455078,-92.38251000
37.44506836,-93.25938000
37.47558594,-93.20128000
37.50610352,-92.53887000
37.53662109,-91.62327000
37.56713867,-91.11584000
37.59765625,-92.33636000
37.62817383,-97.20557000
37.65869141,-107.62790000
37.68920898,-97.46524000
37.71972656,-93.28472000
37.75024414,-92.01686000
37.78076172,-93.75395000
37.81127930,-98.77300000
37.84179688,-94.31514000
37.87231445,-90.31905000
37.90283203,-89.27150000
37.93334961,-89.90051000
37.96386719,-91.67128000
37.99438477,-93.95241000
38.02490234,-94.83272000
38.05541992,-94.02026000
38.08593750,-93.69749000
38.11645508,-94.84334000
38.14697266,-97.12318000
38.17749023,-99.81207000
38.20800781,-105.93450000
38.23852539,-104.01650000
38.26904297,-95.27100000
38.29956055,-92.40752000
38.33007813,-92.33871000
38.36059570,-93.18777000
38.39111328,-92.97897000
38.42163086,-91.93275000
38.45214844,-91.52649000
38.48266602,-92.81570000
38.51318359,-97.17088000
38.54370117,-107.49720000
38.57421875,-103.52180000
38.60473633,-101.35010000
38.63525391,-99.53349000
38.66577148,-95.34497000
38.69628906,-91.15242000
38.72680664,-89.33669000
38.75732422,-90.60965000
38.78784180,-95.07503000
38.81835938,-97.19812000
38.84887695,-94.75810000
38.87939453,-94.67361000
38.90991211,-96.35207000
38.94042969,-98.49865000
38.97094727,-101.42030000
39.00146484,-104.01160000
39.03198242,-101.60760000
39.06250000,-97.18228000
39.09301758,-94.73064000
39.12353516,-94.02501000
39.15405273,-93.46259000
39.18457031,-93.21998000
39.21508789,-94.58948000
39.24560547,-97.66296000
39.27612305,-100.78580000
39.30664063,-101.87950000
39.33715820,-100.76190000
39.36767578,-99.36997000
39.39819336,-99.84142000
39.42871094,-101.61660000
39.45922852,-104.94210000
39.48974609,-116.18990000
39.52026367,-97.76695000
39.55078125,-93.40852000
39.58129883,-93.83270000
39.61181641,-98.33881000
39.64233398,-106.00110000
39.67285156,-112.77180000
39.70336914,-122.12340000
39.73388672,-102.93150000
39.76440430,-96.75248000
39.79492188,-94.44420000
39.82543945,-94.18003000
39.85595703,-95.70205000
39.88647461,-98.39479000
39.91699219,-98.54394000
39.94750977,-100.35130000
39.97802734,-99.61528000
40.00854492,-93.59241000
40.03906250,-91.64066000
40.06958008,-91.09541000
40.10009766,-89.11325000
40.13061523,-86.90004000
40.16113281,-86.09055000
40.19165039,-87.45075000
40.22216797,-92.21559000
40.25268555,-105.67950000
40.28320313,-101.75990000
40.31372070,-99.50233000
40.34423828,-96.28156000
40.37475586,-91.99173000
40.40527344,-90.01921000
40.43579102,-90.50125000
40.46630859,-93.81950000
40.49682617,-100.54750000
40.52734375,-105.11050000
40.55786133,-121.02190000
40.58837891,-99.15831000
40.61889648,-95.04635000
40.64941406,-96.88928000
40.67993164,-101.33450000
40.71044922,-98.32248000
40.74096680,-96.39955000
40.77148438,-94.89796000
40.80200195,-95.12627000
40.83251953,-98.26173000
40.86303711,-96.02238000
40.89355469,-92.39729000
40.92407227,-92.30058000
40.95458984,-95.32829000
40.98510742,-99.60284000
41.01562500,-96.57533000
41.04614258,-92.18934000
41.07666016,-91.71115000
41.10717773,-95.33660000
41.13769531,-92.83662000
41.16821289,-88.54417000
41.19873047,-86.32280000
41.22924805,-85.19759000
41.25976563,-86.02592000
41.29028320,-89.26694000
41.32080078,-93.10098000
41.35131836,-92.71045000
41.38183594,-92.36480000
41.41235352,-94.52210000
41.44287109,-99.77668000
41.47338867,-104.09950000
41.50390625,-96.25844000
41.53442383,-93.44547000
41.56494141,-93.57799000
41.59545898,-92.38414000
41.62597656,-88.65634000
41.65649414,-86.79298000
41.68701172,-87.66093000
41.71752930,-90.83419000
41.74804688,-94.02741000
41.77856445,-94.12480000
41.80908203,-91.32907000
41.83959961,-87.75902000
41.87011719,-85.84657000
41.90063477,-86.78568000
41.93115234,-91.15140000
41.96166992,-97.80661000
41.99218750,-98.60821000
42.02270508,-94.98187000
42.05322266,-92.26760000
42.08374023,-91.70111000
42.11425781,-92.18987000
42.14477539,-91.05050000
42.17529297,-89.09843000
42.20581055,-89.31242000
42.23632813,-92.08606000
42.26684570,-91.73438000
42.29736328,-89.97207000
42.32788086,-90.33105000
42.35839844,-90.06984000
42.38891602,-89.41516000
42.41943359,-90.92102000
42.44995117,-97.94576000
42.48046875,-98.23427000
42.51098633,-88.87811000
42.54150391,-86.71306000
42.57202148,-88.66047000
42.60253906,-94.96585000
42.63305664,-97.01912000
42.66357422,-93.70244000
42.69409180,-92.80917000
42.72460938,-92.74760000
42.75512695,-92.81277000
42.78564453,-93.10541000
42.81616211,-90.86709000
42.84667969,-86.99471000
42.87719727,-85.64413000
42.90771484,-87.24591000
42.93823242,-89.77071000
42.96875000,-87.90079000
42.99926758,-84.54140000
43.02978516,-83.47792000
43.06030273,-85.69431000
43.09082031,-92.70630000
43.12133789,-99.26279000
43.15185547,-90.78477000
43.18237305,-87.47547000
43.21289063,-86.98463000
43.24340820,-90.49803000
43.27392578,-100.43530000
43.30444336,-100.48230000
43.33496094,-102.90580000
43.36547852,-97.16476000
43.39599609,-96.41632000
43.42651367,-101.08790000
43.45703125,-97.52502000
43.48754883,-90.90435000
43.51806641,-88.12387000
43.54858398,-88.31607000
43.57910156,-92.01749000
43.60961914,-101.31010000
43.64013672,-111.11910000
43.67065430,-95.32484000
43.70117188,-89.79147000
43.73168945,-88.54871000
43.76220703,-90.53543000
43.79272461,-96.62349000
43.82324219,-101.38580000
43.85375977,-93.10069000
43.88427734,-91.10773000
43.91479492,-93.37306000
43.94531250,-98.23126000
43.97583008,-96.66561000
44.00634766,-92.47230000
44.03686523,-90.69339000
44.06738281,-92.58513000
44.09790039,-99.38730000
44.12841797,-104.34610000
44.15893555,-96.49355000
44.18945313,-92.99327000
44.21997070,-92.33605000
44.25048828,-94.14995000
44.28100586,-95.95393000
44.31152344,-94.57877000
44.34204102,-91.64550000
44.37255859,-90.33434000
44.40307617,-92.12822000
44.43359375,-98.63125000
44.46411133,-96.02439000
44.49462891,-89.19358000
44.52514648,-86.31120000
44.55566406,-86.07446000
44.58618164,-87.93095000
44.61669922,-90.68951000
44.64721680,-90.95016000
44.67773438,-88.06031000
44.70825195,-86.48526000
44.73876953,-87.01707000
44.76928711,-89.51036000
44.79980469,-95.65369000
44.83032227,-106.18420000
44.86083984,-93.92770000
44.89135742,-91.54076000
44.92187500,-92.29629000
44.95239258,-94.44859000
44.98291016,-93.28427000
45.01342773,-88.54743000
45.04394531,-86.65924000
45.07446289,-87.48824000
45.10498047,-89.84097000
45.13549805,-91.80370000
45.16601563,-91.02628000
45.19653320,-89.27718000
45.22705078,-88.83045000
45.25756836,-89.29440000
45.28808594,-89.44719000
45.31860352,-88.93384000
45.34912109,-88.09303000
45.37963867,-88.15414000
45.41015625,-90.18312000
45.44067383,-94.88120000
45.47119141,-104.76500000
45.50170898,-106.35570000
45.53222656,-100.75330000
45.56274414,-96.74460000
45.59326172,-92.26439000
45.62377930,-91.68947000
45.65429688,-98.50589000
45.68481445,-98.77636000
45.71533203,-91.89330000
45.74584961,-91.32838000
45.77636719,-92.41645000
45.80688477,-93.78568000
45.83740234,-97.84590000
45.86791992,-123.89030000
45.89843750,-100.12930000
45.92895508,-97.89661000
45.95947266,-97.22538000
45.98999023,-94.10815000
46.02050781,-91.21730000
46.05102539,-90.52182000
46.08154297,-92.34046000
46.11206055,-95.94250000
46.14257813,-99.53408000
46.17309570,-101.72540000
46.20361328,-99.87926000
46.23413086,-94.35124000
46.26464844,-91.69946000
46.29516602,-93.00881000
46.32568359,-96.64224000
46.35620117,-91.38778000
46.38671875,-87.90825000
46.41723633,-87.75070000
46.44775391,-90.11076000
46.47827148,-94.51033000
46.50878906,-100.10900000
46.53930664,-100.78290000
46.56982422,-99.10480000
46.60034180,-99.21788000
46.63085938,-98.89388000
46.66137695,-96.93528000
46.69189453,-94.10284000
46.72241211,-93.06970000
46.75292969,-93.77649000
46.78344727,-94.36914000
46.81396484,-94.55230000
46.84448242,-95.08210000
46.87500000,-95.92353000
46.90551758,-96.19543000
46.93603516,-96.63387000
46.96655273,-98.08423000
46.99707031,-97.03609000
47.02758789,-95.36079000
47.05810547,-96.07329000
47.08862305,-100.02930000
47.11914063,-101.56880000
47.14965820,-96.21057000
47.18017578,-93.61699000
47.21069336,-93.29507000
47.24121094,-94.38052000
47.27172852,-95.24226000
47.30224609,-95.48125000
47.33276367,-97.09894000
47.36328125,-103.10140000
47.39379883,-109.54430000
47.42431641,-97.64083000
47.45483398,-93.82799000
47.48535156,-92.32838000
47.51586914,-91.76070000
47.54638672,-91.21910000
47.57690430,-90.79525000
47.60742188,-91.58781000
47.63793945,-94.93606000
47.66845703,-103.77410000
47.69897461,-107.51670000
47.72949219,-102.40300000
47.76000977,-103.66270000
47.79052734,-106.81190000
47.82104492,-108.86780000
47.85156250,-111.00220000
47.88208008,-102.08410000
47.91259766,-96.72510000
47.94311523,-94.28811000
47.97363281,-93.44361000
48.00415039,-93.68196000
48.03466797,-94.45760000
48.06518555,-94.57040000
48.09570313,-93.42508000
48.12622070,-91.81336000
48.15673828,-90.28199000
48.18725586,-89.27072000
48.21777344,-89.75819000
48.24829102,-92.95647000
48.27880859,-101.98730000
48.30932617,-105.34810000
48.33984375,-96.22738000
48.37036133,-93.32162000
48.40087891,-93.89037000
48.43139648,-97.65623000
48.46191406,-101.90960000
48.49243164,-100.73440000
48.52294922,-98.23463000
48.55346680,-99.11481000
48.58398438,-104.31050000
48.61450195,-101.59970000
48.64501953,-94.48373000
48.67553711,-89.77983000
48.70605469,-87.40302000
48.73657227,-87.50320000
48.76708984,-90.18927000
48.79760742,-95.44585000
48.82812500,-99.29356000
48.85864258,-96.88623000
48.88916016,-97.38983000
48.91967773,-103.66770000
48.95019531,-115.15540000
48.98071289,-101.85340000
49.01123047,-91.24522000
49.04174805,-87.54767000
49.07226563,-87.86620000
49.10278320,-91.29147000
49.13330078,-96.87099000
49.16381836,-101.46000000
49.19433594,-98.17780000
49.22485352,-95.46767000
49.25537109,-95.01465000
49.28588867,-95.61768000
49.31640625,-94.09126000
49.34692383,-89.99622000
49.37744141,-87.75735000
49.40795898,-88.83023000
49.43847656,-93.81817000
49.46899414,-99.88425000
49.49951172,-96.80154000
49.53002930,-94.99159000
49.56054688,-96.66235000
49.59106445,-101.83610000
49.62158203,-99.77943000
49.65209961,-94.23012000
49.68261719,-90.71038000
49.71313477,-89.24399000
49.74365234,-89.94415000
49.77416992,-92.25517000
49.80468750,-93.94390000
49.83520508,-93.73636000
49.86572266,-93.58751000
49.89624023,-94.79150000
49.92675781,-97.99194000
49.95727539,-107.69450000
49.98779297,-96.56801000
50.01831055,-89.18888000
