Frequency,Channel A
(MHz),(dBu)

0.00000000,-29.10272000
0.03051758,-29.46912000
0.06103516,-34.74310000
0.09155273,-45.45028000
0.12207031,-55.62267000
0.15258789,-52.33134000
0.18310547,-53.23193000
0.21362305,-54.70221000
0.24414063,-56.38879000
0.27465820,-57.91101000
0.30517578,-59.95647000
0.33569336,-62.50299000
0.36621094,-64.25254000
0.39672852,-64.46937000
0.42724609,-63.82788000
0.45776367,-63.31934000
0.48828125,-64.05565000
0.51879883,-66.00932000
0.54931641,-64.43801000
0.57983398,-65.05616000
0.61035156,-67.46205000
0.64086914,-54.83739000
0.67138672,-50.26048000
0.70190430,-49.32590000
0.73242188,-50.85212000
0.76293945,-54.08279000
0.79345703,-57.63251000
0.82397461,-59.84035000
0.85449219,-61.28508000
0.88500977,-61.85101000
0.91552734,-61.52122000
0.94604492,-60.99327000
0.97656250,-60.33901000
1.00708008,-60.05500000
1.03759766,-60.60417000
1.06811523,-61.58051000
1.09863281,-62.33191000
1.12915039,-63.13492000
1.15966797,-64.63792000
1.19018555,-66.60984000
1.22070313,-66.33831000
1.25122070,-63.59336000
1.28173828,-61.28508000
1.31225586,-60.33255000
1.34277344,-60.78081000
1.37329102,-61.97229000
1.40380859,-62.84622000
1.43432617,-64.01539000
1.46484375,-66.40223000
1.49536133,-65.17089000
1.52587891,-62.26265000
1.55639648,-62.30964000
1.58691406,-65.95200000
1.61743164,-68.83407000
1.64794922,-63.71986000
1.67846680,-61.57085000
1.70898438,-62.48317000
1.73950195,-66.10305000
1.77001953,-70.97642000
1.80053711,-70.99213000
1.83105469,-68.15021000
1.86157227,-65.29761000
1.89208984,-63.72978000
1.92260742,-63.80029000
1.95312500,-64.43870000
1.98364258,-63.57296000
2.01416016,-62.07954000
2.04467773,-61.69264000
2.07519531,-62.97454000
2.10571289,-66.45569000
2.13623047,-71.77515000
2.16674805,-70.23130000
2.19726563,-67.70229000
2.22778320,-67.24286000
2.25830078,-66.35305000
2.28881836,-65.10130000
2.31933594,-65.33717000
2.34985352,-67.16364000
2.38037109,-68.42634000
2.41088867,-67.85363000
2.44140625,-68.14332000
2.47192383,-70.14987000
2.50244141,-71.97784000
2.53295898,-70.91237000
2.56347656,-68.99326000
2.59399414,-67.77076000
2.62451172,-67.15050000
2.65502930,-66.59582000
2.68554688,-66.27657000
2.71606445,-67.21690000
2.74658203,-70.04715000
2.77709961,-70.62373000
2.80761719,-66.78100000
2.83813477,-64.43156000
2.86865234,-63.87383000
2.89916992,-64.64708000
2.92968750,-66.46834000
2.96020508,-68.02866000
2.99072266,-66.13954000
3.02124023,-63.34770000
3.05175781,-61.87931000
3.08227539,-61.52094000
3.11279297,-61.93518000
3.14331055,-63.32780000
3.17382813,-65.71812000
3.20434570,-67.10686000
3.23486328,-66.10007000
3.26538086,-65.18572000
3.29589844,-64.84797000
3.32641602,-64.01456000
3.35693359,-62.70834000
3.38745117,-61.81840000
3.41796875,-61.44503000
3.44848633,-61.34555000
3.47900391,-61.55605000
3.50952148,-62.08725000
3.54003906,-62.76240000
3.57055664,-63.44370000
3.60107422,-63.29646000
3.63159180,-61.94521000
3.66210938,-60.76170000
3.69262695,-60.10345000
3.72314453,-59.57642000
3.75366211,-59.55673000
3.78417969,-60.61958000
3.81469727,-62.04773000
3.84521484,-61.92838000
3.87573242,-60.94737000
3.90625000,-60.32420000
3.93676758,-60.01950000
3.96728516,-59.93040000
3.99780273,-59.85559000
4.02832031,-59.53635000
4.05883789,-59.33614000
4.08935547,-59.73627000
4.11987305,-60.67327000
4.15039063,-61.92519000
4.18090820,-63.54548000
4.21142578,-64.30006000
4.24194336,-62.75009000
4.27246094,-61.35377000
4.30297852,-61.29676000
4.33349609,-62.18284000
4.36401367,-63.31891000
4.39453125,-64.55499000
4.42504883,-66.16572000
4.45556641,-67.66473000
4.48608398,-67.68125000
4.51660156,-66.78130000
4.54711914,-66.36712000
4.57763672,-66.73581000
4.60815430,-67.78174000
4.63867188,-69.53579000
4.66918945,-71.91145000
4.69970703,-73.24045000
4.73022461,-71.78971000
4.76074219,-69.72368000
4.79125977,-68.41088000
4.82177734,-68.07891000
4.85229492,-68.56217000
4.88281250,-69.33238000
4.91333008,-70.17629000
4.94384766,-72.12241000
4.97436523,-76.14902000
5.00488281,-73.33379000
5.03540039,-68.14981000
5.06591797,-65.73363000
5.09643555,-65.40166000
5.12695313,-66.90230000
5.15747070,-70.73472000
5.18798828,-79.96653000
5.21850586,-75.98933000
5.24902344,-69.72460000
5.27954102,-67.65364000
5.31005859,-67.58514000
5.34057617,-68.10611000
5.37109375,-68.41006000
5.40161133,-69.56868000
5.43212891,-73.46352000
5.46264648,-84.51151000
5.49316406,-78.09565000
5.52368164,-73.71766000
5.55419922,-73.32513000
5.58471680,-74.77042000
5.61523438,-77.98079000
5.64575195,-79.91174000
5.67626953,-72.08530000
5.70678711,-67.03818000
5.73730469,-64.15157000
5.76782227,-62.59497000
5.79833984,-62.17184000
5.82885742,-62.79039000
5.85937500,-64.06499000
5.88989258,-65.06140000
5.92041016,-64.47078000
5.95092773,-62.51048000
5.98144531,-60.75916000
6.01196289,-59.91409000
6.04248047,-59.93736000
6.07299805,-60.67741000
6.10351563,-62.05637000
6.13403320,-63.72456000
6.16455078,-64.93554000
6.19506836,-65.40865000
6.22558594,-65.14167000
6.25610352,-64.24574000
6.28662109,-63.41938000
6.31713867,-63.07742000
6.34765625,-63.34590000
6.37817383,-64.49307000
6.40869141,-66.83456000
6.43920898,-70.34995000
6.46972656,-73.41123000
6.50024414,-72.43331000
6.53076172,-69.95760000
6.56127930,-68.52579000
6.59179688,-68.37388000
6.62231445,-69.52588000
6.65283203,-72.33058000
6.68334961,-78.02332000
6.71386719,-94.19984000
6.74438477,-82.63183000
6.77490234,-77.85674000
6.80541992,-75.28819000
6.83593750,-73.80558000
6.86645508,-73.93810000
6.89697266,-75.79044000
6.92749023,-78.49191000
6.95800781,-80.19290000
6.98852539,-80.59564000
7.01904297,-80.39033000
7.04956055,-79.66717000
7.08007813,-78.90498000
7.11059570,-78.48561000
7.14111328,-78.57296000
7.17163086,-79.58441000
7.20214844,-82.20673000
7.23266602,-86.72929000
7.26318359,-88.23723000
7.29370117,-86.54181000
7.32421875,-87.26730000
7.35473633,-89.25666000
7.38525391,-86.49181000
7.41577148,-82.96703000
7.44628906,-81.00755000
7.47680664,-79.92021000
7.50732422,-79.32394000
7.53784180,-79.45365000
7.56835938,-81.16184000
7.59887695,-85.65098000
7.62939453,-90.96266000
7.65991211,-89.00451000
7.69042969,-88.23700000
7.72094727,-85.49777000
7.75146484,-82.26462000
7.78198242,-81.06444000
7.81250000,-81.99556000
7.84301758,-85.19814000
7.87353516,-91.53157000
7.90405273,-98.02919000
7.93457031,-88.72458000
7.96508789,-82.54146000
7.99560547,-78.71526000
8.02612305,-76.78038000
8.05664063,-76.35513000
8.08715820,-77.18840000
8.11767578,-79.44954000
8.14819336,-83.77704000
8.17871094,-88.80718000
8.20922852,-85.35610000
8.23974609,-81.78011000
8.27026367,-80.03177000
8.30078125,-79.52907000
8.33129883,-80.13652000
8.36181641,-82.40887000
8.39233398,-88.11861000
8.42285156,-100.35870000
8.45336914,-89.93898000
8.48388672,-86.11930000
8.51440430,-83.93182000
8.54492188,-82.85605000
8.57543945,-83.40164000
8.60595703,-85.93758000
8.63647461,-89.84615000
8.66699219,-92.48574000
8.69750977,-96.91740000
8.72802734,-93.46631000
8.75854492,-86.71165000
8.78906250,-83.60442000
8.81958008,-82.12119000
8.85009766,-81.50814000
8.88061523,-82.23512000
8.91113281,-85.02418000
8.94165039,-89.59706000
8.97216797,-92.86904000
9.00268555,-95.88879000
9.03320313,-92.61119000
9.06372070,-85.95405000
9.09423828,-84.02528000
9.12475586,-85.66267000
9.15527344,-88.40618000
9.18579102,-88.04303000
9.21630859,-87.04720000
9.24682617,-86.93822000
9.27734375,-89.48975000
9.30786133,-95.43715000
9.33837891,-87.90973000
9.36889648,-83.60474000
9.39941406,-82.46973000
9.42993164,-82.87945000
9.46044922,-83.49695000
9.49096680,-84.86877000
9.52148438,-89.06989000
9.55200195,-95.84537000
9.58251953,-90.78011000
9.61303711,-87.79996000
9.64355469,-86.46107000
9.67407227,-84.89156000
9.70458984,-82.97813000
9.73510742,-81.53925000
9.76562500,-81.44949000
9.79614258,-83.07803000
9.82666016,-85.56306000
9.85717773,-87.46027000
9.88769531,-90.13604000
9.91821289,-95.07680000
9.94873047,-102.14040000
9.97924805,-98.95580000
10.00976563,-88.23231000
10.04028320,-82.44064000
10.07080078,-79.73789000
10.10131836,-78.80023000
10.13183594,-78.45897000
10.16235352,-78.46465000
10.19287109,-79.33549000
10.22338867,-81.60219000
10.25390625,-84.67760000
10.28442383,-83.13393000
10.31494141,-79.74046000
10.34545898,-78.26100000
10.37597656,-78.49184000
10.40649414,-79.90682000
10.43701172,-82.68910000
10.46752930,-87.56043000
10.49804688,-88.52995000
10.52856445,-84.10248000
10.55908203,-81.19015000
10.58959961,-79.51618000
10.62011719,-78.64147000
10.65063477,-78.13335000
10.68115234,-77.73083000
10.71166992,-77.59303000
10.74218750,-78.12489000
10.77270508,-79.76691000
10.80322266,-82.71867000
10.83374023,-85.30473000
10.86425781,-85.04018000
10.89477539,-83.08542000
10.92529297,-80.60902000
10.95581055,-79.42567000
10.98632813,-79.70534000
11.01684570,-80.28457000
11.04736328,-80.30647000
11.07788086,-80.71481000
11.10839844,-81.88198000
11.13891602,-81.97586000
11.16943359,-81.04766000
11.19995117,-80.55382000
11.23046875,-79.90871000
11.26098633,-77.43857000
11.29150391,-75.14561000
11.32202148,-74.46288000
11.35253906,-75.07792000
11.38305664,-76.41542000
11.41357422,-78.60477000
11.44409180,-83.05138000
11.47460938,-90.91393000
11.50512695,-88.35518000
11.53564453,-84.70394000
11.56616211,-80.37589000
11.59667969,-76.66699000
11.62719727,-74.65301000
11.65771484,-73.54108000
11.68823242,-72.88762000
11.71875000,-73.41824000
11.74926758,-75.51498000
11.77978516,-78.28613000
11.81030273,-80.08160000
11.84082031,-80.19138000
11.87133789,-80.86673000
11.90185547,-86.37459000
11.93237305,-86.82023000
11.96289063,-77.01606000
11.99340820,-73.10580000
12.02392578,-71.78941000
12.05444336,-72.20313000
12.08496094,-73.82604000
12.11547852,-76.35629000
12.14599609,-80.09494000
12.17651367,-87.22098000
12.20703125,-95.06134000
12.23754883,-82.04963000
12.26806641,-78.04581000
12.29858398,-77.27330000
12.32910156,-79.15692000
12.35961914,-82.85712000
12.39013672,-85.29983000
12.42065430,-83.99574000
12.45117188,-79.60925000
12.48168945,-77.04461000
12.51220703,-77.18966000
12.54272461,-80.12779000
12.57324219,-87.06467000
12.60375977,-93.61774000
12.63427734,-84.81239000
12.66479492,-81.73141000
12.69531250,-80.10146000
12.72583008,-79.14056000
12.75634766,-79.60032000
12.78686523,-82.18513000
12.81738281,-88.25352000
12.84790039,-108.65030000
12.87841797,-85.51265000
12.90893555,-78.75169000
12.93945313,-75.41212000
12.96997070,-74.60143000
13.00048828,-76.23921000
13.03100586,-80.41307000
13.06152344,-85.45264000
13.09204102,-85.88017000
13.12255859,-83.50441000
13.15307617,-83.21318000
13.18359375,-87.46940000
13.21411133,-93.31496000
13.24462891,-89.36677000
13.27514648,-86.30295000
13.30566406,-84.83226000
13.33618164,-87.13904000
13.36669922,-94.63396000
13.39721680,-80.50011000
13.42773438,-76.97092000
13.45825195,-80.89113000
13.48876953,-79.79894000
13.51928711,-68.45773000
13.54980469,-64.35732000
13.58032227,-63.63416000
13.61083984,-65.41937000
13.64135742,-69.34247000
13.67187500,-75.63062000
13.70239258,-78.46679000
13.73291016,-73.43045000
13.76342773,-72.18949000
13.79394531,-74.66306000
13.82446289,-79.19890000
13.85498047,-81.87466000
13.88549805,-89.80238000
13.91601563,-85.19705000
13.94653320,-80.16232000
13.97705078,-80.16768000
14.00756836,-82.30078000
14.03808594,-82.99447000
14.06860352,-80.82161000
14.09912109,-78.45534000
14.12963867,-77.49704000
14.16015625,-78.18018000
14.19067383,-80.44090000
14.22119141,-87.11588000
14.25170898,-89.04443000
14.28222656,-79.16879000
14.31274414,-76.13697000
14.34326172,-75.23599000
14.37377930,-74.86027000
14.40429688,-74.75847000
14.43481445,-75.83978000
14.46533203,-79.34252000
14.49584961,-86.28341000
14.52636719,-90.32022000
14.55688477,-90.09541000
14.58740234,-90.71550000
14.61791992,-93.89993000
14.64843750,-88.78610000
14.67895508,-81.71406000
14.70947266,-78.80447000
14.73999023,-78.34937000
14.77050781,-79.46552000
14.80102539,-81.49639000
14.83154297,-83.65798000
14.86206055,-84.82919000
14.89257813,-84.74226000
14.92309570,-84.75191000
14.95361328,-85.54839000
14.98413086,-85.77434000
15.01464844,-82.86579000
15.04516602,-79.97758000
15.07568359,-78.93701000
15.10620117,-79.74759000
15.13671875,-82.25339000
15.16723633,-85.78564000
15.19775391,-89.34158000
15.22827148,-94.55965000
15.25878906,-90.45522000
15.28930664,-82.98028000
15.31982422,-79.92461000
15.35034180,-79.90135000
15.38085938,-81.83434000
15.41137695,-84.19304000
15.44189453,-86.20248000
15.47241211,-89.63908000
15.50292969,-101.02380000
15.53344727,-88.86398000
15.56396484,-82.54075000
15.59448242,-79.52036000
15.62500000,-78.03223000
15.65551758,-77.52364000
15.68603516,-77.79591000
15.71655273,-78.67177000
15.74707031,-79.87674000
15.77758789,-81.82127000
15.80810547,-86.23029000
15.83862305,-91.18346000
15.86914063,-85.42449000
15.89965820,-82.41003000
15.93017578,-81.25433000
15.96069336,-80.60175000
15.99121094,-80.38622000
16.02172852,-81.48291000
16.05224609,-84.88331000
16.08276367,-90.05341000
16.11328125,-87.93110000
16.14379883,-85.23294000
16.17431641,-84.97400000
16.20483398,-85.75751000
16.23535156,-85.72188000
16.26586914,-85.03224000
16.29638672,-84.33163000
16.32690430,-82.98648000
16.35742188,-81.14178000
16.38793945,-80.18166000
16.41845703,-81.27451000
16.44897461,-85.32800000
16.47949219,-93.54393000
16.51000977,-96.05357000
16.54052734,-91.73832000
16.57104492,-88.49606000
16.60156250,-86.01524000
16.63208008,-85.31065000
16.66259766,-85.84145000
16.69311523,-85.50475000
16.72363281,-84.92554000
16.75415039,-86.13351000
16.78466797,-91.07411000
16.81518555,-101.57030000
16.84570313,-90.22891000
16.87622070,-87.16849000
16.90673828,-86.84993000
16.93725586,-87.04659000
16.96777344,-86.81104000
16.99829102,-86.10859000
17.02880859,-85.82261000
17.05932617,-87.26116000
17.08984375,-91.66879000
17.12036133,-100.82680000
17.15087891,-101.86240000
17.18139648,-96.99073000
17.21191406,-94.36427000
17.24243164,-93.72484000
17.27294922,-91.76810000
17.30346680,-88.22113000
17.33398438,-86.07407000
17.36450195,-85.98341000
17.39501953,-88.01716000
17.42553711,-92.29050000
17.45605469,-96.91774000
17.48657227,-94.88719000
17.51708984,-92.93855000
17.54760742,-93.21018000
17.57812500,-93.36211000
17.60864258,-91.21400000
17.63916016,-88.41577000
17.66967773,-85.24004000
17.70019531,-82.15089000
17.73071289,-79.95553000
17.76123047,-78.82729000
17.79174805,-78.79341000
17.82226563,-80.19626000
17.85278320,-83.92803000
17.88330078,-92.68925000
17.91381836,-95.30721000
17.94433594,-89.03406000
17.97485352,-87.67973000
18.00537109,-88.31400000
18.03588867,-89.91553000
18.06640625,-91.27284000
18.09692383,-91.55160000
18.12744141,-91.96031000
18.15795898,-94.43330000
18.18847656,-98.66414000
18.21899414,-94.98689000
18.24951172,-91.65416000
18.28002930,-91.14226000
18.31054688,-92.28408000
18.34106445,-93.61137000
18.37158203,-94.88083000
18.40209961,-97.07661000
18.43261719,-98.70896000
18.46313477,-97.03818000
18.49365234,-94.74163000
18.52416992,-94.01276000
18.55468750,-94.57393000
18.58520508,-93.93952000
18.61572266,-92.12238000
18.64624023,-90.58395000
18.67675781,-89.31210000
18.70727539,-88.41702000
18.73779297,-88.48663000
18.76831055,-90.16030000
18.79882813,-93.63039000
18.82934570,-96.61479000
18.85986328,-96.79206000
18.89038086,-97.45357000
18.92089844,-98.16646000
18.95141602,-98.20964000
18.98193359,-98.40298000
19.01245117,-96.97974000
19.04296875,-95.40313000
19.07348633,-95.76440000
19.10400391,-97.85620000
19.13452148,-99.60853000
19.16503906,-100.04510000
19.19555664,-100.61470000
19.22607422,-99.45832000
19.25659180,-96.00051000
19.28710938,-93.31892000
19.31762695,-92.12834000
19.34814453,-92.18900000
19.37866211,-93.37128000
19.40917969,-96.02361000
19.43969727,-100.59260000
19.47021484,-103.84480000
19.50073242,-101.85670000
19.53125000,-98.85110000
19.56176758,-96.05270000
19.59228516,-94.23280000
19.62280273,-93.46223000
19.65332031,-93.60287000
19.68383789,-95.57925000
19.71435547,-101.20300000
19.74487305,-99.60995000
19.77539063,-93.93031000
19.80590820,-91.04736000
19.83642578,-89.60739000
19.86694336,-89.29626000
19.89746094,-89.93039000
19.92797852,-91.15498000
19.95849609,-92.19716000
19.98901367,-92.32601000
20.01953125,-92.41234000
20.05004883,-93.09518000
20.08056641,-93.33150000
20.11108398,-93.08134000
20.14160156,-94.58238000
20.17211914,-98.37678000
20.20263672,-96.74213000
20.23315430,-93.62497000
20.26367188,-92.55919000
20.29418945,-91.78059000
20.32470703,-90.14297000
20.35522461,-88.47517000
20.38574219,-87.53592000
20.41625977,-87.19754000
20.44677734,-86.84567000
20.47729492,-86.30685000
20.50781250,-86.11992000
20.53833008,-86.84930000
20.56884766,-88.18675000
20.59936523,-88.53336000
20.62988281,-89.01947000
20.66040039,-92.90758000
20.69091797,-99.79783000
20.72143555,-97.64999000
20.75195313,-105.63310000
20.78247070,-99.68538000
20.81298828,-93.97964000
20.84350586,-91.75627000
20.87402344,-90.20074000
20.90454102,-90.55740000
20.93505859,-93.55685000
20.96557617,-98.13081000
20.99609375,-99.68382000
21.02661133,-102.49750000
21.05712891,-107.73480000
21.08764648,-102.34840000
21.11816406,-92.59355000
21.14868164,-88.05359000
21.17919922,-87.15591000
21.20971680,-88.92986000
21.24023438,-91.72614000
21.27075195,-91.92832000
21.30126953,-87.85791000
21.33178711,-85.04868000
21.36230469,-84.68669000
21.39282227,-86.03346000
21.42333984,-88.64918000
21.45385742,-94.05273000
21.48437500,-94.38092000
21.51489258,-89.07983000
21.54541016,-87.62703000
21.57592773,-88.22830000
21.60644531,-89.36942000
21.63696289,-90.37442000
21.66748047,-91.02831000
21.69799805,-90.74686000
21.72851563,-90.20592000
21.75903320,-91.67007000
21.78955078,-100.38060000
21.82006836,-96.09023000
21.85058594,-88.39156000
21.88110352,-86.46584000
21.91162109,-87.33330000
21.94213867,-89.99352000
21.97265625,-93.79881000
22.00317383,-97.13127000
22.03369141,-94.69242000
22.06420898,-91.85035000
22.09472656,-92.38350000
22.12524414,-97.36411000
22.15576172,-96.68616000
22.18627930,-92.37256000
22.21679688,-91.44440000
22.24731445,-91.92404000
22.27783203,-92.93377000
22.30834961,-94.63023000
22.33886719,-97.99451000
22.36938477,-103.79760000
22.39990234,-100.29820000
22.43041992,-95.52138000
22.46093750,-91.86675000
22.49145508,-89.64909000
22.52197266,-89.80359000
22.55249023,-92.26109000
22.58300781,-95.80769000
22.61352539,-99.16975000
22.64404297,-102.15360000
22.67456055,-104.13270000
22.70507813,-106.11900000
22.73559570,-107.05300000
22.76611328,-100.87100000
22.79663086,-94.41063000
22.82714844,-89.83743000
22.85766602,-87.59042000
22.88818359,-87.81150000
22.91870117,-90.58452000
22.94921875,-96.53923000
22.97973633,-112.39960000
23.01025391,-103.58130000
23.04077148,-97.93087000
23.07128906,-95.96871000
23.10180664,-96.71204000
23.13232422,-103.78070000
23.16284180,-103.38410000
23.19335938,-94.97916000
23.22387695,-93.88390000
23.25439453,-97.13578000
23.28491211,-102.31550000
23.31542969,-97.34935000
23.34594727,-93.71069000
23.37646484,-92.16187000
23.40698242,-91.82133000
23.43750000,-91.94370000
23.46801758,-91.84874000
23.49853516,-92.16312000
23.52905273,-94.84956000
23.55957031,-98.88093000
23.59008789,-93.07898000
23.62060547,-89.47221000
23.65112305,-88.62576000
23.68164063,-89.76180000
23.71215820,-92.80789000
23.74267578,-98.07400000
23.77319336,-100.45970000
23.80371094,-97.18851000
23.83422852,-97.03407000
23.86474609,-100.72800000
23.89526367,-103.21050000
23.92578125,-103.12130000
23.95629883,-105.87630000
23.98681641,-102.89830000
24.01733398,-102.92710000
24.04785156,-103.54460000
24.07836914,-101.11170000
24.10888672,-102.00980000
24.13940430,-104.59490000
24.16992188,-104.75810000
24.20043945,-109.30060000
24.23095703,-103.96920000
24.26147461,-98.73988000
24.29199219,-96.84638000
24.32250977,-95.53166000
24.35302734,-93.76525000
24.38354492,-91.89033000
24.41406250,-90.73061000
24.44458008,-90.10307000
24.47509766,-89.44873000
24.50561523,-89.22767000
24.53613281,-90.35218000
24.56665039,-93.53127000
24.59716797,-99.50181000
24.62768555,-104.56380000
24.65820313,-101.58920000
24.68872070,-101.17330000
24.71923828,-105.29040000
24.74975586,-98.36326000
24.78027344,-90.98057000
24.81079102,-86.99807000
24.84130859,-85.18912000
24.87182617,-85.51318000
24.90234375,-88.06374000
24.93286133,-92.13760000
24.96337891,-95.48033000
24.99389648,-95.08704000
25.02441406,-93.47043000
25.05493164,-93.96825000
25.08544922,-96.09772000
25.11596680,-96.70406000
25.14648438,-94.38040000
25.17700195,-92.19864000
25.20751953,-91.65540000
25.23803711,-92.26939000
25.26855469,-92.60189000
25.29907227,-91.73591000
25.32958984,-91.04257000
25.36010742,-92.22832000
25.39062500,-95.70053000
25.42114258,-100.55930000
25.45166016,-98.39115000
25.48217773,-91.88678000
25.51269531,-88.69623000
25.54321289,-87.99191000
25.57373047,-88.85645000
25.60424805,-90.13828000
25.63476563,-90.33301000
25.66528320,-89.00224000
25.69580078,-87.57102000
25.72631836,-87.11858000
25.75683594,-87.24657000
25.78735352,-86.74719000
25.81787109,-85.66316000
25.84838867,-85.47238000
25.87890625,-87.35081000
25.90942383,-90.88419000
25.93994141,-89.85855000
25.97045898,-86.61584000
26.00097656,-85.67378000
26.03149414,-87.51115000
26.06201172,-92.73607000
26.09252930,-100.96830000
26.12304688,-101.27360000
26.15356445,-98.86390000
26.18408203,-97.32489000
26.21459961,-97.17314000
26.24511719,-97.51460000
26.27563477,-100.52980000
26.30615234,-104.73690000
26.33666992,-99.47072000
26.36718750,-98.16464000
26.39770508,-95.80682000
26.42822266,-89.98710000
26.45874023,-86.35293000
26.48925781,-84.60056000
26.51977539,-84.48697000
26.55029297,-86.39304000
26.58081055,-91.57355000
26.61132813,-112.33520000
26.64184570,-90.92960000
26.67236328,-86.00822000
26.70288086,-84.38003000
26.73339844,-84.41380000
26.76391602,-85.15216000
26.79443359,-85.82131000
26.82495117,-86.26015000
26.85546875,-86.77361000
26.88598633,-87.78442000
26.91650391,-90.20758000
26.94702148,-95.09978000
26.97753906,-96.07082000
27.00805664,-92.61085000
27.03857422,-91.89053000
27.06909180,-92.25255000
27.09960938,-90.89005000
27.13012695,-88.68190000
27.16064453,-87.00290000
27.19116211,-86.09077000
27.22167969,-86.37756000
27.25219727,-88.60028000
27.28271484,-93.70723000
27.31323242,-97.49892000
27.34375000,-93.09088000
27.37426758,-90.74632000
27.40478516,-89.92118000
27.43530273,-89.15843000
27.46582031,-87.72767000
27.49633789,-86.37669000
27.52685547,-86.69575000
27.55737305,-90.33745000
27.58789063,-95.67461000
27.61840820,-91.90850000
27.64892578,-90.76458000
27.67944336,-91.52422000
27.70996094,-91.80566000
27.74047852,-92.34453000
27.77099609,-95.26041000
27.80151367,-96.10313000
27.83203125,-92.47552000
27.86254883,-91.86604000
27.89306641,-93.35361000
27.92358398,-93.54664000
27.95410156,-91.73871000
27.98461914,-91.24800000
28.01513672,-93.55295000
28.04565430,-98.96417000
28.07617188,-104.07220000
28.10668945,-102.18680000
28.13720703,-98.17964000
28.16772461,-96.08160000
28.19824219,-95.54200000
28.22875977,-93.95184000
28.25927734,-92.09229000
28.28979492,-91.76125000
28.32031250,-92.49353000
28.35083008,-92.98499000
28.38134766,-91.34473000
28.41186523,-89.63724000
28.44238281,-90.04104000
28.47290039,-92.94691000
28.50341797,-98.55668000
28.53393555,-105.83540000
28.56445313,-104.52480000
28.59497070,-99.99673000
28.62548828,-97.56654000
28.65600586,-99.01129000
28.68652344,-105.25710000
28.71704102,-102.13970000
28.74755859,-96.02423000
28.77807617,-93.39631000
28.80859375,-93.03361000
28.83911133,-95.15031000
28.86962891,-101.55950000
28.90014648,-112.10070000
28.93066406,-102.06270000
28.96118164,-98.46719000
28.99169922,-97.35093000
29.02221680,-97.28764000
29.05273438,-91.86308000
29.08325195,-87.83315000
29.11376953,-86.76794000
29.14428711,-87.28183000
29.17480469,-88.17796000
29.20532227,-89.84833000
29.23583984,-93.71555000
29.26635742,-101.46320000
29.29687500,-103.02140000
29.32739258,-100.82790000
29.35791016,-103.18130000
29.38842773,-107.15320000
29.41894531,-105.28790000
29.44946289,-99.28532000
29.47998047,-95.29583000
29.51049805,-93.49598000
29.54101563,-93.10567000
29.57153320,-93.63383000
29.60205078,-94.27180000
29.63256836,-95.25967000
29.66308594,-97.78018000
29.69360352,-101.38710000
29.72412109,-100.40330000
29.75463867,-100.21980000
29.78515625,-100.64460000
29.81567383,-100.15400000
29.84619141,-99.35262000
29.87670898,-94.95930000
29.90722656,-94.42963000
29.93774414,-99.85966000
29.96826172,-101.14450000
29.99877930,-93.99509000
30.02929688,-92.12863000
30.05981445,-92.79504000
30.09033203,-93.83150000
30.12084961,-94.06386000
30.15136719,-93.84615000
30.18188477,-92.71554000
30.21240234,-90.21194000
30.24291992,-88.54419000
30.27343750,-88.88127000
30.30395508,-90.56236000
30.33447266,-91.77905000
30.36499023,-91.91011000
30.39550781,-92.75257000
30.42602539,-95.66211000
30.45654297,-102.04380000
30.48706055,-105.92660000
30.51757813,-97.59703000
30.54809570,-94.22363000
30.57861328,-93.22487000
30.60913086,-95.04311000
30.63964844,-106.18830000
30.67016602,-100.15910000
30.70068359,-98.67018000
30.73120117,-107.21430000
30.76171875,-101.23490000
30.79223633,-102.53800000
30.82275391,-104.06070000
30.85327148,-97.33319000
30.88378906,-93.80782000
30.91430664,-92.03210000
30.94482422,-91.51032000
30.97534180,-91.75536000
31.00585938,-92.15527000
31.03637695,-92.87479000
31.06689453,-93.92791000
31.09741211,-94.71928000
31.12792969,-96.60301000
31.15844727,-100.52780000
31.18896484,-99.29570000
31.21948242,-96.67686000
31.25000000,-94.64027000
31.28051758,-92.11276000
31.31103516,-91.31657000
31.34155273,-94.05666000
31.37207031,-99.47560000
31.40258789,-98.05202000
31.43310547,-101.48090000
31.46362305,-110.50350000
31.49414063,-99.93137000
31.52465820,-99.19318000
31.55517578,-99.12004000
31.58569336,-95.03297000
31.61621094,-91.92677000
31.64672852,-92.72905000
31.67724609,-99.30312000
31.70776367,-102.00660000
31.73828125,-97.16069000
31.76879883,-95.82304000
31.79931641,-94.78815000
31.82983398,-94.54647000
31.86035156,-95.65559000
31.89086914,-98.57504000
31.92138672,-102.52930000
31.95190430,-103.04490000
31.98242188,-98.87939000
32.01293945,-96.98235000
32.04345703,-100.86510000
32.07397461,-98.05788000
32.10449219,-89.64546000
32.13500977,-86.21085000
32.16552734,-85.38342000
32.19604492,-85.92789000
32.22656250,-86.74165000
32.25708008,-87.42877000
32.28759766,-88.40726000
32.31811523,-89.13588000
32.34863281,-89.03365000
32.37915039,-90.03716000
32.40966797,-92.76019000
32.44018555,-94.13187000
32.47070313,-92.98847000
32.50122070,-93.52103000
32.53173828,-97.29874000
32.56225586,-99.34981000
32.59277344,-97.22852000
32.62329102,-97.27803000
32.65380859,-95.86595000
32.68432617,-93.70670000
32.71484375,-93.57322000
32.74536133,-97.28962000
32.77587891,-100.32550000
32.80639648,-94.31210000
32.83691406,-94.11606000
32.86743164,-98.64365000
32.89794922,-103.46520000
32.92846680,-100.94400000
32.95898438,-96.87840000
32.98950195,-94.69896000
33.02001953,-93.43788000
33.05053711,-92.15523000
33.08105469,-90.88811000
33.11157227,-90.15981000
33.14208984,-91.04700000
33.17260742,-95.19592000
33.20312500,-104.00790000
33.23364258,-99.98859000
33.26416016,-100.59360000
33.29467773,-105.86780000
33.32519531,-99.80701000
33.35571289,-97.40440000
33.38623047,-96.66405000
33.41674805,-95.66777000
33.44726563,-97.04236000
33.47778320,-103.33050000
33.50830078,-105.95430000
33.53881836,-103.95740000
33.56933594,-104.51630000
33.59985352,-96.85169000
33.63037109,-94.60117000
33.66088867,-96.62845000
33.69140625,-101.88500000
33.72192383,-106.59960000
33.75244141,-105.76810000
33.78295898,-118.16230000
33.81347656,-102.43870000
33.84399414,-97.04876000
33.87451172,-97.18050000
33.90502930,-100.24570000
33.93554688,-104.70810000
33.96606445,-105.76670000
33.99658203,-98.57998000
34.02709961,-94.73476000
34.05761719,-96.13843000
34.08813477,-102.77430000
34.11865234,-95.15038000
34.14916992,-92.73774000
34.17968750,-94.08453000
34.21020508,-94.66125000
34.24072266,-93.67649000
34.27124023,-95.85061000
34.30175781,-108.53830000
34.33227539,-100.84390000
34.36279297,-98.89320000
34.39331055,-108.15930000
34.42382813,-110.91080000
34.45434570,-118.02030000
34.48486328,-98.98718000
34.51538086,-93.78510000
34.54589844,-93.32185000
34.57641602,-95.55687000
34.60693359,-95.73621000
34.63745117,-95.27398000
34.66796875,-98.55754000
34.69848633,-105.90520000
34.72900391,-106.89940000
34.75952148,-113.16190000
34.79003906,-105.92090000
34.82055664,-98.65279000
34.85107422,-95.90221000
34.88159180,-91.87450000
34.91210938,-89.03989000
34.94262695,-88.95294000
34.97314453,-91.73013000
35.00366211,-98.28558000
35.03417969,-102.76470000
35.06469727,-102.79790000
35.09521484,-108.37050000
35.12573242,-99.46362000
35.15625000,-101.49460000
35.18676758,-107.30620000
35.21728516,-97.56752000
35.24780273,-96.31692000
35.27832031,-95.59747000
35.30883789,-95.42117000
35.33935547,-95.96733000
35.36987305,-94.80359000
35.40039063,-94.73454000
35.43090820,-96.50326000
35.46142578,-98.31474000
35.49194336,-99.33234000
35.52246094,-101.29510000
35.55297852,-101.22740000
35.58349609,-96.63667000
35.61401367,-92.90267000
35.64453125,-91.87011000
35.67504883,-92.62947000
35.70556641,-93.47084000
35.73608398,-92.92046000
35.76660156,-91.90311000
35.79711914,-93.03349000
35.82763672,-97.35698000
35.85815430,-104.36200000
35.88867188,-107.55270000
35.91918945,-100.57240000
35.94970703,-101.42650000
35.98022461,-112.59040000
36.01074219,-98.78558000
36.04125977,-95.56316000
36.07177734,-95.46436000
36.10229492,-95.63325000
36.13281250,-95.08267000
36.16333008,-95.53082000
36.19384766,-98.73512000
36.22436523,-104.22580000
36.25488281,-101.89180000
36.28540039,-98.47229000
36.31591797,-96.50221000
36.34643555,-94.58932000
36.37695313,-92.15858000
36.40747070,-91.11634000
36.43798828,-92.42177000
36.46850586,-95.59536000
36.49902344,-96.63037000
36.52954102,-96.09779000
36.56005859,-97.35278000
36.59057617,-98.86430000
36.62109375,-94.64557000
36.65161133,-90.72682000
36.68212891,-90.43201000
36.71264648,-93.50026000
36.74316406,-97.91599000
36.77368164,-98.58943000
36.80419922,-97.89574000
36.83471680,-97.19229000
36.86523438,-95.43030000
36.89575195,-93.16820000
36.92626953,-92.26764000
36.95678711,-93.91906000
36.98730469,-97.95164000
37.01782227,-100.07930000
37.04833984,-97.31505000
37.07885742,-96.64561000
37.10937500,-101.13630000
37.13989258,-106.64400000
37.17041016,-98.58160000
37.20092773,-96.89636000
37.23144531,-98.86298000
37.26196289,-106.02710000
37.29248047,-109.04850000
37.32299805,-101.54000000
37.35351563,-101.17130000
37.38403320,-102.26070000
37.41455078,-101.63290000
37.44506836,-101.87520000
37.47558594,-99.08469000
37.50610352,-95.05058000
37.53662109,-92.87250000
37.56713867,-93.54472000
37.59765625,-98.38753000
37.62817383,-112.93100000
37.65869141,-101.64000000
37.68920898,-96.82656000
37.71972656,-93.75349000
37.75024414,-91.70082000
37.78076172,-90.69717000
37.81127930,-90.67689000
37.84179688,-91.38699000
37.87231445,-91.95370000
37.90283203,-92.34371000
37.93334961,-93.32130000
37.96386719,-95.93731000
37.99438477,-100.36420000
38.02490234,-101.12970000
38.05541992,-96.50466000
38.08593750,-94.43230000
38.11645508,-96.15572000
38.14697266,-96.22821000
38.17749023,-95.08656000
38.20800781,-98.27438000
38.23852539,-104.17890000
38.26904297,-103.21710000
38.29956055,-96.70521000
38.33007813,-93.04703000
38.36059570,-91.21300000
38.39111328,-90.61181000
38.42163086,-91.79237000
38.45214844,-93.40135000
38.48266602,-93.70124000
38.51318359,-94.26122000
38.54370117,-94.64136000
38.57421875,-94.20567000
38.60473633,-94.45835000
38.63525391,-95.79361000
38.66577148,-96.20202000
38.69628906,-96.95190000
38.72680664,-97.66708000
38.75732422,-91.95088000
38.78784180,-88.53596000
38.81835938,-87.98615000
38.84887695,-88.94942000
38.87939453,-90.42763000
38.90991211,-91.08384000
38.94042969,-90.55851000
38.97094727,-91.04613000
39.00146484,-92.04482000
39.03198242,-92.15773000
39.06250000,-93.47333000
39.09301758,-95.59598000
39.12353516,-94.68794000
39.15405273,-93.36349000
39.18457031,-92.20168000
39.21508789,-91.52969000
39.24560547,-91.26733000
39.27612305,-91.98062000
39.30664063,-94.33562000
39.33715820,-93.83510000
39.36767578,-90.98153000
39.39819336,-88.73463000
39.42871094,-87.03659000
39.45922852,-87.03284000
39.48974609,-89.83624000
39.52026367,-90.23940000
39.55078125,-86.26366000
39.58129883,-84.26118000
39.61181641,-83.54686000
39.64233398,-83.88754000
39.67285156,-85.85017000
39.70336914,-90.68199000
39.73388672,-107.89590000
39.76440430,-94.83423000
39.79492188,-89.90042000
39.82543945,-89.05211000
39.85595703,-91.27710000
39.88647461,-96.29296000
39.91699219,-94.41479000
39.94750977,-91.55717000
39.97802734,-92.16176000
40.00854492,-95.62764000
40.03906250,-96.70066000
40.06958008,-95.22759000
40.10009766,-95.97911000
40.13061523,-96.60927000
40.16113281,-96.13036000
40.19165039,-94.10016000
40.22216797,-90.68927000
40.25268555,-88.85368000
40.28320313,-88.76741000
40.31372070,-88.97446000
40.34423828,-87.74983000
40.37475586,-87.26170000
40.40527344,-89.01230000
40.43579102,-91.75998000
40.46630859,-93.22603000
40.49682617,-93.55943000
40.52734375,-94.18700000
40.55786133,-91.15258000
40.58837891,-87.34887000
40.61889648,-86.28931000
40.64941406,-87.18627000
40.67993164,-88.18211000
40.71044922,-88.86850000
40.74096680,-89.74296000
40.77148438,-89.82126000
40.80200195,-88.46950000
40.83251953,-87.92508000
40.86303711,-89.91314000
40.89355469,-94.26715000
40.92407227,-97.31082000
40.95458984,-95.86034000
40.98510742,-93.32532000
41.01562500,-90.46901000
41.04614258,-87.46860000
41.07666016,-87.31906000
41.10717773,-89.81055000
41.13769531,-90.58666000
41.16821289,-89.20467000
41.19873047,-89.53338000
41.22924805,-92.19989000
41.25976563,-94.87530000
41.29028320,-89.72274000
41.32080078,-86.82209000
41.35131836,-87.79998000
41.38183594,-92.05872000
41.41235352,-92.75642000
41.44287109,-89.81371000
41.47338867,-87.54035000
41.50390625,-85.27027000
41.53442383,-83.86329000
41.56494141,-84.20229000
41.59545898,-85.72808000
41.62597656,-84.50268000
41.65649414,-81.93408000
41.68701172,-81.46961000
41.71752930,-83.39428000
41.74804688,-87.22797000
41.77856445,-93.00755000
41.80908203,-103.90210000
41.83959961,-89.16785000
41.87011719,-84.01538000
41.90063477,-82.40739000
41.93115234,-82.81323000
41.96166992,-83.92758000
41.99218750,-84.72255000
42.02270508,-85.47195000
42.05322266,-87.40815000
42.08374023,-91.03603000
42.11425781,-92.54220000
42.14477539,-90.32878000
42.17529297,-87.68457000
42.20581055,-86.54778000
42.23632813,-88.34159000
42.26684570,-91.72321000
42.29736328,-91.14171000
42.32788086,-89.65034000
42.35839844,-87.98637000
42.38891602,-89.17955000
42.41943359,-95.50119000
42.44995117,-90.43996000
42.48046875,-85.47509000
42.51098633,-83.56037000
42.54150391,-84.28935000
42.57202148,-88.04833000
42.60253906,-91.71281000
42.63305664,-88.79856000
42.66357422,-87.25175000
42.69409180,-89.38091000
42.72460938,-98.72693000
42.75512695,-100.35130000
42.78564453,-101.99000000
42.81616211,-95.06532000
42.84667969,-85.83859000
42.87719727,-82.94292000
42.90771484,-83.16314000
42.93823242,-85.34517000
42.96875000,-87.36748000
42.99926758,-86.31209000
43.02978516,-85.48405000
43.06030273,-87.14130000
43.09082031,-89.77544000
43.12133789,-90.27114000
43.15185547,-89.11360000
43.18237305,-86.43340000
43.21289063,-84.91006000
43.24340820,-85.75347000
43.27392578,-88.67845000
43.30444336,-89.06949000
43.33496094,-85.22361000
43.36547852,-83.17196000
43.39599609,-83.77359000
43.42651367,-86.80330000
43.45703125,-90.71415000
43.48754883,-91.12436000
43.51806641,-88.42957000
43.54858398,-86.83105000
43.57910156,-87.62306000
43.60961914,-91.34232000
43.64013672,-93.65286000
43.67065430,-88.11607000
43.70117188,-85.52173000
43.73168945,-86.01524000
43.76220703,-89.10298000
43.79272461,-94.68124000
43.82324219,-101.52230000
43.85375977,-93.36936000
43.88427734,-90.22137000
43.91479492,-91.25632000
43.94531250,-95.61044000
43.97583008,-98.18492000
44.00634766,-95.68388000
44.03686523,-95.05299000
44.06738281,-96.90276000
44.09790039,-98.62191000
44.12841797,-95.40131000
44.15893555,-90.32419000
44.18945313,-87.39880000
44.21997070,-87.23374000
44.25048828,-89.23875000
44.28100586,-91.87935000
44.31152344,-92.97658000
44.34204102,-92.85049000
44.37255859,-95.61571000
44.40307617,-102.09100000
44.43359375,-95.22235000
44.46411133,-94.19440000
44.49462891,-96.48063000
44.52514648,-93.65398000
44.55566406,-91.41762000
44.58618164,-92.12714000
44.61669922,-95.27951000
44.64721680,-102.57380000
44.67773438,-102.49140000
44.70825195,-94.99548000
44.73876953,-94.50719000
44.76928711,-99.25858000
44.79980469,-114.00940000
44.83032227,-98.69867000
44.86083984,-93.04941000
44.89135742,-91.19678000
44.92187500,-90.71751000
44.95239258,-89.90928000
44.98291016,-88.78082000
45.01342773,-88.28590000
45.04394531,-89.71618000
45.07446289,-95.53944000
45.10498047,-99.32581000
45.13549805,-90.33659000
45.16601563,-87.16048000
45.19653320,-87.04616000
45.22705078,-89.95673000
45.25756836,-96.87790000
45.28808594,-99.97298000
45.31860352,-93.46976000
45.34912109,-90.54167000
45.37963867,-90.51196000
45.41015625,-93.35194000
45.44067383,-97.01196000
45.47119141,-96.74935000
45.50170898,-95.73239000
45.53222656,-95.69156000
45.56274414,-97.23299000
45.59326172,-96.61225000
45.62377930,-93.15009000
45.65429688,-89.61692000
45.68481445,-86.96841000
45.71533203,-86.21346000
45.74584961,-87.71143000
45.77636719,-91.55223000
45.80688477,-95.86723000
45.83740234,-93.51651000
45.86791992,-91.99940000
45.89843750,-93.90065000
45.92895508,-99.53470000
45.95947266,-101.10650000
45.98999023,-94.02435000
46.02050781,-90.07880000
46.05102539,-88.64089000
46.08154297,-89.07161000
46.11206055,-90.84554000
46.14257813,-93.21898000
46.17309570,-94.21645000
46.20361328,-93.34571000
46.23413086,-93.24897000
46.26464844,-95.71100000
46.29516602,-101.01800000
46.32568359,-97.43706000
46.35620117,-93.85004000
46.38671875,-94.29475000
46.41723633,-96.39397000
46.44775391,-94.97617000
46.47827148,-94.69956000
46.50878906,-97.93136000
46.53930664,-98.76672000
46.56982422,-94.29748000
46.60034180,-91.95294000
46.63085938,-91.15488000
46.66137695,-90.82530000
46.69189453,-90.57907000
46.72241211,-90.71039000
46.75292969,-91.58459000
46.78344727,-93.70846000
46.81396484,-97.23141000
46.84448242,-97.12083000
46.87500000,-94.84086000
46.90551758,-95.11738000
46.93603516,-96.94801000
46.96655273,-96.71154000
46.99707031,-95.11079000
47.02758789,-96.06167000
47.05810547,-102.68760000
47.08862305,-99.28994000
47.11914063,-94.23276000
47.14965820,-93.94936000
47.18017578,-97.36481000
47.21069336,-106.59870000
47.24121094,-115.15300000
47.27172852,-113.42680000
47.30224609,-108.02050000
47.33276367,-101.32270000
47.36328125,-97.90771000
47.39379883,-97.88705000
47.42431641,-98.18124000
47.45483398,-96.34134000
47.48535156,-94.30650000
47.51586914,-92.29569000
47.54638672,-90.49710000
47.57690430,-90.13422000
47.60742188,-91.77530000
47.63793945,-94.25369000
47.66845703,-95.49038000
47.69897461,-96.46114000
47.72949219,-100.78080000
47.76000977,-104.59070000
47.79052734,-96.21689000
47.82104492,-94.13334000
47.85156250,-95.45350000
47.88208008,-97.04751000
47.91259766,-94.67316000
47.94311523,-91.70053000
47.97363281,-89.73293000
48.00415039,-88.84343000
48.03466797,-88.90341000
48.06518555,-89.11223000
48.09570313,-89.16812000
48.12622070,-90.18440000
48.15673828,-92.33669000
48.18725586,-94.92110000
48.21777344,-100.08490000
48.24829102,-99.50600000
48.27880859,-94.97754000
48.30932617,-94.84303000
48.33984375,-93.86155000
48.37036133,-91.45382000
48.40087891,-91.52464000
48.43139648,-95.47855000
48.46191406,-109.16180000
48.49243164,-98.20595000
48.52294922,-94.28229000
48.55346680,-94.75998000
48.58398438,-97.70874000
48.61450195,-95.68546000
48.64501953,-91.73582000
48.67553711,-89.87300000
48.70605469,-90.41587000
48.73657227,-95.10052000
48.76708984,-114.09700000
48.79760742,-94.46900000
48.82812500,-91.95138000
48.85864258,-93.07724000
48.88916016,-95.01217000
48.91967773,-97.25182000
48.95019531,-100.65600000
48.98071289,-92.19067000
49.01123047,-86.26579000
49.04174805,-83.85128000
49.07226563,-84.17797000
49.10278320,-86.62106000
49.13330078,-89.85504000
49.16381836,-91.57723000
49.19433594,-90.97931000
49.22485352,-91.12740000
49.25537109,-93.68033000
49.28588867,-96.13514000
49.31640625,-94.81996000
49.34692383,-92.24606000
49.37744141,-89.90547000
49.40795898,-89.82040000
49.43847656,-92.34909000
49.46899414,-93.99500000
49.49951172,-93.10359000
49.53002930,-94.29324000
49.56054688,-98.62166000
49.59106445,-106.60630000
49.62158203,-105.49290000
49.65209961,-95.00763000
49.68261719,-88.87129000
49.71313477,-87.25694000
49.74365234,-90.41518000
49.77416992,-107.94830000
49.80468750,-94.29867000
49.83520508,-90.54887000
49.86572266,-91.23929000
49.89624023,-94.03046000
49.92675781,-94.25052000
49.95727539,-91.01417000
49.98779297,-87.76993000
50.01831055,-85.55145000
