Frequency,Channel A
(MHz),(dBu)

0.00000000,-30.92098000
0.03051758,-31.37140000
0.06103516,-36.76910000
0.09155273,-45.79472000
0.12207031,-52.29647000
0.15258789,-53.97537000
0.18310547,-54.68072000
0.21362305,-56.50144000
0.24414063,-58.11776000
0.27465820,-59.17733000
0.30517578,-61.29230000
0.33569336,-67.36664000
0.36621094,-76.64628000
0.39672852,-64.00155000
0.42724609,-61.95963000
0.45776367,-63.24575000
0.48828125,-61.94884000
0.51879883,-57.00940000
0.54931641,-52.72421000
0.57983398,-49.13172000
0.61035156,-48.23641000
0.64086914,-51.40426000
0.67138672,-55.77972000
0.70190430,-56.17795000
0.73242188,-57.28664000
0.76293945,-54.20252000
0.79345703,-54.33401000
0.82397461,-58.25721000
0.85449219,-63.01849000
0.88500977,-63.26131000
0.91552734,-62.25628000
0.94604492,-59.95593000
0.97656250,-58.29502000
1.00708008,-57.76007000
1.03759766,-57.82554000
1.06811523,-59.60704000
1.09863281,-62.49173000
1.12915039,-62.25587000
1.15966797,-60.98354000
1.19018555,-60.64615000
1.22070313,-61.64536000
1.25122070,-64.25938000
1.28173828,-64.07507000
1.31225586,-60.65329000
1.34277344,-59.44573000
1.37329102,-60.97341000
1.40380859,-64.04652000
1.43432617,-62.73787000
1.46484375,-59.69400000
1.49536133,-58.63216000
1.52587891,-59.51336000
1.55639648,-61.64382000
1.58691406,-63.44768000
1.61743164,-64.23654000
1.64794922,-65.42909000
1.67846680,-66.96181000
1.70898438,-66.93664000
1.73950195,-66.13769000
1.77001953,-65.42140000
1.80053711,-64.07462000
1.83105469,-63.10340000
1.86157227,-63.63147000
1.89208984,-65.58035000
1.92260742,-67.54517000
1.95312500,-68.28571000
1.98364258,-70.00085000
2.01416016,-75.32371000
2.04467773,-69.59882000
2.07519531,-63.61021000
2.10571289,-61.03001000
2.13623047,-60.74457000
2.16674805,-62.38998000
2.19726563,-65.12603000
2.22778320,-66.85142000
2.25830078,-67.47923000
2.28881836,-67.68310000
2.31933594,-67.00705000
2.34985352,-66.82458000
2.38037109,-68.07397000
2.41088867,-69.25227000
2.44140625,-68.06493000
2.47192383,-66.60921000
2.50244141,-66.64901000
2.53295898,-68.16462000
2.56347656,-68.77615000
2.59399414,-67.36592000
2.62451172,-66.97844000
2.65502930,-68.73045000
2.68554688,-70.85638000
2.71606445,-68.25570000
2.74658203,-65.24571000
2.77709961,-64.04214000
2.80761719,-64.40504000
2.83813477,-65.93790000
2.86865234,-68.32612000
2.89916992,-71.15540000
2.92968750,-71.16595000
2.96020508,-67.49757000
2.99072266,-64.86459000
3.02124023,-64.01954000
3.05175781,-64.41735000
3.08227539,-65.02025000
3.11279297,-64.94672000
3.14331055,-64.58401000
3.17382813,-64.62579000
3.20434570,-64.89154000
3.23486328,-64.52248000
3.26538086,-63.52233000
3.29589844,-62.76204000
3.32641602,-62.62505000
3.35693359,-63.02968000
3.38745117,-63.76535000
3.41796875,-64.39156000
3.44848633,-64.20841000
3.47900391,-63.31589000
3.50952148,-62.54060000
3.54003906,-62.21515000
3.57055664,-62.16895000
3.60107422,-62.22780000
3.63159180,-62.52399000
3.66210938,-63.26021000
3.69262695,-64.00762000
3.72314453,-63.72126000
3.75366211,-62.93042000
3.78417969,-62.87994000
3.81469727,-63.79726000
3.84521484,-65.15710000
3.87573242,-65.74387000
3.90625000,-64.98129000
3.93676758,-64.31934000
3.96728516,-64.81892000
3.99780273,-65.56204000
4.02832031,-64.61007000
4.05883789,-63.39653000
4.08935547,-63.09112000
4.11987305,-63.13322000
4.15039063,-62.98311000
4.18090820,-63.09689000
4.21142578,-63.76098000
4.24194336,-64.55209000
4.27246094,-65.46628000
4.30297852,-66.53680000
4.33349609,-66.26437000
4.36401367,-64.74515000
4.39453125,-63.86226000
4.42504883,-64.06386000
4.45556641,-65.07819000
4.48608398,-66.40486000
4.51660156,-67.22388000
4.54711914,-67.04955000
4.57763672,-66.23602000
4.60815430,-64.87223000
4.63867188,-63.29330000
4.66918945,-62.36953000
4.69970703,-62.58411000
4.73022461,-63.88227000
4.76074219,-65.79503000
4.79125977,-67.08636000
4.82177734,-66.33598000
4.85229492,-64.69398000
4.88281250,-63.31564000
4.91333008,-62.18124000
4.94384766,-61.49561000
4.97436523,-61.87972000
5.00488281,-63.61749000
5.03540039,-65.53139000
5.06591797,-65.71837000
5.09643555,-65.25809000
5.12695313,-64.78302000
5.15747070,-64.12437000
5.18798828,-63.85946000
5.21850586,-64.40205000
5.24902344,-65.75675000
5.27954102,-68.10180000
5.31005859,-71.92763000
5.34057617,-76.52839000
5.37109375,-76.89584000
5.40161133,-75.51103000
5.43212891,-75.66447000
5.46264648,-77.94009000
5.49316406,-79.99777000
5.52368164,-75.20823000
5.55419922,-70.80613000
5.58471680,-67.68628000
5.61523438,-65.41451000
5.64575195,-64.15292000
5.67626953,-63.98157000
5.70678711,-64.30899000
5.73730469,-63.76098000
5.76782227,-62.15086000
5.79833984,-60.61205000
5.82885742,-59.58581000
5.85937500,-59.02202000
5.88989258,-58.92558000
5.92041016,-59.37658000
5.95092773,-60.22632000
5.98144531,-60.88962000
6.01196289,-60.89002000
6.04248047,-60.47369000
6.07299805,-60.01506000
6.10351563,-59.73128000
6.13403320,-59.85887000
6.16455078,-60.60640000
6.19506836,-62.06018000
6.22558594,-64.15536000
6.25610352,-66.18278000
6.28662109,-66.16525000
6.31713867,-64.52046000
6.34765625,-63.34598000
6.37817383,-63.18918000
6.40869141,-64.00555000
6.43920898,-65.73702000
6.46972656,-68.38548000
6.50024414,-72.01453000
6.53076172,-76.12027000
6.56127930,-76.24655000
6.59179688,-73.04652000
6.62231445,-70.85371000
6.65283203,-69.95648000
6.68334961,-70.20461000
6.71386719,-71.87529000
6.74438477,-76.11339000
6.77490234,-85.95930000
6.80541992,-79.93035000
6.83593750,-75.69362000
6.86645508,-74.62099000
6.89697266,-74.89264000
6.92749023,-75.99882000
6.95800781,-77.73103000
6.98852539,-79.10054000
7.01904297,-79.09645000
7.04956055,-78.96935000
7.08007813,-79.72096000
7.11059570,-80.33593000
7.14111328,-79.59132000
7.17163086,-78.28086000
7.20214844,-77.45921000
7.23266602,-78.40528000
7.26318359,-82.71794000
7.29370117,-99.55646000
7.32421875,-85.53428000
7.35473633,-80.61157000
7.38525391,-80.01184000
7.41577148,-82.10007000
7.44628906,-84.39015000
7.47680664,-84.00117000
7.50732422,-82.15623000
7.53784180,-80.29113000
7.56835938,-79.25261000
7.59887695,-79.69415000
7.62939453,-81.53201000
7.65991211,-84.27995000
7.69042969,-89.28194000
7.72094727,-92.12251000
7.75146484,-85.06720000
7.78198242,-82.98129000
7.81250000,-83.63800000
7.84301758,-84.08408000
7.87353516,-83.80937000
7.90405273,-84.23057000
7.93457031,-85.21626000
7.96508789,-85.96167000
7.99560547,-86.31203000
8.02612305,-86.99052000
8.05664063,-88.05275000
8.08715820,-88.77570000
8.11767578,-89.15663000
8.14819336,-90.24162000
8.17871094,-94.48956000
8.20922852,-96.24828000
8.23974609,-89.03554000
8.27026367,-85.11140000
8.30078125,-82.34605000
8.33129883,-81.92558000
8.36181641,-84.24884000
8.39233398,-87.13373000
8.42285156,-86.73454000
8.45336914,-85.87803000
8.48388672,-87.39363000
8.51440430,-90.58791000
8.54492188,-92.00539000
8.57543945,-92.14248000
8.60595703,-89.90036000
8.63647461,-86.04765000
8.66699219,-85.34665000
8.69750977,-89.50394000
8.72802734,-108.76960000
8.75854492,-90.76621000
8.78906250,-86.84602000
8.81958008,-85.95346000
8.85009766,-85.27543000
8.88061523,-85.25914000
8.91113281,-86.51608000
8.94165039,-91.56830000
8.97216797,-99.80076000
9.00268555,-87.77615000
9.03320313,-84.56619000
9.06372070,-83.25461000
9.09423828,-81.90597000
9.12475586,-80.83107000
9.15527344,-80.68709000
9.18579102,-81.23986000
9.21630859,-83.09220000
9.24682617,-88.77881000
9.27734375,-97.05491000
9.30786133,-86.30611000
9.33837891,-82.43934000
9.36889648,-80.73257000
9.39941406,-80.70733000
9.42993164,-82.61223000
9.46044922,-85.35419000
9.49096680,-84.66694000
9.52148438,-82.53506000
9.55200195,-81.68686000
9.58251953,-82.47786000
9.61303711,-85.55083000
9.64355469,-87.30170000
9.67407227,-83.27995000
9.70458984,-81.95346000
9.73510742,-83.07729000
9.76562500,-84.18710000
9.79614258,-83.15652000
9.82666016,-81.37302000
9.85717773,-80.69897000
9.88769531,-81.80362000
9.91821289,-85.31075000
9.94873047,-91.83083000
9.97924805,-90.64033000
10.00976563,-87.76810000
10.04028320,-88.38866000
10.07080078,-88.39039000
10.10131836,-86.86204000
10.13183594,-87.89875000
10.16235352,-92.31617000
10.19287109,-90.85120000
10.22338867,-85.56712000
10.25390625,-82.91596000
10.28442383,-81.63338000
10.31494141,-80.51850000
10.34545898,-79.28071000
10.37597656,-78.51642000
10.40649414,-78.65070000
10.43701172,-79.33498000
10.46752930,-79.79484000
10.49804688,-80.08537000
10.52856445,-80.71862000
10.55908203,-80.67621000
10.58959961,-79.14979000
10.62011719,-78.27140000
10.65063477,-79.62417000
10.68115234,-84.53963000
10.71166992,-100.50730000
10.74218750,-90.13271000
10.77270508,-85.07494000
10.80322266,-82.91103000
10.83374023,-82.92320000
10.86425781,-86.12578000
10.89477539,-90.96622000
10.92529297,-86.39046000
10.95581055,-79.78413000
10.98632813,-75.77663000
11.01684570,-74.73812000
11.04736328,-76.26275000
11.07788086,-79.80102000
11.10839844,-83.95938000
11.13891602,-86.96878000
11.16943359,-91.49278000
11.19995117,-105.82910000
11.23046875,-86.84271000
11.26098633,-80.87330000
11.29150391,-77.61086000
11.32202148,-75.60383000
11.35253906,-74.81278000
11.38305664,-75.63533000
11.41357422,-78.28513000
11.44409180,-82.40503000
11.47460938,-88.19438000
11.50512695,-95.88474000
11.53564453,-86.17987000
11.56616211,-82.12348000
11.59667969,-78.62897000
11.62719727,-75.05817000
11.65771484,-73.37627000
11.68823242,-73.93955000
11.71875000,-76.13609000
11.74926758,-78.15545000
11.77978516,-76.65035000
11.81030273,-73.65083000
11.84082031,-72.26057000
11.87133789,-73.39332000
11.90185547,-77.84138000
11.93237305,-88.83140000
11.96289063,-92.74548000
11.99340820,-86.79298000
12.02392578,-84.60014000
12.05444336,-82.78805000
12.08496094,-83.23909000
12.11547852,-86.73901000
12.14599609,-92.18200000
12.17651367,-91.31069000
12.20703125,-86.38710000
12.23754883,-83.16483000
12.26806641,-81.81825000
12.29858398,-81.60104000
12.32910156,-81.99255000
12.35961914,-82.16606000
12.39013672,-81.28156000
12.42065430,-80.87159000
12.45117188,-81.80057000
12.48168945,-82.26553000
12.51220703,-80.98311000
12.54272461,-79.49031000
12.57324219,-78.82365000
12.60375977,-79.60760000
12.63427734,-82.28736000
12.66479492,-86.98701000
12.69531250,-91.34229000
12.72583008,-89.59399000
12.75634766,-86.47858000
12.78686523,-87.50966000
12.81738281,-89.06398000
12.84790039,-79.54414000
12.87841797,-75.11632000
12.90893555,-72.83934000
12.93945313,-71.50361000
12.96997070,-71.46631000
13.00048828,-72.91114000
13.03100586,-75.47339000
13.06152344,-78.32549000
13.09204102,-80.92520000
13.12255859,-85.06010000
13.15307617,-87.79166000
13.18359375,-80.92125000
13.21411133,-77.12856000
13.24462891,-76.05994000
13.27514648,-76.53245000
13.30566406,-77.36362000
13.33618164,-78.06402000
13.36669922,-78.66483000
13.39721680,-79.99055000
13.42773438,-84.12012000
13.45825195,-84.42316000
13.48876953,-76.50890000
13.51928711,-70.08002000
13.54980469,-66.83054000
13.58032227,-66.85458000
13.61083984,-70.05946000
13.64135742,-74.37711000
13.67187500,-75.32861000
13.70239258,-72.89761000
13.73291016,-69.15679000
13.76342773,-68.14107000
13.79394531,-69.96753000
13.82446289,-73.37413000
13.85498047,-76.48518000
13.88549805,-80.53733000
13.91601563,-87.62257000
13.94653320,-93.54709000
13.97705078,-86.85592000
14.00756836,-81.74316000
14.03808594,-79.60725000
14.06860352,-79.80760000
14.09912109,-80.88883000
14.12963867,-81.05111000
14.16015625,-80.91531000
14.19067383,-81.29997000
14.22119141,-81.34278000
14.25170898,-80.91632000
14.28222656,-81.56319000
14.31274414,-84.68624000
14.34326172,-90.41679000
14.37377930,-91.69503000
14.40429688,-88.76474000
14.43481445,-88.96014000
14.46533203,-91.32028000
14.49584961,-89.23145000
14.52636719,-84.70419000
14.55688477,-82.64319000
14.58740234,-83.63015000
14.61791992,-87.24740000
14.64843750,-86.96923000
14.67895508,-83.25443000
14.70947266,-81.59538000
14.73999023,-82.68912000
14.77050781,-85.72467000
14.80102539,-81.26596000
14.83154297,-77.11295000
14.86206055,-75.45066000
14.89257813,-75.48219000
14.92309570,-77.01048000
14.95361328,-80.23380000
14.98413086,-86.64626000
15.01464844,-93.19469000
15.04516602,-84.90363000
15.07568359,-82.66577000
15.10620117,-81.44298000
15.13671875,-79.51976000
15.16723633,-78.25968000
15.19775391,-78.30840000
15.22827148,-79.91922000
15.25878906,-83.54148000
15.28930664,-90.26163000
15.31982422,-94.80878000
15.35034180,-86.99108000
15.38085938,-82.29103000
15.41137695,-79.63222000
15.44189453,-78.35271000
15.47241211,-77.90492000
15.50292969,-77.85893000
15.53344727,-77.80853000
15.56396484,-78.21748000
15.59448242,-80.50110000
15.62500000,-85.92960000
15.65551758,-87.10703000
15.68603516,-83.95557000
15.71655273,-83.31440000
15.74707031,-83.27733000
15.77758789,-82.00551000
15.80810547,-79.84081000
15.83862305,-78.94282000
15.86914063,-80.14748000
15.89965820,-83.92995000
15.93017578,-92.01661000
15.96069336,-94.40631000
15.99121094,-89.19205000
16.02172852,-87.69226000
16.05224609,-87.05290000
16.08276367,-85.80310000
16.11328125,-84.59254000
16.14379883,-83.79128000
16.17431641,-83.59063000
16.20483398,-84.99223000
16.23535156,-88.87616000
16.26586914,-98.11911000
16.29638672,-97.47742000
16.32690430,-89.64042000
16.35742188,-86.00133000
16.38793945,-83.09657000
16.41845703,-80.90002000
16.44897461,-79.86419000
16.47949219,-80.15644000
16.51000977,-81.62280000
16.54052734,-83.93686000
16.57104492,-86.18961000
16.60156250,-85.91613000
16.63208008,-83.79554000
16.66259766,-82.07207000
16.69311523,-81.12518000
16.72363281,-81.19577000
16.75415039,-82.84935000
16.78466797,-86.52701000
16.81518555,-92.52621000
16.84570313,-103.87190000
16.87622070,-96.19805000
16.90673828,-91.14384000
16.93725586,-89.14603000
16.96777344,-87.45106000
16.99829102,-85.42929000
17.02880859,-83.90128000
17.05932617,-83.40649000
17.08984375,-83.72023000
17.12036133,-84.69331000
17.15087891,-87.01288000
17.18139648,-91.63611000
17.21191406,-96.19673000
17.24243164,-92.77161000
17.27294922,-90.46333000
17.30346680,-89.80794000
17.33398438,-88.17982000
17.36450195,-85.91499000
17.39501953,-84.41119000
17.42553711,-84.14085000
17.45605469,-84.93102000
17.48657227,-85.92345000
17.51708984,-86.60648000
17.54760742,-88.24630000
17.57812500,-92.88301000
17.60864258,-102.60180000
17.63916016,-98.80217000
17.66967773,-92.07434000
17.70019531,-87.69919000
17.73071289,-84.69936000
17.76123047,-82.56242000
17.79174805,-81.65531000
17.82226563,-82.74682000
17.85278320,-86.57079000
17.88330078,-95.52049000
17.91381836,-99.93130000
17.94433594,-90.43728000
17.97485352,-87.91764000
18.00537109,-88.21616000
18.03588867,-89.26521000
18.06640625,-89.43542000
18.09692383,-89.58112000
18.12744141,-90.24037000
18.15795898,-91.56134000
18.18847656,-93.76194000
18.21899414,-96.60834000
18.24951172,-98.24561000
18.28002930,-98.35564000
18.31054688,-97.84733000
18.34106445,-97.02469000
18.37158203,-95.15380000
18.40209961,-92.31564000
18.43261719,-89.98201000
18.46313477,-88.87222000
18.49365234,-89.90332000
18.52416992,-94.71651000
18.55468750,-103.23330000
18.58520508,-94.84395000
18.61572266,-91.41494000
18.64624023,-90.49332000
18.67675781,-91.22400000
18.70727539,-92.45003000
18.73779297,-92.89117000
18.76831055,-95.71888000
18.79882813,-104.40220000
18.82934570,-98.29340000
18.85986328,-95.35854000
18.89038086,-95.04663000
18.92089844,-94.95408000
18.95141602,-93.87868000
18.98193359,-92.27568000
19.01245117,-91.36898000
19.04296875,-91.05273000
19.07348633,-91.37674000
19.10400391,-92.58289000
19.13452148,-93.56549000
19.16503906,-93.12157000
19.19555664,-92.34460000
19.22607422,-92.17617000
19.25659180,-92.98199000
19.28710938,-94.66568000
19.31762695,-96.19362000
19.34814453,-95.91281000
19.37866211,-94.59259000
19.40917969,-94.22448000
19.43969727,-95.89644000
19.47021484,-100.81150000
19.50073242,-110.43170000
19.53125000,-112.88750000
19.56176758,-109.02270000
19.59228516,-106.86820000
19.62280273,-108.53560000
19.65332031,-110.44470000
19.68383789,-111.09150000
19.71435547,-111.27520000
19.74487305,-115.77600000
19.77539063,-112.34780000
19.80590820,-108.85920000
19.83642578,-111.03580000
19.86694336,-111.51250000
19.89746094,-102.78280000
19.92797852,-98.17001000
19.95849609,-97.20013000
19.98901367,-99.67511000
20.01953125,-101.42620000
20.05004883,-97.29591000
20.08056641,-95.59270000
20.11108398,-97.15974000
20.14160156,-100.33860000
20.17211914,-100.92560000
20.20263672,-104.42320000
20.23315430,-106.40430000
20.26367188,-93.59687000
20.29418945,-88.20034000
20.32470703,-85.65257000
20.35522461,-84.99236000
20.38574219,-86.07129000
20.41625977,-89.76910000
20.44677734,-90.97137000
20.47729492,-84.77935000
20.50781250,-81.91349000
20.53833008,-82.06648000
20.56884766,-85.05592000
20.59936523,-90.02160000
20.62988281,-90.62260000
20.66040039,-89.49093000
20.69091797,-89.79866000
20.72143555,-90.51595000
20.75195313,-90.77415000
20.78247070,-89.51631000
20.81298828,-87.16228000
20.84350586,-85.39687000
20.87402344,-85.49443000
20.90454102,-87.17290000
20.93505859,-88.29410000
20.96557617,-88.74340000
20.99609375,-88.81641000
21.02661133,-87.76498000
21.05712891,-86.99982000
21.08764648,-89.11500000
21.11816406,-100.33180000
21.14868164,-93.84991000
21.17919922,-89.29780000
21.20971680,-88.95906000
21.24023438,-89.41679000
21.27075195,-89.42601000
21.30126953,-88.46223000
21.33178711,-88.12181000
21.36230469,-89.33134000
21.39282227,-92.88166000
21.42333984,-100.46320000
21.45385742,-97.50317000
21.48437500,-92.59418000
21.51489258,-90.29028000
21.54541016,-88.95858000
21.57592773,-87.93077000
21.60644531,-87.21951000
21.63696289,-87.52586000
21.66748047,-89.46550000
21.69799805,-91.14010000
21.72851563,-90.13001000
21.75903320,-89.23443000
21.78955078,-88.46122000
21.82006836,-87.34653000
21.85058594,-86.66981000
21.88110352,-87.01196000
21.91162109,-88.26839000
21.94213867,-89.62112000
21.97265625,-90.38052000
22.00317383,-90.51159000
22.03369141,-89.77721000
22.06420898,-88.60969000
22.09472656,-87.88873000
22.12524414,-87.45798000
22.15576172,-86.72894000
22.18627930,-85.86059000
22.21679688,-85.63638000
22.24731445,-86.81775000
22.27783203,-89.60865000
22.30834961,-91.01639000
22.33886719,-88.75383000
22.36938477,-87.46185000
22.39990234,-88.50605000
22.43041992,-91.59729000
22.46093750,-94.28149000
22.49145508,-94.55476000
22.52197266,-93.95950000
22.55249023,-93.12004000
22.58300781,-92.98820000
22.61352539,-93.96341000
22.64404297,-95.23186000
22.67456055,-95.42142000
22.70507813,-95.29140000
22.73559570,-95.57904000
22.76611328,-94.87909000
22.79663086,-92.87886000
22.82714844,-91.21890000
22.85766602,-90.38139000
22.88818359,-89.97199000
22.91870117,-89.93132000
22.94921875,-91.24493000
22.97973633,-96.44364000
23.01025391,-102.69820000
23.04077148,-92.90544000
23.07128906,-90.78281000
23.10180664,-92.07086000
23.13232422,-93.05838000
23.16284180,-91.42655000
23.19335938,-91.74255000
23.22387695,-97.91682000
23.25439453,-100.32810000
23.28491211,-92.79619000
23.31542969,-92.47057000
23.34594727,-92.93372000
23.37646484,-89.80237000
23.40698242,-87.65450000
23.43750000,-87.69012000
23.46801758,-89.74692000
23.49853516,-92.29790000
23.52905273,-93.20995000
23.55957031,-94.76671000
23.59008789,-94.21311000
23.62060547,-92.78344000
23.65112305,-94.03580000
23.68164063,-95.31281000
23.71215820,-94.20264000
23.74267578,-93.78345000
23.77319336,-95.97128000
23.80371094,-96.80943000
23.83422852,-92.71463000
23.86474609,-90.55795000
23.89526367,-90.77568000
23.92578125,-93.83362000
23.95629883,-102.00550000
23.98681641,-110.07350000
24.01733398,-101.83080000
24.04785156,-102.41650000
24.07836914,-100.64360000
24.10888672,-98.53787000
24.13940430,-97.18520000
24.16992188,-94.33652000
24.20043945,-93.77007000
24.23095703,-96.92102000
24.26147461,-101.50150000
24.29199219,-98.58733000
24.32250977,-96.96277000
24.35302734,-96.99788000
24.38354492,-95.05531000
24.41406250,-91.94011000
24.44458008,-89.75365000
24.47509766,-88.20750000
24.50561523,-87.41097000
24.53613281,-88.56377000
24.56665039,-93.14560000
24.59716797,-102.14730000
24.62768555,-96.23234000
24.65820313,-93.19189000
24.68872070,-92.70972000
24.71923828,-92.45326000
24.74975586,-90.79941000
24.78027344,-88.41936000
24.81079102,-86.95499000
24.84130859,-87.43565000
24.87182617,-90.73560000
24.90234375,-96.96102000
24.93286133,-96.03975000
24.96337891,-93.42983000
24.99389648,-91.88785000
25.02441406,-91.21725000
25.05493164,-92.23215000
25.08544922,-94.65125000
25.11596680,-95.67107000
25.14648438,-93.24390000
25.17700195,-90.86636000
25.20751953,-90.51975000
25.23803711,-92.18311000
25.26855469,-94.20955000
25.29907227,-95.20669000
25.32958984,-93.37746000
25.36010742,-91.12604000
25.39062500,-91.06082000
25.42114258,-93.25266000
25.45166016,-96.17979000
25.48217773,-98.16895000
25.51269531,-98.63104000
25.54321289,-96.75477000
25.57373047,-94.54517000
25.60424805,-91.59562000
25.63476563,-88.69233000
25.66528320,-87.10609000
25.69580078,-86.99051000
25.72631836,-87.81061000
25.75683594,-89.06247000
25.78735352,-91.21941000
25.81787109,-94.15582000
25.84838867,-94.00999000
25.87890625,-92.56958000
25.90942383,-92.30506000
25.93994141,-90.01244000
25.97045898,-86.36436000
26.00097656,-84.40627000
26.03149414,-84.57855000
26.06201172,-86.37261000
26.09252930,-87.43648000
26.12304688,-86.93788000
26.15356445,-87.72623000
26.18408203,-90.18249000
26.21459961,-91.83444000
26.24511719,-91.46114000
26.27563477,-90.49935000
26.30615234,-89.66622000
26.33666992,-87.87872000
26.36718750,-85.54508000
26.39770508,-84.21993000
26.42822266,-84.26299000
26.45874023,-85.62100000
26.48925781,-88.11517000
26.51977539,-90.61333000
26.55029297,-90.83164000
26.58081055,-89.80019000
26.61132813,-90.06267000
26.64184570,-93.24902000
26.67236328,-98.95764000
26.70288086,-95.19092000
26.73339844,-93.29312000
26.76391602,-95.86641000
26.79443359,-97.51927000
26.82495117,-92.96268000
26.85546875,-92.92725000
26.88598633,-99.40045000
26.91650391,-100.05210000
26.94702148,-94.71941000
26.97753906,-94.62708000
27.00805664,-95.87554000
27.03857422,-95.10635000
27.06909180,-94.01447000
27.09960938,-94.09653000
27.13012695,-94.73044000
27.16064453,-94.85835000
27.19116211,-93.83292000
27.22167969,-91.96044000
27.25219727,-91.18766000
27.28271484,-93.66013000
27.31323242,-102.04820000
27.34375000,-100.09330000
27.37426758,-94.91612000
27.40478516,-91.40620000
27.43530273,-89.89078000
27.46582031,-90.12747000
27.49633789,-90.60460000
27.52685547,-90.57921000
27.55737305,-90.62392000
27.58789063,-91.19044000
27.61840820,-92.35294000
27.64892578,-94.33508000
27.67944336,-97.49030000
27.70996094,-99.42253000
27.74047852,-97.55489000
27.77099609,-94.74854000
27.80151367,-90.96032000
27.83203125,-87.87370000
27.86254883,-86.60495000
27.89306641,-87.16930000
27.92358398,-89.02622000
27.95410156,-91.08342000
27.98461914,-92.10346000
28.01513672,-91.85326000
28.04565430,-91.31641000
28.07617188,-91.47762000
28.10668945,-92.68979000
28.13720703,-94.65942000
28.16772461,-96.25137000
28.19824219,-95.72794000
28.22875977,-93.46596000
28.25927734,-91.23087000
28.28979492,-90.21450000
28.32031250,-91.65066000
28.35083008,-98.55180000
28.38134766,-100.81450000
28.41186523,-92.19324000
28.44238281,-90.06654000
28.47290039,-90.56930000
28.50341797,-91.48510000
28.53393555,-90.83475000
28.56445313,-89.54433000
28.59497070,-88.48985000
28.62548828,-87.97595000
28.65600586,-87.65560000
28.68652344,-87.72628000
28.71704102,-88.68906000
28.74755859,-89.89041000
28.77807617,-90.01393000
28.80859375,-89.92770000
28.83911133,-91.74451000
28.86962891,-97.50523000
28.90014648,-100.44970000
28.93066406,-97.14402000
28.96118164,-102.00770000
28.99169922,-97.66090000
29.02221680,-92.63168000
29.05273438,-93.54407000
29.08325195,-101.24520000
29.11376953,-110.38720000
29.14428711,-107.12280000
29.17480469,-104.48840000
29.20532227,-96.47231000
29.23583984,-95.49488000
29.26635742,-97.27463000
29.29687500,-94.56028000
29.32739258,-92.93535000
29.35791016,-94.83802000
29.38842773,-99.37133000
29.41894531,-107.02880000
29.44946289,-115.03250000
29.47998047,-102.06400000
29.51049805,-96.63480000
29.54101563,-93.68687000
29.57153320,-93.68555000
29.60205078,-97.92314000
29.63256836,-112.64140000
29.66308594,-97.40174000
29.69360352,-93.59790000
29.72412109,-94.43348000
29.75463867,-95.54351000
29.78515625,-93.38229000
29.81567383,-92.46405000
29.84619141,-92.24472000
29.87670898,-94.40488000
29.90722656,-105.78960000
29.93774414,-95.08279000
29.96826172,-91.20982000
29.99877930,-91.80531000
30.02929688,-95.22012000
30.05981445,-100.93300000
30.09033203,-105.88530000
30.12084961,-106.04000000
30.15136719,-103.60540000
30.18188477,-100.00500000
30.21240234,-95.40475000
30.24291992,-92.97784000
30.27343750,-92.03627000
30.30395508,-91.35297000
30.33447266,-90.66720000
30.36499023,-90.60065000
30.39550781,-92.30660000
30.42602539,-95.01044000
30.45654297,-97.81076000
30.48706055,-98.22195000
30.51757813,-94.31476000
30.54809570,-95.13780000
30.57861328,-104.16220000
30.60913086,-96.88870000
30.63964844,-93.05611000
30.67016602,-93.31880000
30.70068359,-93.01479000
30.73120117,-91.77866000
30.76171875,-91.83751000
30.79223633,-93.64319000
30.82275391,-97.76869000
30.85327148,-101.77610000
30.88378906,-101.75610000
30.91430664,-100.31730000
30.94482422,-105.02850000
30.97534180,-98.89520000
31.00585938,-92.19436000
31.03637695,-91.75765000
31.06689453,-95.62666000
31.09741211,-101.34130000
31.12792969,-101.48590000
31.15844727,-99.16264000
31.18896484,-98.76462000
31.21948242,-100.43260000
31.25000000,-102.07080000
31.28051758,-100.67180000
31.31103516,-97.20439000
31.34155273,-94.84631000
31.37207031,-93.66086000
31.40258789,-92.99562000
31.43310547,-93.32249000
31.46362305,-93.66595000
31.49414063,-92.64052000
31.52465820,-91.99963000
31.55517578,-92.05550000
31.58569336,-91.66951000
31.61621094,-90.74852000
31.64672852,-89.71039000
31.67724609,-89.30380000
31.70776367,-90.61670000
31.73828125,-91.12943000
31.76879883,-88.37440000
31.79931641,-87.35500000
31.82983398,-89.13044000
31.86035156,-94.06741000
31.89086914,-103.00630000
31.92138672,-98.23119000
31.95190430,-95.89963000
31.98242188,-97.72302000
32.01293945,-103.41890000
32.04345703,-104.41730000
32.07397461,-98.60573000
32.10449219,-94.87128000
32.13500977,-91.52646000
32.16552734,-88.82791000
32.19604492,-87.45781000
32.22656250,-87.44321000
32.25708008,-88.23204000
32.28759766,-89.21104000
32.31811523,-90.63638000
32.34863281,-93.55302000
32.37915039,-96.85542000
32.40966797,-97.11926000
32.44018555,-101.48070000
32.47070313,-105.62080000
32.50122070,-94.52450000
32.53173828,-91.75327000
32.56225586,-91.36349000
32.59277344,-92.14523000
32.62329102,-93.52004000
32.65380859,-94.82652000
32.68432617,-96.85036000
32.71484375,-98.72830000
32.74536133,-97.27104000
32.77587891,-95.67654000
32.80639648,-96.03899000
32.83691406,-95.65590000
32.86743164,-96.35136000
32.89794922,-95.38243000
32.92846680,-91.37888000
32.95898438,-90.84099000
32.98950195,-93.79445000
33.02001953,-98.35725000
33.05053711,-101.29930000
33.08105469,-104.19540000
33.11157227,-106.95720000
33.14208984,-99.81976000
33.17260742,-97.41681000
33.20312500,-99.51885000
33.23364258,-104.14250000
33.26416016,-106.49080000
33.29467773,-104.91690000
33.32519531,-106.47440000
33.35571289,-119.58400000
33.38623047,-102.27590000
33.41674805,-97.47224000
33.44726563,-95.38837000
33.47778320,-97.04961000
33.50830078,-113.74560000
33.53881836,-96.25729000
33.56933594,-92.87726000
33.59985352,-95.97782000
33.63037109,-109.74430000
33.66088867,-96.57579000
33.69140625,-92.89960000
33.72192383,-94.13193000
33.75244141,-101.50610000
33.78295898,-102.07380000
33.81347656,-99.59608000
33.84399414,-106.04470000
33.87451172,-113.89450000
33.90502930,-111.17700000
33.93554688,-106.19390000
33.96606445,-97.98959000
33.99658203,-97.05006000
34.02709961,-100.44520000
34.05761719,-98.07929000
34.08813477,-93.35949000
34.11865234,-92.70358000
34.14916992,-96.01332000
34.17968750,-103.36960000
34.21020508,-103.59800000
34.24072266,-94.71493000
34.27124023,-93.10096000
34.30175781,-96.37012000
34.33227539,-96.00356000
34.36279297,-95.14800000
34.39331055,-99.75725000
34.42382813,-108.26630000
34.45434570,-100.71800000
34.48486328,-94.00051000
34.51538086,-92.05185000
34.54589844,-96.08932000
34.57641602,-105.68260000
34.60693359,-97.19595000
34.63745117,-99.46478000
34.66796875,-96.93627000
34.69848633,-93.48242000
34.72900391,-93.95061000
34.75952148,-97.46515000
34.79003906,-107.53160000
34.82055664,-106.09530000
34.85107422,-99.91532000
34.88159180,-100.58940000
34.91210938,-100.91960000
34.94262695,-98.95923000
34.97314453,-100.43210000
35.00366211,-106.96640000
35.03417969,-99.77264000
35.06469727,-96.39255000
35.09521484,-101.03900000
35.12573242,-98.41641000
35.15625000,-93.08325000
35.18676758,-94.44260000
35.21728516,-98.42060000
35.24780273,-96.88762000
35.27832031,-96.93188000
35.30883789,-99.75002000
35.33935547,-109.07100000
35.36987305,-98.35527000
35.40039063,-97.51956000
35.43090820,-108.46310000
35.46142578,-95.42024000
35.49194336,-92.47894000
35.52246094,-95.46968000
35.55297852,-100.61310000
35.58349609,-100.27130000
35.61401367,-100.08260000
35.64453125,-92.91088000
35.67504883,-91.42142000
35.70556641,-94.91302000
35.73608398,-97.62795000
35.76660156,-96.51031000
35.79711914,-99.09773000
35.82763672,-96.84866000
35.85815430,-91.75887000
35.88867188,-89.45882000
35.91918945,-89.70157000
35.94970703,-92.94402000
35.98022461,-98.70935000
36.01074219,-97.05196000
36.04125977,-97.41875000
36.07177734,-101.30620000
36.10229492,-100.23030000
36.13281250,-99.39220000
36.16333008,-98.50690000
36.19384766,-95.45900000
36.22436523,-95.51872000
36.25488281,-101.01510000
36.28540039,-94.97673000
36.31591797,-92.22546000
36.34643555,-95.96505000
36.37695313,-108.02320000
36.40747070,-97.66446000
36.43798828,-95.38045000
36.46850586,-95.76337000
36.49902344,-94.92763000
36.52954102,-91.99661000
36.56005859,-90.70586000
36.59057617,-91.89625000
36.62109375,-95.49958000
36.65161133,-97.02485000
36.68212891,-94.45328000
36.71264648,-94.21919000
36.74316406,-97.59126000
36.77368164,-104.15730000
36.80419922,-112.68170000
36.83471680,-104.74420000
36.86523438,-98.91712000
36.89575195,-97.73216000
36.92626953,-94.00891000
36.95678711,-90.92822000
36.98730469,-91.53342000
37.01782227,-96.63014000
37.04833984,-96.43968000
37.07885742,-94.69025000
37.10937500,-99.81190000
37.13989258,-103.29670000
37.17041016,-101.89760000
37.20092773,-103.38110000
37.23144531,-98.95191000
37.26196289,-99.24027000
37.29248047,-102.35320000
37.32299805,-101.14780000
37.35351563,-98.54842000
37.38403320,-99.61493000
37.41455078,-109.25450000
37.44506836,-108.35600000
37.47558594,-104.13530000
37.50610352,-101.80920000
37.53662109,-100.36700000
37.56713867,-108.07200000
37.59765625,-102.79930000
37.62817383,-96.51517000
37.65869141,-95.76775000
37.68920898,-96.81767000
37.71972656,-97.91902000
37.75024414,-100.52200000
37.78076172,-102.63520000
37.81127930,-96.64791000
37.84179688,-94.14467000
37.87231445,-94.92633000
37.90283203,-97.18002000
37.93334961,-96.25050000
37.96386719,-94.81137000
37.99438477,-95.47624000
38.02490234,-95.77515000
38.05541992,-94.31232000
38.08593750,-94.23834000
38.11645508,-97.95244000
38.14697266,-114.69430000
38.17749023,-101.07690000
38.20800781,-97.81311000
38.23852539,-96.49143000
38.26904297,-95.71112000
38.29956055,-97.33362000
38.33007813,-100.98980000
38.36059570,-102.70580000
38.39111328,-105.18120000
38.42163086,-110.04040000
38.45214844,-103.16100000
38.48266602,-97.53767000
38.51318359,-96.76260000
38.54370117,-99.42204000
38.57421875,-97.70184000
38.60473633,-96.01788000
38.63525391,-98.37310000
38.66577148,-106.52030000
38.69628906,-117.41320000
38.72680664,-111.09130000
38.75732422,-104.77530000
38.78784180,-96.86909000
38.81835938,-93.19530000
38.84887695,-92.12200000
38.87939453,-93.34342000
38.90991211,-97.49091000
38.94042969,-106.51960000
38.97094727,-97.21533000
39.00146484,-91.38239000
39.03198242,-89.76366000
39.06250000,-92.28952000
39.09301758,-98.44453000
39.12353516,-92.96259000
39.15405273,-90.78541000
39.18457031,-92.28181000
39.21508789,-95.24017000
39.24560547,-99.37827000
39.27612305,-104.90750000
39.30664063,-102.30520000
39.33715820,-96.07623000
39.36767578,-91.36448000
39.39819336,-89.51790000
39.42871094,-89.43471000
39.45922852,-90.02644000
39.48974609,-91.17496000
39.52026367,-91.98297000
39.55078125,-91.03778000
39.58129883,-90.58481000
39.61181641,-91.70601000
39.64233398,-93.62462000
39.67285156,-94.98210000
39.70336914,-96.64142000
39.73388672,-102.19470000
39.76440430,-95.85746000
39.79492188,-90.49790000
39.82543945,-88.72279000
39.85595703,-89.21745000
39.88647461,-92.02051000
39.91699219,-96.65585000
39.94750977,-96.94917000
39.97802734,-94.77081000
40.00854492,-93.67477000
40.03906250,-93.08598000
40.06958008,-92.38158000
40.10009766,-91.89311000
40.13061523,-91.93692000
40.16113281,-92.58149000
40.19165039,-93.18478000
40.22216797,-93.09402000
40.25268555,-96.23689000
40.28320313,-96.63669000
40.31372070,-90.47415000
40.34423828,-90.23764000
40.37475586,-95.82211000
40.40527344,-107.02800000
40.43579102,-94.27776000
40.46630859,-90.72121000
40.49682617,-89.45953000
40.52734375,-89.24470000
40.55786133,-90.06927000
40.58837891,-92.66933000
40.61889648,-96.59009000
40.64941406,-96.18812000
40.67993164,-92.63777000
40.71044922,-90.07497000
40.74096680,-88.44392000
40.77148438,-86.84120000
40.80200195,-85.68154000
40.83251953,-85.83159000
40.86303711,-87.90656000
40.89355469,-92.42586000
40.92407227,-98.66730000
40.95458984,-99.92118000
40.98510742,-94.74754000
41.01562500,-92.07696000
41.04614258,-91.30165000
41.07666016,-90.58506000
41.10717773,-89.42062000
41.13769531,-87.91394000
41.16821289,-86.84503000
41.19873047,-87.23151000
41.22924805,-88.51318000
41.25976563,-88.08368000
41.29028320,-86.68561000
41.32080078,-85.15662000
41.35131836,-83.62611000
41.38183594,-83.01070000
41.41235352,-84.08515000
41.44287109,-88.13608000
41.47338867,-97.60956000
41.50390625,-91.53779000
41.53442383,-89.68766000
41.56494141,-91.29121000
41.59545898,-90.97202000
41.62597656,-92.11108000
41.65649414,-97.49055000
41.68701172,-94.86683000
41.71752930,-92.42648000
41.74804688,-93.91206000
41.77856445,-99.15405000
41.80908203,-98.42700000
41.83959961,-92.75771000
41.87011719,-90.45834000
41.90063477,-89.37895000
41.93115234,-88.99063000
41.96166992,-89.10013000
41.99218750,-88.40236000
42.02270508,-88.09715000
42.05322266,-89.73077000
42.08374023,-92.38335000
42.11425781,-93.66249000
42.14477539,-92.29004000
42.17529297,-89.54383000
42.20581055,-88.30280000
42.23632813,-89.07809000
42.26684570,-88.26259000
42.29736328,-87.19132000
42.32788086,-89.65743000
42.35839844,-92.70687000
42.38891602,-91.24973000
42.41943359,-93.45168000
42.44995117,-92.86253000
42.48046875,-87.73685000
42.51098633,-86.28491000
42.54150391,-88.32116000
42.57202148,-92.94854000
42.60253906,-93.04730000
42.63305664,-91.07526000
42.66357422,-90.72327000
42.69409180,-92.89897000
42.72460938,-98.80310000
42.75512695,-98.21290000
42.78564453,-91.46903000
42.81616211,-86.45928000
42.84667969,-83.45102000
42.87719727,-82.97208000
42.90771484,-85.11304000
42.93823242,-88.90854000
42.96875000,-92.28774000
42.99926758,-92.83622000
43.02978516,-91.48344000
43.06030273,-91.14278000
43.09082031,-90.68551000
43.12133789,-91.94016000
43.15185547,-91.63402000
43.18237305,-87.05437000
43.21289063,-85.92979000
43.24340820,-89.73270000
43.27392578,-103.27080000
43.30444336,-98.06453000
43.33496094,-98.77056000
43.36547852,-95.02171000
43.39599609,-93.12326000
43.42651367,-98.95515000
43.45703125,-94.30836000
43.48754883,-85.77763000
43.51806641,-82.61967000
43.54858398,-82.42592000
43.57910156,-84.49667000
43.60961914,-87.78481000
43.64013672,-89.88434000
43.67065430,-89.44062000
43.70117188,-88.56390000
43.73168945,-88.67257000
43.76220703,-89.94196000
43.79272461,-93.37376000
43.82324219,-104.37040000
43.85375977,-95.87910000
43.88427734,-91.20751000
43.91479492,-90.24563000
43.94531250,-90.12560000
43.97583008,-90.86113000
44.00634766,-90.51631000
44.03686523,-88.62766000
44.06738281,-88.43087000
44.09790039,-90.61003000
44.12841797,-95.76839000
44.15893555,-105.76990000
44.18945313,-99.45794000
44.21997070,-98.15013000
44.25048828,-103.98600000
44.28100586,-121.96310000
44.31152344,-103.24690000
44.34204102,-94.61543000
44.37255859,-91.27709000
44.40307617,-91.37852000
44.43359375,-93.83904000
44.46411133,-96.15678000
44.49462891,-93.05816000
44.52514648,-90.44674000
44.55566406,-91.00824000
44.58618164,-94.79592000
44.61669922,-99.95451000
44.64721680,-97.27814000
44.67773438,-91.91051000
44.70825195,-90.26447000
44.73876953,-92.87325000
44.76928711,-101.99880000
44.79980469,-95.59334000
44.83032227,-90.73671000
44.86083984,-89.65240000
44.89135742,-90.81430000
44.92187500,-92.29995000
44.95239258,-94.41772000
44.98291016,-98.62012000
45.01342773,-92.72635000
45.04394531,-89.96810000
45.07446289,-91.09438000
45.10498047,-95.33863000
45.13549805,-104.63680000
45.16601563,-101.86170000
45.19653320,-96.03735000
45.22705078,-96.18701000
45.25756836,-101.47390000
45.28808594,-108.91170000
45.31860352,-100.77190000
45.34912109,-91.36826000
45.37963867,-87.67039000
45.41015625,-87.55495000
45.44067383,-90.28036000
45.47119141,-94.83260000
45.50170898,-95.96812000
45.53222656,-93.88024000
45.56274414,-93.01872000
45.59326172,-93.81076000
45.62377930,-97.75376000
45.65429688,-99.37301000
45.68481445,-92.88353000
45.71533203,-91.74397000
45.74584961,-94.24568000
45.77636719,-97.74616000
45.80688477,-98.97310000
45.83740234,-97.97917000
45.86791992,-96.97857000
45.89843750,-97.03133000
45.92895508,-98.43627000
45.95947266,-105.65710000
45.98999023,-100.26840000
46.02050781,-91.28429000
46.05102539,-88.89710000
46.08154297,-90.30364000
46.11206055,-94.99139000
46.14257813,-101.17260000
46.17309570,-100.57340000
46.20361328,-98.84972000
46.23413086,-99.98827000
46.26464844,-101.41100000
46.29516602,-99.48116000
46.32568359,-95.60854000
46.35620117,-91.86314000
46.38671875,-90.44778000
46.41723633,-91.03133000
46.44775391,-92.58050000
46.47827148,-94.81400000
46.50878906,-99.60110000
46.53930664,-105.06840000
46.56982422,-94.41386000
46.60034180,-90.80847000
46.63085938,-90.18699000
46.66137695,-90.81588000
46.69189453,-91.74107000
46.72241211,-94.24203000
46.75292969,-100.23560000
46.78344727,-98.98750000
46.81396484,-97.44739000
46.84448242,-101.15760000
46.87500000,-107.35510000
46.90551758,-101.98380000
46.93603516,-98.28282000
46.96655273,-97.42139000
46.99707031,-100.40160000
47.02758789,-104.87260000
47.05810547,-99.80928000
47.08862305,-98.58815000
47.11914063,-100.08210000
47.14965820,-103.67060000
47.18017578,-104.38550000
47.21069336,-97.79305000
47.24121094,-95.39813000
47.27172852,-96.96902000
47.30224609,-101.29160000
47.33276367,-97.63118000
47.36328125,-94.42432000
47.39379883,-93.93791000
47.42431641,-93.69667000
47.45483398,-92.19151000
47.48535156,-91.37292000
47.51586914,-92.81604000
47.54638672,-96.35544000
47.57690430,-98.48563000
47.60742188,-99.95227000
47.63793945,-104.11870000
47.66845703,-111.88500000
47.69897461,-112.39030000
47.72949219,-121.97150000
47.76000977,-106.61670000
47.79052734,-100.92070000
47.82104492,-102.08910000
47.85156250,-113.56860000
47.88208008,-106.04940000
47.91259766,-99.58991000
47.94311523,-96.73000000
47.97363281,-95.08477000
48.00415039,-92.42252000
48.03466797,-89.71989000
48.06518555,-88.33102000
48.09570313,-88.11112000
48.12622070,-89.12991000
48.15673828,-92.18909000
48.18725586,-98.22939000
48.21777344,-101.54780000
48.24829102,-99.24800000
48.27880859,-99.47556000
48.30932617,-105.16140000
48.33984375,-105.83480000
48.37036133,-95.60029000
48.40087891,-93.06534000
48.43139648,-94.36103000
48.46191406,-97.52596000
48.49243164,-98.71669000
48.52294922,-99.31763000
48.55346680,-100.39380000
48.58398438,-99.04527000
48.61450195,-97.58542000
48.64501953,-97.12910000
48.67553711,-93.70747000
48.70605469,-91.15505000
48.73657227,-92.03571000
48.76708984,-96.70036000
48.79760742,-101.87320000
48.82812500,-97.85267000
48.85864258,-92.45718000
48.88916016,-89.11208000
48.91967773,-88.34143000
48.95019531,-90.39616000
48.98071289,-96.44306000
49.01123047,-96.95512000
49.04174805,-91.97135000
49.07226563,-91.85838000
49.10278320,-95.72334000
49.13330078,-102.70420000
49.16381836,-105.67090000
49.19433594,-101.61980000
49.22485352,-98.88356000
49.25537109,-97.52983000
49.28588867,-96.62111000
49.31640625,-95.78180000
49.34692383,-92.88080000
49.37744141,-90.44641000
49.40795898,-90.64363000
49.43847656,-93.08202000
49.46899414,-94.62849000
49.49951172,-93.32421000
49.53002930,-92.08748000
49.56054688,-92.46526000
49.59106445,-95.17396000
49.62158203,-99.49403000
49.65209961,-94.70623000
49.68261719,-89.88926000
49.71313477,-88.66264000
49.74365234,-91.52899000
49.77416992,-103.20160000
49.80468750,-100.47430000
49.83520508,-95.68104000
49.86572266,-95.40788000
49.89624023,-96.20716000
49.92675781,-97.10099000
49.95727539,-96.67316000
49.98779297,-93.17314000
50.01831055,-89.30380000
