Frequency,Channel A
(MHz),(dBu)

0.00000000,-27.77081000
0.03051758,-28.07627000
0.06103516,-32.98355000
0.09155273,-41.67525000
0.12207031,-53.23074000
0.15258789,-56.86730000
0.18310547,-58.39738000
0.21362305,-59.02324000
0.24414063,-59.33400000
0.27465820,-60.05663000
0.30517578,-62.13076000
0.33569336,-71.09445000
0.36621094,-67.88642000
0.39672852,-60.79574000
0.42724609,-58.93311000
0.45776367,-58.75508000
0.48828125,-55.14007000
0.51879883,-50.31177000
0.54931641,-48.69462000
0.57983398,-51.52702000
0.61035156,-48.34599000
0.64086914,-42.08963000
0.67138672,-40.38477000
0.70190430,-42.47954000
0.73242188,-48.74265000
0.76293945,-61.23578000
0.79345703,-65.68762000
0.82397461,-63.37616000
0.85449219,-61.63796000
0.88500977,-62.22563000
0.91552734,-65.15819000
0.94604492,-63.02745000
0.97656250,-58.43231000
1.00708008,-57.62899000
1.03759766,-60.93316000
1.06811523,-67.91099000
1.09863281,-66.14665000
1.12915039,-66.50311000
1.15966797,-70.79936000
1.19018555,-73.31709000
1.22070313,-70.08782000
1.25122070,-64.48274000
1.28173828,-61.62258000
1.31225586,-61.90538000
1.34277344,-65.89498000
1.37329102,-67.37154000
1.40380859,-62.55592000
1.43432617,-61.28499000
1.46484375,-62.61954000
1.49536133,-65.35050000
1.52587891,-67.91021000
1.55639648,-68.19145000
1.58691406,-66.70969000
1.61743164,-65.48873000
1.64794922,-67.08085000
1.67846680,-75.81824000
1.70898438,-67.75939000
1.73950195,-63.92789000
1.77001953,-65.80607000
1.80053711,-71.84795000
1.83105469,-71.00431000
1.86157227,-71.77468000
1.89208984,-80.05327000
1.92260742,-74.80014000
1.95312500,-69.18947000
1.98364258,-67.60644000
2.01416016,-68.06981000
2.04467773,-67.42476000
2.07519531,-65.28110000
2.10571289,-64.46748000
2.13623047,-66.45196000
2.16674805,-74.79724000
2.19726563,-76.50907000
2.22778320,-70.28087000
2.25830078,-73.24453000
2.28881836,-75.79234000
2.31933594,-70.08966000
2.34985352,-71.21870000
2.38037109,-88.92476000
2.41088867,-71.97976000
2.44140625,-67.32623000
2.47192383,-66.78728000
2.50244141,-67.74223000
2.53295898,-69.18936000
2.56347656,-71.74569000
2.59399414,-73.54530000
2.62451172,-72.43334000
2.65502930,-73.45464000
2.68554688,-74.62966000
2.71606445,-70.85206000
2.74658203,-69.25081000
2.77709961,-69.52752000
2.80761719,-69.09122000
2.83813477,-68.67151000
2.86865234,-67.53934000
2.89916992,-65.34564000
2.92968750,-65.29025000
2.96020508,-68.80855000
2.99072266,-72.81900000
3.02124023,-71.39796000
3.05175781,-77.30286000
3.08227539,-74.38877000
3.11279297,-65.57595000
3.14331055,-63.11190000
3.17382813,-63.17017000
3.20434570,-64.26178000
3.23486328,-65.99232000
3.26538086,-68.62807000
3.29589844,-70.71324000
3.32641602,-69.46301000
3.35693359,-67.72390000
3.38745117,-67.73703000
3.41796875,-68.33916000
3.44848633,-66.52142000
3.47900391,-64.84875000
3.50952148,-65.38806000
3.54003906,-67.13060000
3.57055664,-67.19663000
3.60107422,-66.86351000
3.63159180,-67.61539000
3.66210938,-68.70406000
3.69262695,-67.47330000
3.72314453,-65.04733000
3.75366211,-64.84483000
3.78417969,-66.34122000
3.81469727,-65.67644000
3.84521484,-65.17026000
3.87573242,-68.45052000
3.90625000,-81.83830000
3.93676758,-72.31095000
3.96728516,-67.71588000
3.99780273,-66.31865000
4.02832031,-65.79739000
4.05883789,-66.18255000
4.08935547,-67.27084000
4.11987305,-68.47055000
4.15039063,-71.67428000
4.18090820,-80.09265000
4.21142578,-75.55119000
4.24194336,-72.55107000
4.27246094,-70.95746000
4.30297852,-69.05536000
4.33349609,-68.73473000
4.36401367,-69.62470000
4.39453125,-71.02525000
4.42504883,-75.08285000
4.45556641,-88.37560000
4.48608398,-76.12795000
4.51660156,-72.21839000
4.54711914,-71.02597000
4.57763672,-69.96480000
4.60815430,-68.51105000
4.63867188,-68.04842000
4.66918945,-69.81062000
4.69970703,-75.40952000
4.73022461,-81.96448000
4.76074219,-73.82009000
4.79125977,-71.19424000
4.82177734,-70.90773000
4.85229492,-71.46409000
4.88281250,-71.84690000
4.91333008,-71.71021000
4.94384766,-73.29892000
4.97436523,-80.41589000
5.00488281,-84.89931000
5.03540039,-78.18495000
5.06591797,-77.24541000
5.09643555,-75.82993000
5.12695313,-74.43314000
5.15747070,-73.56577000
5.18798828,-73.36911000
5.21850586,-74.58721000
5.24902344,-77.11993000
5.27954102,-79.27237000
5.31005859,-79.27596000
5.34057617,-80.16093000
5.37109375,-82.93156000
5.40161133,-82.96437000
5.43212891,-77.48679000
5.46264648,-72.15751000
5.49316406,-69.12286000
5.52368164,-67.75857000
5.55419922,-67.25262000
5.58471680,-67.54985000
5.61523438,-69.43188000
5.64575195,-73.71310000
5.67626953,-75.75501000
5.70678711,-70.84689000
5.73730469,-66.92892000
5.76782227,-64.35431000
5.79833984,-63.24738000
5.82885742,-63.69631000
5.85937500,-65.33204000
5.88989258,-67.47005000
5.92041016,-70.33305000
5.95092773,-75.18079000
5.98144531,-75.29042000
6.01196289,-69.90317000
6.04248047,-66.89635000
6.07299805,-65.65144000
6.10351563,-65.56490000
6.13403320,-66.09612000
6.16455078,-67.22179000
6.19506836,-69.93379000
6.22558594,-75.88947000
6.25610352,-79.13802000
6.28662109,-72.97095000
6.31713867,-69.81116000
6.34765625,-68.64256000
6.37817383,-68.91969000
6.40869141,-70.22937000
6.43920898,-72.22161000
6.46972656,-74.95143000
6.50024414,-77.72536000
6.53076172,-76.30393000
6.56127930,-73.52467000
6.59179688,-71.65378000
6.62231445,-70.24324000
6.65283203,-69.66872000
6.68334961,-70.57027000
6.71386719,-73.29871000
6.74438477,-78.41219000
6.77490234,-88.34625000
6.80541992,-81.66001000
6.83593750,-76.49199000
6.86645508,-75.15656000
6.89697266,-75.64188000
6.92749023,-75.31242000
6.95800781,-73.56033000
6.98852539,-72.61589000
7.01904297,-73.76481000
7.04956055,-78.14059000
7.08007813,-88.10604000
7.11059570,-84.84486000
7.14111328,-82.48017000
7.17163086,-84.59081000
7.20214844,-89.04411000
7.23266602,-87.13890000
7.26318359,-86.06408000
7.29370117,-91.54014000
7.32421875,-93.38777000
7.35473633,-87.82314000
7.38525391,-90.53474000
7.41577148,-99.92360000
7.44628906,-90.66502000
7.47680664,-86.26862000
7.50732422,-82.92102000
7.53784180,-80.82854000
7.56835938,-80.25392000
7.59887695,-80.69179000
7.62939453,-81.42259000
7.65991211,-82.11811000
7.69042969,-83.01260000
7.72094727,-84.09328000
7.75146484,-84.77882000
7.78198242,-84.43557000
7.81250000,-82.73495000
7.84301758,-80.55295000
7.87353516,-79.37760000
7.90405273,-79.78445000
7.93457031,-81.24884000
7.96508789,-82.74452000
7.99560547,-84.08051000
8.02612305,-85.36042000
8.05664063,-86.53431000
8.08715820,-87.50378000
8.11767578,-87.51785000
8.14819336,-87.58218000
8.17871094,-89.91393000
8.20922852,-94.93706000
8.23974609,-93.94359000
8.27026367,-90.26564000
8.30078125,-86.89458000
8.33129883,-84.30614000
8.36181641,-82.86909000
8.39233398,-82.73898000
8.42285156,-84.22726000
8.45336914,-87.88377000
8.48388672,-97.12273000
8.51440430,-97.50565000
8.54492188,-90.73765000
8.57543945,-93.51740000
8.60595703,-93.93525000
8.63647461,-86.01394000
8.66699219,-83.59024000
8.69750977,-83.35339000
8.72802734,-83.75282000
8.75854492,-84.96953000
8.78906250,-88.43380000
8.81958008,-95.26318000
8.85009766,-95.41615000
8.88061523,-91.72076000
8.91113281,-86.93465000
8.94165039,-83.88184000
8.97216797,-82.73289000
9.00268555,-82.32193000
9.03320313,-82.32940000
9.06372070,-83.17673000
9.09423828,-84.86301000
9.12475586,-86.20694000
9.15527344,-84.80801000
9.18579102,-81.58410000
9.21630859,-79.30244000
9.24682617,-79.21225000
9.27734375,-81.59890000
9.30786133,-84.53844000
9.33837891,-83.88816000
9.36889648,-83.29566000
9.39941406,-84.95258000
9.42993164,-89.26164000
9.46044922,-95.73491000
9.49096680,-89.15469000
9.52148438,-84.58579000
9.55200195,-82.91909000
9.58251953,-82.75822000
9.61303711,-83.18694000
9.64355469,-83.83151000
9.67407227,-84.64652000
9.70458984,-86.42215000
9.73510742,-91.79034000
9.76562500,-93.16765000
9.79614258,-86.52821000
9.82666016,-82.91983000
9.85717773,-81.13572000
9.88769531,-81.57976000
9.91821289,-81.50342000
9.94873047,-78.91921000
9.97924805,-77.99416000
10.00976563,-79.98325000
10.04028320,-84.97226000
10.07080078,-87.29069000
10.10131836,-85.24519000
10.13183594,-85.39571000
10.16235352,-86.15366000
10.19287109,-84.26041000
10.22338867,-81.53645000
10.25390625,-80.00545000
10.28442383,-80.12857000
10.31494141,-81.93312000
10.34545898,-84.67862000
10.37597656,-85.41693000
10.40649414,-84.15046000
10.43701172,-84.59024000
10.46752930,-87.88456000
10.49804688,-91.03879000
10.52856445,-88.80138000
10.55908203,-84.36537000
10.58959961,-80.88310000
10.62011719,-79.13977000
10.65063477,-78.77518000
10.68115234,-80.13322000
10.71166992,-83.14507000
10.74218750,-83.11174000
10.77270508,-82.71290000
10.80322266,-88.38631000
10.83374023,-89.50687000
10.86425781,-81.26850000
10.89477539,-79.64816000
10.92529297,-81.86699000
10.95581055,-89.83238000
10.98632813,-92.85233000
11.01684570,-84.97746000
11.04736328,-83.60374000
11.07788086,-85.29964000
11.10839844,-89.74049000
11.13891602,-103.32100000
11.16943359,-90.80414000
11.19995117,-83.37085000
11.23046875,-80.46078000
11.26098633,-79.06543000
11.29150391,-77.72963000
11.32202148,-76.97304000
11.35253906,-77.39662000
11.38305664,-78.38641000
11.41357422,-79.92886000
11.44409180,-84.18041000
11.47460938,-88.98251000
11.50512695,-84.83142000
11.53564453,-84.93584000
11.56616211,-83.71998000
11.59667969,-79.39688000
11.62719727,-77.91639000
11.65771484,-79.17178000
11.68823242,-81.73390000
11.71875000,-83.13548000
11.74926758,-84.78821000
11.77978516,-88.13983000
11.81030273,-89.16785000
11.84082031,-88.09605000
11.87133789,-90.77767000
11.90185547,-85.86430000
11.93237305,-80.05767000
11.96289063,-78.50736000
11.99340820,-80.23971000
12.02392578,-85.31744000
12.05444336,-92.88087000
12.08496094,-91.41614000
12.11547852,-89.15605000
12.14599609,-87.42848000
12.17651367,-85.71581000
12.20703125,-85.57059000
12.23754883,-88.25487000
12.26806641,-93.58978000
12.29858398,-111.92380000
12.32910156,-88.14902000
12.35961914,-82.12379000
12.39013672,-80.40027000
12.42065430,-81.37619000
12.45117188,-83.68837000
12.48168945,-83.71977000
12.51220703,-81.94688000
12.54272461,-80.92113000
12.57324219,-81.03703000
12.60375977,-82.63667000
12.63427734,-83.63467000
12.66479492,-80.85961000
12.69531250,-78.45277000
12.72583008,-77.83409000
12.75634766,-79.10748000
12.78686523,-82.84316000
12.81738281,-90.43550000
12.84790039,-101.02420000
12.87841797,-103.68920000
12.90893555,-89.82091000
12.93945313,-85.60464000
12.96997070,-84.42056000
13.00048828,-84.01125000
13.03100586,-86.55976000
13.06152344,-104.13340000
13.09204102,-89.90841000
13.12255859,-88.97852000
13.15307617,-95.62511000
13.18359375,-85.66608000
13.21411133,-81.03276000
13.24462891,-78.44338000
13.27514648,-76.98862000
13.30566406,-77.17543000
13.33618164,-79.37975000
13.36669922,-83.38210000
13.39721680,-85.62324000
13.42773438,-85.64030000
13.45825195,-89.53774000
13.48876953,-77.25229000
13.51928711,-70.25313000
13.54980469,-67.49085000
13.58032227,-67.72862000
13.61083984,-70.07055000
13.64135742,-72.19485000
13.67187500,-71.12097000
13.70239258,-68.61913000
13.73291016,-67.05544000
13.76342773,-67.40952000
13.79394531,-70.08920000
13.82446289,-75.11596000
13.85498047,-81.64864000
13.88549805,-88.31267000
13.91601563,-94.47415000
13.94653320,-94.41262000
13.97705078,-83.31523000
14.00756836,-77.16032000
14.03808594,-74.64988000
14.06860352,-74.91322000
14.09912109,-77.51379000
14.12963867,-81.85078000
14.16015625,-85.48569000
14.19067383,-85.62224000
14.22119141,-85.83984000
14.25170898,-86.80333000
14.28222656,-86.54789000
14.31274414,-85.53498000
14.34326172,-83.86287000
14.37377930,-82.91907000
14.40429688,-83.52831000
14.43481445,-85.21926000
14.46533203,-88.28339000
14.49584961,-89.68762000
14.52636719,-86.18348000
14.55688477,-85.20415000
14.58740234,-82.86803000
14.61791992,-79.45406000
14.64843750,-78.89088000
14.67895508,-82.04828000
14.70947266,-89.89536000
14.73999023,-87.74067000
14.77050781,-84.33662000
14.80102539,-83.78412000
14.83154297,-83.99962000
14.86206055,-83.22957000
14.89257813,-81.09039000
14.92309570,-79.29652000
14.95361328,-78.73965000
14.98413086,-78.92744000
15.01464844,-78.92879000
15.04516602,-78.95732000
15.07568359,-79.95395000
15.10620117,-82.19471000
15.13671875,-84.88540000
15.16723633,-85.34364000
15.19775391,-82.39827000
15.22827148,-79.63026000
15.25878906,-78.45921000
15.28930664,-78.32013000
15.31982422,-78.57642000
15.35034180,-79.28883000
15.38085938,-80.22226000
15.41137695,-81.62586000
15.44189453,-84.17115000
15.47241211,-86.82591000
15.50292969,-87.03612000
15.53344727,-85.43028000
15.56396484,-83.90926000
15.59448242,-82.91619000
15.62500000,-82.43923000
15.65551758,-82.72505000
15.68603516,-83.23670000
15.71655273,-82.77963000
15.74707031,-82.47047000
15.77758789,-84.15215000
15.80810547,-89.49338000
15.83862305,-96.27120000
15.86914063,-88.47754000
15.89965820,-85.04884000
15.93017578,-83.51988000
15.96069336,-83.14099000
15.99121094,-84.24442000
16.02172852,-86.92578000
16.05224609,-88.70937000
16.08276367,-88.44849000
16.11328125,-90.84383000
16.14379883,-98.21730000
16.17431641,-96.63070000
16.20483398,-92.79174000
16.23535156,-88.89200000
16.26586914,-86.42442000
16.29638672,-86.24798000
16.32690430,-86.27281000
16.35742188,-84.48604000
16.38793945,-83.37876000
16.41845703,-84.00417000
16.44897461,-86.03745000
16.47949219,-88.76850000
16.51000977,-91.47810000
16.54052734,-93.17982000
16.57104492,-89.52180000
16.60156250,-85.94563000
16.63208008,-84.75938000
16.66259766,-84.48555000
16.69311523,-84.35791000
16.72363281,-86.17749000
16.75415039,-92.58012000
16.78466797,-99.09735000
16.81518555,-92.79570000
16.84570313,-90.77770000
16.87622070,-89.00389000
16.90673828,-88.75327000
16.93725586,-90.56168000
16.96777344,-90.27675000
16.99829102,-87.59555000
17.02880859,-86.61720000
17.05932617,-86.45242000
17.08984375,-84.86078000
17.12036133,-83.44817000
17.15087891,-83.84381000
17.18139648,-85.99570000
17.21191406,-89.71758000
17.24243164,-95.77248000
17.27294922,-91.12370000
17.30346680,-85.69164000
17.33398438,-83.41934000
17.36450195,-83.02917000
17.39501953,-83.83707000
17.42553711,-85.41920000
17.45605469,-87.67281000
17.48657227,-90.76160000
17.51708984,-94.46817000
17.54760742,-100.47830000
17.57812500,-97.97017000
17.60864258,-89.71030000
17.63916016,-88.20217000
17.66967773,-95.26165000
17.70019531,-91.63288000
17.73071289,-83.05215000
17.76123047,-80.11979000
17.79174805,-79.48617000
17.82226563,-80.55344000
17.85278320,-83.44352000
17.88330078,-88.19932000
17.91381836,-93.34846000
17.94433594,-95.45760000
17.97485352,-93.30894000
18.00537109,-90.26269000
18.03588867,-88.45361000
18.06640625,-88.35277000
18.09692383,-90.47813000
18.12744141,-95.13278000
18.15795898,-95.17033000
18.18847656,-91.85795000
18.21899414,-91.45580000
18.24951172,-94.51367000
18.28002930,-105.12270000
18.31054688,-104.41950000
18.34106445,-97.71156000
18.37158203,-93.38432000
18.40209961,-91.05083000
18.43261719,-92.01379000
18.46313477,-97.10956000
18.49365234,-106.05020000
18.52416992,-103.51920000
18.55468750,-102.07800000
18.58520508,-99.02769000
18.61572266,-95.98557000
18.64624023,-95.40795000
18.67675781,-98.06998000
18.70727539,-100.95450000
18.73779297,-98.98330000
18.76831055,-97.91441000
18.79882813,-96.19091000
18.82934570,-94.03493000
18.85986328,-92.87548000
18.89038086,-93.60078000
18.92089844,-96.14241000
18.95141602,-97.89853000
18.98193359,-100.61540000
19.01245117,-115.66320000
19.04296875,-103.73750000
19.07348633,-98.21246000
19.10400391,-96.17531000
19.13452148,-95.68805000
19.16503906,-95.83998000
19.19555664,-96.71233000
19.22607422,-100.32360000
19.25659180,-106.35820000
19.28710938,-97.76451000
19.31762695,-94.39711000
19.34814453,-94.64700000
19.37866211,-98.74464000
19.40917969,-102.51130000
19.43969727,-94.80002000
19.47021484,-91.37526000
19.50073242,-90.35664000
19.53125000,-90.58618000
19.56176758,-91.66675000
19.59228516,-93.51701000
19.62280273,-95.67033000
19.65332031,-96.38663000
19.68383789,-94.57176000
19.71435547,-93.27065000
19.74487305,-94.10362000
19.77539063,-96.08604000
19.80590820,-98.21923000
19.83642578,-101.76120000
19.86694336,-99.57504000
19.89746094,-95.02077000
19.92797852,-92.14812000
19.95849609,-90.98671000
19.98901367,-91.16557000
20.01953125,-92.29690000
20.05004883,-94.97631000
20.08056641,-97.42440000
20.11108398,-94.62991000
20.14160156,-93.49949000
20.17211914,-94.31008000
20.20263672,-93.25042000
20.23315430,-92.29427000
20.26367188,-93.25804000
20.29418945,-94.92855000
20.32470703,-97.33812000
20.35522461,-102.43270000
20.38574219,-98.12654000
20.41625977,-91.42261000
20.44677734,-87.11760000
20.47729492,-84.78928000
20.50781250,-84.59039000
20.53833008,-86.47144000
20.56884766,-89.42360000
20.59936523,-92.73856000
20.62988281,-99.19179000
20.66040039,-94.62170000
20.69091797,-90.00159000
20.72143555,-88.57765000
20.75195313,-88.49124000
20.78247070,-88.12401000
20.81298828,-86.21797000
20.84350586,-84.36617000
20.87402344,-84.23186000
20.90454102,-86.43204000
20.93505859,-90.70636000
20.96557617,-93.00174000
20.99609375,-93.58387000
21.02661133,-95.49843000
21.05712891,-94.98265000
21.08764648,-94.41351000
21.11816406,-95.46590000
21.14868164,-95.76402000
21.17919922,-93.41465000
21.20971680,-92.11929000
21.24023438,-93.16812000
21.27075195,-94.79821000
21.30126953,-94.32484000
21.33178711,-93.28118000
21.36230469,-93.41072000
21.39282227,-95.32770000
21.42333984,-98.46317000
21.45385742,-96.33355000
21.48437500,-93.13178000
21.51489258,-92.54881000
21.54541016,-94.06417000
21.57592773,-96.61317000
21.60644531,-98.42300000
21.63696289,-97.78953000
21.66748047,-95.23685000
21.69799805,-92.51601000
21.72851563,-90.95735000
21.75903320,-91.26460000
21.78955078,-93.95438000
21.82006836,-101.03740000
21.85058594,-108.12870000
21.88110352,-96.42261000
21.91162109,-92.34570000
21.94213867,-90.46528000
21.97265625,-90.32947000
22.00317383,-92.57694000
22.03369141,-98.82010000
22.06420898,-102.15390000
22.09472656,-96.38634000
22.12524414,-94.47717000
22.15576172,-95.35155000
22.18627930,-99.88194000
22.21679688,-99.37807000
22.24731445,-94.97458000
22.27783203,-95.45730000
22.30834961,-99.87096000
22.33886719,-101.76500000
22.36938477,-97.14659000
22.39990234,-92.17315000
22.43041992,-89.56969000
22.46093750,-89.06948000
22.49145508,-90.32800000
22.52197266,-93.65990000
22.55249023,-99.38997000
22.58300781,-103.44760000
22.61352539,-108.09220000
22.64404297,-108.63490000
22.67456055,-97.65723000
22.70507813,-94.48971000
22.73559570,-95.10089000
22.76611328,-99.47206000
22.79663086,-99.66567000
22.82714844,-94.79217000
22.85766602,-92.51012000
22.88818359,-91.10015000
22.91870117,-90.35712000
22.94921875,-90.43794000
22.97973633,-90.23408000
23.01025391,-89.43615000
23.04077148,-88.93533000
23.07128906,-89.15222000
23.10180664,-89.79103000
23.13232422,-89.67660000
23.16284180,-88.89047000
23.19335938,-88.82191000
23.22387695,-89.94214000
23.25439453,-92.04652000
23.28491211,-95.01932000
23.31542969,-99.20898000
23.34594727,-106.27420000
23.37646484,-104.86990000
23.40698242,-98.44196000
23.43750000,-94.50160000
23.46801758,-91.92258000
23.49853516,-91.28474000
23.52905273,-94.12078000
23.55957031,-99.73256000
23.59008789,-92.64244000
23.62060547,-90.47755000
23.65112305,-92.34047000
23.68164063,-94.78219000
23.71215820,-93.32302000
23.74267578,-90.74579000
23.77319336,-88.23163000
23.80371094,-85.99267000
23.83422852,-84.70274000
23.86474609,-85.11465000
23.89526367,-87.72620000
23.92578125,-92.37555000
23.95629883,-96.06293000
23.98681641,-95.18835000
24.01733398,-94.06226000
24.04785156,-95.39482000
24.07836914,-102.13440000
24.10888672,-101.91540000
24.13940430,-92.37035000
24.16992188,-89.51018000
24.20043945,-90.71122000
24.23095703,-96.88500000
24.26147461,-99.08562000
24.29199219,-94.44383000
24.32250977,-94.10819000
24.35302734,-95.55969000
24.38354492,-96.55404000
24.41406250,-95.44463000
24.44458008,-93.00147000
24.47509766,-90.41364000
24.50561523,-88.48412000
24.53613281,-87.81139000
24.56665039,-88.44099000
24.59716797,-90.04189000
24.62768555,-92.57640000
24.65820313,-97.16101000
24.68872070,-105.58880000
24.71923828,-100.78640000
24.74975586,-97.88239000
24.78027344,-99.29134000
24.81079102,-99.00714000
24.84130859,-93.09048000
24.87182617,-90.24413000
24.90234375,-90.28883000
24.93286133,-92.93182000
24.96337891,-100.23480000
24.99389648,-105.84300000
25.02441406,-95.59399000
25.05493164,-94.79257000
25.08544922,-100.66890000
25.11596680,-110.20220000
25.14648438,-98.28899000
25.17700195,-93.07740000
25.20751953,-91.28968000
25.23803711,-92.80278000
25.26855469,-98.65665000
25.29907227,-98.29754000
25.32958984,-92.44965000
25.36010742,-91.81489000
25.39062500,-95.53209000
25.42114258,-104.40600000
25.45166016,-106.11810000
25.48217773,-102.96920000
25.51269531,-97.60932000
25.54321289,-95.18315000
25.57373047,-95.65633000
25.60424805,-97.60430000
25.63476563,-95.50032000
25.66528320,-92.15026000
25.69580078,-91.48514000
25.72631836,-93.75256000
25.75683594,-98.07744000
25.78735352,-101.99650000
25.81787109,-117.66970000
25.84838867,-98.10043000
25.87890625,-92.71643000
25.90942383,-91.80061000
25.93994141,-93.58238000
25.97045898,-95.98618000
26.00097656,-95.54345000
26.03149414,-92.34987000
26.06201172,-90.21553000
26.09252930,-89.86268000
26.12304688,-90.60182000
26.15356445,-91.59966000
26.18408203,-92.08987000
26.21459961,-92.00700000
26.24511719,-92.50894000
26.27563477,-94.17590000
26.30615234,-95.94531000
26.33666992,-97.03018000
26.36718750,-96.53494000
26.39770508,-96.21445000
26.42822266,-99.14368000
26.45874023,-108.80090000
26.48925781,-105.65750000
26.51977539,-99.99199000
26.55029297,-100.73360000
26.58081055,-98.78806000
26.61132813,-92.72374000
26.64184570,-90.58856000
26.67236328,-92.05196000
26.70288086,-94.87042000
26.73339844,-94.03500000
26.76391602,-92.57511000
26.79443359,-89.63775000
26.82495117,-87.39920000
26.85546875,-87.60526000
26.88598633,-90.68462000
26.91650391,-98.54427000
26.94702148,-106.60920000
26.97753906,-96.62917000
27.00805664,-95.29438000
27.03857422,-96.24713000
27.06909180,-95.88222000
27.09960938,-93.39116000
27.13012695,-90.85297000
27.16064453,-90.04799000
27.19116211,-91.93358000
27.22167969,-97.51087000
27.25219727,-107.98390000
27.28271484,-107.72990000
27.31323242,-110.67600000
27.34375000,-110.32700000
27.37426758,-105.39860000
27.40478516,-109.71420000
27.43530273,-105.25110000
27.46582031,-94.60491000
27.49633789,-90.19985000
27.52685547,-88.76736000
27.55737305,-89.78858000
27.58789063,-94.02162000
27.61840820,-102.55990000
27.64892578,-97.15974000
27.67944336,-95.85807000
27.70996094,-99.65184000
27.74047852,-101.72370000
27.77099609,-100.30920000
27.80151367,-101.67100000
27.83203125,-95.21828000
27.86254883,-91.30354000
27.89306641,-90.75504000
27.92358398,-93.32885000
27.95410156,-100.43450000
27.98461914,-99.10315000
28.01513672,-96.30104000
28.04565430,-102.44300000
28.07617188,-101.31150000
28.10668945,-92.68779000
28.13720703,-90.63031000
28.16772461,-91.21710000
28.19824219,-92.93947000
28.22875977,-95.53087000
28.25927734,-97.48676000
28.28979492,-93.10062000
28.32031250,-90.25990000
28.35083008,-90.66431000
28.38134766,-94.36997000
28.41186523,-98.68679000
28.44238281,-99.74357000
28.47290039,-108.47500000
28.50341797,-99.30817000
28.53393555,-92.70262000
28.56445313,-89.68924000
28.59497070,-88.76241000
28.62548828,-90.71695000
28.65600586,-99.04459000
28.68652344,-96.43114000
28.71704102,-91.75175000
28.74755859,-92.77368000
28.77807617,-97.29783000
28.80859375,-103.10780000
28.83911133,-106.04450000
28.86962891,-103.85820000
28.90014648,-100.41560000
28.93066406,-97.48531000
28.96118164,-94.05151000
28.99169922,-91.25685000
29.02221680,-90.41454000
29.05273438,-91.66405000
29.08325195,-94.61487000
29.11376953,-99.78423000
29.14428711,-107.71200000
29.17480469,-98.37991000
29.20532227,-95.26893000
29.23583984,-95.60088000
29.26635742,-96.06825000
29.29687500,-96.45705000
29.32739258,-101.02290000
29.35791016,-107.61510000
29.38842773,-98.68786000
29.41894531,-97.13829000
29.44946289,-98.97495000
29.47998047,-100.95210000
29.51049805,-97.37941000
29.54101563,-94.08927000
29.57153320,-93.99795000
29.60205078,-98.25883000
29.63256836,-117.66380000
29.66308594,-102.67410000
29.69360352,-98.90013000
29.72412109,-97.79562000
29.75463867,-95.90564000
29.78515625,-92.94571000
29.81567383,-90.78378000
29.84619141,-90.55008000
29.87670898,-92.49885000
29.90722656,-96.38631000
29.93774414,-101.76970000
29.96826172,-106.53550000
29.99877930,-101.88560000
30.02929688,-97.62921000
30.05981445,-95.64384000
30.09033203,-95.77382000
30.12084961,-98.44815000
30.15136719,-104.16350000
30.18188477,-104.08530000
30.21240234,-99.87213000
30.24291992,-97.60913000
30.27343750,-96.25343000
30.30395508,-95.76590000
30.33447266,-96.72963000
30.36499023,-99.41132000
30.39550781,-102.37510000
30.42602539,-103.40280000
30.45654297,-104.29150000
30.48706055,-103.98710000
30.51757813,-103.18410000
30.54809570,-103.46750000
30.57861328,-103.75200000
30.60913086,-103.03550000
30.63964844,-103.97450000
30.67016602,-113.00190000
30.70068359,-109.83110000
30.73120117,-104.58250000
30.76171875,-105.68110000
30.79223633,-104.70540000
30.82275391,-103.08670000
30.85327148,-107.73950000
30.88378906,-110.35290000
30.91430664,-101.50220000
30.94482422,-100.09890000
30.97534180,-101.19120000
31.00585938,-103.63810000
31.03637695,-106.03160000
31.06689453,-104.81620000
31.09741211,-101.77920000
31.12792969,-100.61480000
31.15844727,-101.19300000
31.18896484,-99.54599000
31.21948242,-98.77005000
31.25000000,-100.76610000
31.28051758,-98.16724000
31.31103516,-94.47624000
31.34155273,-93.78471000
31.37207031,-96.08342000
31.40258789,-100.46100000
31.43310547,-105.47870000
31.46362305,-102.51730000
31.49414063,-97.83704000
31.52465820,-96.82010000
31.55517578,-98.12008000
31.58569336,-102.79520000
31.61621094,-113.47320000
31.64672852,-99.62338000
31.67724609,-97.17912000
31.70776367,-101.21110000
31.73828125,-112.13950000
31.76879883,-99.46989000
31.79931641,-98.32709000
31.82983398,-100.11200000
31.86035156,-98.47537000
31.89086914,-98.06255000
31.92138672,-100.71800000
31.95190430,-96.25863000
31.98242188,-92.59652000
32.01293945,-92.81205000
32.04345703,-97.43478000
32.07397461,-110.85540000
32.10449219,-96.85006000
32.13500977,-92.35093000
32.16552734,-91.77274000
32.19604492,-95.70512000
32.22656250,-134.31110000
32.25708008,-96.53843000
32.28759766,-94.00085000
32.31811523,-97.01723000
32.34863281,-98.27145000
32.37915039,-91.91285000
32.40966797,-89.40465000
32.44018555,-90.21834000
32.47070313,-94.77574000
32.50122070,-102.61560000
32.53173828,-99.89029000
32.56225586,-98.68008000
32.59277344,-98.82281000
32.62329102,-103.12170000
32.65380859,-110.50050000
32.68432617,-97.98338000
32.71484375,-95.62460000
32.74536133,-96.92086000
32.77587891,-101.93110000
32.80639648,-110.13940000
32.83691406,-98.85242000
32.86743164,-94.38030000
32.89794922,-92.28645000
32.92846680,-91.27188000
32.95898438,-91.45572000
32.98950195,-93.35320000
33.02001953,-97.17254000
33.05053711,-103.67800000
33.08105469,-110.81030000
33.11157227,-105.19150000
33.14208984,-103.07350000
33.17260742,-102.40610000
33.20312500,-103.71030000
33.23364258,-114.41530000
33.26416016,-104.54310000
33.29467773,-98.01994000
33.32519531,-96.77677000
33.35571289,-99.41840000
33.38623047,-109.78290000
33.41674805,-108.03840000
33.44726563,-101.35010000
33.47778320,-98.12338000
33.50830078,-95.04694000
33.53881836,-93.12648000
33.56933594,-93.79419000
33.59985352,-98.45535000
33.63037109,-103.19270000
33.66088867,-98.94097000
33.69140625,-96.77687000
33.72192383,-95.89339000
33.75244141,-98.00443000
33.78295898,-105.53640000
33.81347656,-107.85640000
33.84399414,-103.15150000
33.87451172,-102.21790000
33.90502930,-101.46870000
33.93554688,-100.95310000
33.96606445,-100.80490000
33.99658203,-99.91153000
34.02709961,-99.29733000
34.05761719,-96.82469000
34.08813477,-93.21584000
34.11865234,-91.02740000
34.14916992,-90.64117000
34.17968750,-92.61339000
34.21020508,-98.19328000
34.24072266,-98.80244000
34.27124023,-95.71456000
34.30175781,-96.76255000
34.33227539,-99.30553000
34.36279297,-98.92287000
34.39331055,-95.87363000
34.42382813,-93.51431000
34.45434570,-92.05058000
34.48486328,-91.04985000
34.51538086,-91.13298000
34.54589844,-93.44905000
34.57641602,-100.40000000
34.60693359,-112.64080000
34.63745117,-101.52110000
34.66796875,-103.48620000
34.69848633,-117.07350000
34.72900391,-106.30430000
34.75952148,-105.57700000
34.79003906,-107.58880000
34.82055664,-118.23260000
34.85107422,-101.92630000
34.88159180,-95.37563000
34.91210938,-93.69118000
34.94262695,-93.90053000
34.97314453,-93.65897000
35.00366211,-93.32063000
35.03417969,-93.33482000
35.06469727,-93.74122000
35.09521484,-95.18363000
35.12573242,-97.92651000
35.15625000,-101.36530000
35.18676758,-102.42830000
35.21728516,-100.12540000
35.24780273,-96.33140000
35.27832031,-94.32538000
35.30883789,-95.95699000
35.33935547,-104.95680000
35.36987305,-99.69315000
35.40039063,-94.66974000
35.43090820,-94.76793000
35.46142578,-98.44849000
35.49194336,-105.01460000
35.52246094,-106.72350000
35.55297852,-101.21650000
35.58349609,-95.69070000
35.61401367,-92.80914000
35.64453125,-92.42775000
35.67504883,-94.27649000
35.70556641,-97.08405000
35.73608398,-98.52045000
35.76660156,-101.35880000
35.79711914,-106.14610000
35.82763672,-96.27547000
35.85815430,-93.30979000
35.88867188,-95.70550000
35.91918945,-109.21760000
35.94970703,-101.22190000
35.98022461,-96.19843000
36.01074219,-94.90668000
36.04125977,-94.96377000
36.07177734,-96.18806000
36.10229492,-98.68668000
36.13281250,-104.14830000
36.16333008,-110.20420000
36.19384766,-96.80388000
36.22436523,-92.83134000
36.25488281,-92.57216000
36.28540039,-94.43923000
36.31591797,-96.16280000
36.34643555,-96.73504000
36.37695313,-98.00015000
36.40747070,-102.63530000
36.43798828,-99.40940000
36.46850586,-93.48058000
36.49902344,-91.18184000
36.52954102,-91.40655000
36.56005859,-93.80212000
36.59057617,-96.64044000
36.62109375,-97.73587000
36.65161133,-101.10110000
36.68212891,-118.37540000
36.71264648,-102.61390000
36.74316406,-97.86988000
36.77368164,-96.94167000
36.80419922,-99.21588000
36.83471680,-105.37970000
36.86523438,-112.88100000
36.89575195,-109.02210000
36.92626953,-100.70880000
36.95678711,-98.60001000
36.98730469,-99.36970000
37.01782227,-99.81400000
37.04833984,-98.95188000
37.07885742,-98.52306000
37.10937500,-97.33759000
37.13989258,-95.67503000
37.17041016,-95.55988000
37.20092773,-97.16763000
37.23144531,-98.97793000
37.26196289,-100.00330000
37.29248047,-100.69790000
37.32299805,-99.44106000
37.35351563,-98.85371000
37.38403320,-101.33900000
37.41455078,-105.03380000
37.44506836,-104.68200000
37.47558594,-105.25420000
37.50610352,-104.74930000
37.53662109,-103.38360000
37.56713867,-101.63000000
37.59765625,-98.31232000
37.62817383,-97.91661000
37.65869141,-106.71720000
37.68920898,-100.79520000
37.71972656,-94.15534000
37.75024414,-93.34458000
37.78076172,-95.07488000
37.81127930,-96.58303000
37.84179688,-95.09060000
37.87231445,-92.48195000
37.90283203,-91.10009000
37.93334961,-91.43909000
37.96386719,-93.32516000
37.99438477,-97.72004000
38.02490234,-113.43280000
38.05541992,-98.20675000
38.08593750,-93.16032000
38.11645508,-91.86710000
38.14697266,-92.92207000
38.17749023,-95.60764000
38.20800781,-97.28145000
38.23852539,-96.05346000
38.26904297,-94.76517000
38.29956055,-94.23824000
38.33007813,-94.49922000
38.36059570,-95.70848000
38.39111328,-98.35250000
38.42163086,-104.38180000
38.45214844,-105.17110000
38.48266602,-100.28590000
38.51318359,-99.86214000
38.54370117,-103.63710000
38.57421875,-118.51920000
38.60473633,-111.34920000
38.63525391,-104.53950000
38.66577148,-99.91571000
38.69628906,-97.66193000
38.72680664,-96.34971000
38.75732422,-95.39998000
38.78784180,-94.37262000
38.81835938,-93.36976000
38.84887695,-93.86061000
38.87939453,-97.71546000
38.90991211,-108.71600000
38.94042969,-108.89580000
38.97094727,-106.91420000
39.00146484,-115.63140000
39.03198242,-108.08330000
39.06250000,-99.79450000
39.09301758,-95.81560000
39.12353516,-93.05589000
39.15405273,-91.14060000
39.18457031,-90.83298000
39.21508789,-93.49255000
39.24560547,-100.48050000
39.27612305,-99.72672000
39.30664063,-97.26497000
39.33715820,-95.56057000
39.36767578,-93.01657000
39.39819336,-91.62100000
39.42871094,-91.99599000
39.45922852,-94.17824000
39.48974609,-98.37135000
39.52026367,-103.95570000
39.55078125,-99.83293000
39.58129883,-96.50493000
39.61181641,-98.52002000
39.64233398,-110.33600000
39.67285156,-99.80125000
39.70336914,-95.47783000
39.73388672,-95.28214000
39.76440430,-98.42759000
39.79492188,-102.97620000
39.82543945,-102.74300000
39.85595703,-103.01800000
39.88647461,-101.60280000
39.91699219,-101.36400000
39.94750977,-109.06660000
39.97802734,-103.63960000
40.00854492,-95.28903000
40.03906250,-91.66744000
40.06958008,-91.15045000
40.10009766,-94.35127000
40.13061523,-97.63390000
40.16113281,-94.07198000
40.19165039,-94.89294000
40.22216797,-103.34500000
40.25268555,-101.85260000
40.28320313,-95.54650000
40.31372070,-93.69817000
40.34423828,-95.23395000
40.37475586,-106.99950000
40.40527344,-96.31827000
40.43579102,-89.64553000
40.46630859,-87.05278000
40.49682617,-86.28460000
40.52734375,-87.05113000
40.55786133,-89.87816000
40.58837891,-95.16438000
40.61889648,-97.67846000
40.64941406,-94.95085000
40.67993164,-90.61964000
40.71044922,-87.28152000
40.74096680,-86.35371000
40.77148438,-88.60001000
40.80200195,-93.15460000
40.83251953,-88.86214000
40.86303711,-86.67136000
40.89355469,-89.33559000
40.92407227,-104.06230000
40.95458984,-91.34831000
40.98510742,-86.25812000
41.01562500,-85.29987000
41.04614258,-86.69751000
41.07666016,-89.64597000
41.10717773,-92.27886000
41.13769531,-91.57816000
41.16821289,-89.33735000
41.19873047,-89.13052000
41.22924805,-94.66599000
41.25976563,-98.90395000
41.29028320,-89.02653000
41.32080078,-87.19337000
41.35131836,-87.75123000
41.38183594,-89.96883000
41.41235352,-96.26870000
41.44287109,-98.24416000
41.47338867,-92.05502000
41.50390625,-89.88048000
41.53442383,-88.78831000
41.56494141,-89.83235000
41.59545898,-95.60199000
41.62597656,-101.21940000
41.65649414,-94.05170000
41.68701172,-92.93732000
41.71752930,-94.95697000
41.74804688,-96.01273000
41.77856445,-94.80092000
41.80908203,-100.13800000
41.83959961,-95.05288000
41.87011719,-88.17015000
41.90063477,-86.31374000
41.93115234,-85.97070000
41.96166992,-85.55611000
41.99218750,-86.27132000
42.02270508,-89.40754000
42.05322266,-93.58513000
42.08374023,-94.09412000
42.11425781,-93.47255000
42.14477539,-93.96744000
42.17529297,-94.23032000
42.20581055,-89.63333000
42.23632813,-85.56236000
42.26684570,-83.02964000
42.29736328,-82.17068000
42.32788086,-84.23726000
42.35839844,-91.43512000
42.38891602,-96.61317000
42.41943359,-92.95124000
42.44995117,-93.72962000
42.48046875,-89.78478000
42.51098633,-85.15808000
42.54150391,-83.04269000
42.57202148,-83.36662000
42.60253906,-86.04193000
42.63305664,-91.38984000
42.66357422,-100.90010000
42.69409180,-99.22250000
42.72460938,-94.40545000
42.75512695,-94.63510000
42.78564453,-94.26324000
42.81616211,-87.84862000
42.84667969,-84.30141000
42.87719727,-83.56573000
42.90771484,-85.26566000
42.93823242,-89.72237000
42.96875000,-100.25160000
42.99926758,-101.00490000
43.02978516,-94.34670000
43.06030273,-94.27238000
43.09082031,-95.70721000
43.12133789,-92.28745000
43.15185547,-86.72743000
43.18237305,-83.44910000
43.21289063,-83.14433000
43.24340820,-85.48869000
43.27392578,-89.55472000
43.30444336,-94.14534000
43.33496094,-100.38020000
43.36547852,-113.19620000
43.39599609,-103.55080000
43.42651367,-98.24975000
43.45703125,-93.79103000
43.48754883,-91.27969000
43.51806641,-91.08234000
43.54858398,-92.96468000
43.57910156,-98.30844000
43.60961914,-109.83690000
43.64013672,-93.85947000
43.67065430,-90.04386000
43.70117188,-90.20943000
43.73168945,-93.76483000
43.76220703,-99.53075000
43.79272461,-98.84399000
43.82324219,-93.18958000
43.85375977,-90.11848000
43.88427734,-90.21938000
43.91479492,-93.84540000
43.94531250,-101.34370000
43.97583008,-93.86481000
44.00634766,-90.17706000
44.03686523,-90.48386000
44.06738281,-93.85570000
44.09790039,-95.74889000
44.12841797,-94.60220000
44.15893555,-91.15942000
44.18945313,-87.16355000
44.21997070,-86.55505000
44.25048828,-90.54782000
44.28100586,-106.93080000
44.31152344,-92.38114000
44.34204102,-88.05544000
44.37255859,-87.14595000
44.40307617,-88.92900000
44.43359375,-94.36942000
44.46411133,-101.71770000
44.49462891,-95.86880000
44.52514648,-90.76001000
44.55566406,-88.14744000
44.58618164,-88.07613000
44.61669922,-90.19550000
44.64721680,-91.59882000
44.67773438,-89.00238000
44.70825195,-87.46902000
44.73876953,-88.69118000
44.76928711,-92.64439000
44.79980469,-97.99452000
44.83032227,-99.56966000
44.86083984,-95.68390000
44.89135742,-94.09471000
44.92187500,-96.07512000
44.95239258,-100.37240000
44.98291016,-92.15121000
45.01342773,-87.19186000
45.04394531,-85.54132000
45.07446289,-86.48887000
45.10498047,-89.28745000
45.13549805,-91.59283000
45.16601563,-91.94599000
45.19653320,-92.52873000
45.22705078,-95.90611000
45.25756836,-108.51800000
45.28808594,-99.86345000
45.31860352,-92.53949000
45.34912109,-88.68707000
45.37963867,-87.04848000
45.41015625,-87.82433000
45.44067383,-90.92933000
45.47119141,-94.17561000
45.50170898,-94.92697000
45.53222656,-94.46697000
45.56274414,-94.57776000
45.59326172,-97.48129000
45.62377930,-111.71850000
45.65429688,-95.94773000
45.68481445,-89.86736000
45.71533203,-88.70072000
45.74584961,-91.45737000
45.77636719,-96.30215000
45.80688477,-96.97234000
45.83740234,-92.98283000
45.86791992,-89.86045000
45.89843750,-90.00655000
45.92895508,-92.26152000
45.95947266,-93.32703000
45.98999023,-93.27470000
46.02050781,-94.35953000
46.05102539,-98.95204000
46.08154297,-108.21530000
46.11206055,-95.33515000
46.14257813,-92.60841000
46.17309570,-93.20027000
46.20361328,-94.80731000
46.23413086,-95.84744000
46.26464844,-95.95300000
46.29516602,-95.01767000
46.32568359,-92.71842000
46.35620117,-90.52902000
46.38671875,-89.93877000
46.41723633,-91.09608000
46.44775391,-93.37203000
46.47827148,-95.82368000
46.50878906,-98.24708000
46.53930664,-101.17720000
46.56982422,-102.97730000
46.60034180,-98.75414000
46.63085938,-94.01605000
46.66137695,-91.00613000
46.69189453,-90.03156000
46.72241211,-92.04932000
46.75292969,-99.78507000
46.78344727,-104.78560000
46.81396484,-100.60680000
46.84448242,-108.60720000
46.87500000,-101.62700000
46.90551758,-95.07521000
46.93603516,-91.70867000
46.96655273,-89.28909000
46.99707031,-87.63673000
47.02758789,-87.08092000
47.05810547,-88.02441000
47.08862305,-90.84316000
47.11914063,-95.72379000
47.14965820,-102.18900000
47.18017578,-108.42610000
47.21069336,-109.48510000
47.24121094,-111.92440000
47.27172852,-104.40040000
47.30224609,-98.29390000
47.33276367,-96.91354000
47.36328125,-99.20518000
47.39379883,-96.64806000
47.42431641,-92.40446000
47.45483398,-90.76458000
47.48535156,-90.62994000
47.51586914,-91.52686000
47.54638672,-93.89130000
47.57690430,-99.10008000
47.60742188,-107.47230000
47.63793945,-105.92310000
47.66845703,-108.86370000
47.69897461,-107.48620000
47.72949219,-100.65670000
47.76000977,-97.16530000
47.79052734,-95.87112000
47.82104492,-96.74995000
47.85156250,-99.86494000
47.88208008,-107.39600000
47.91259766,-103.91480000
47.94311523,-97.51171000
47.97363281,-98.72182000
48.00415039,-110.83790000
48.03466797,-109.02310000
48.06518555,-106.31210000
48.09570313,-98.50564000
48.12622070,-95.46152000
48.15673828,-96.03631000
48.18725586,-98.82085000
48.21777344,-100.06500000
48.24829102,-97.75917000
48.27880859,-98.40974000
48.30932617,-101.06760000
48.33984375,-95.83801000
48.37036133,-93.11063000
48.40087891,-93.56622000
48.43139648,-95.42287000
48.46191406,-96.62868000
48.49243164,-96.93021000
48.52294922,-95.98582000
48.55346680,-94.43510000
48.58398438,-93.70796000
48.61450195,-93.82306000
48.64501953,-93.65804000
48.67553711,-92.32087000
48.70605469,-90.66908000
48.73657227,-89.94648000
48.76708984,-90.65545000
48.79760742,-92.79082000
48.82812500,-95.89580000
48.85864258,-97.48414000
48.88916016,-95.82343000
48.91967773,-95.15846000
48.95019531,-98.08178000
48.98071289,-99.60666000
49.01123047,-92.10710000
49.04174805,-88.35204000
49.07226563,-87.65080000
49.10278320,-89.63815000
49.13330078,-95.01319000
49.16381836,-104.94900000
49.19433594,-97.74521000
49.22485352,-94.99675000
49.25537109,-94.63635000
49.28588867,-93.55948000
49.31640625,-91.28256000
49.34692383,-89.19916000
49.37744141,-88.84299000
49.40795898,-91.17415000
49.43847656,-97.42710000
49.46899414,-104.04860000
49.49951172,-96.93683000
49.53002930,-94.00902000
49.56054688,-93.48655000
49.59106445,-93.87681000
49.62158203,-93.69901000
49.65209961,-92.09200000
49.68261719,-89.88133000
49.71313477,-89.12716000
49.74365234,-90.24886000
49.77416992,-92.68950000
49.80468750,-94.83835000
49.83520508,-95.70171000
49.86572266,-97.73166000
49.89624023,-101.33090000
49.92675781,-101.52890000
49.95727539,-95.15915000
49.98779297,-88.96531000
50.01831055,-85.43974000
