Frequency,Channel A
(MHz),(dBu)

0.00000000,-28.67933000
0.03051758,-29.09558000
0.06103516,-34.35979000
0.09155273,-43.13475000
0.12207031,-50.13094000
0.15258789,-52.52531000
0.18310547,-53.87085000
0.21362305,-56.04115000
0.24414063,-58.06711000
0.27465820,-60.57981000
0.30517578,-63.03123000
0.33569336,-59.48118000
0.36621094,-53.50829000
0.39672852,-49.48676000
0.42724609,-47.67672000
0.45776367,-47.97119000
0.48828125,-49.99273000
0.51879883,-51.11290000
0.54931641,-49.92301000
0.57983398,-52.62706000
0.61035156,-55.29312000
0.64086914,-42.79073000
0.67138672,-39.41968000
0.70190430,-40.33363000
0.73242188,-45.06021000
0.76293945,-53.87929000
0.79345703,-58.92224000
0.82397461,-59.28960000
0.85449219,-61.24630000
0.88500977,-62.24390000
0.91552734,-61.25668000
0.94604492,-60.15979000
0.97656250,-60.34650000
1.00708008,-60.74505000
1.03759766,-59.59797000
1.06811523,-58.92442000
1.09863281,-60.09258000
1.12915039,-62.28778000
1.15966797,-63.66199000
1.19018555,-63.66467000
1.22070313,-62.93372000
1.25122070,-61.99326000
1.28173828,-61.77690000
1.31225586,-62.73783000
1.34277344,-64.12272000
1.37329102,-64.69076000
1.40380859,-64.41304000
1.43432617,-64.22865000
1.46484375,-64.14351000
1.49536133,-63.29491000
1.52587891,-61.61749000
1.55639648,-60.03364000
1.58691406,-59.12170000
1.61743164,-58.77281000
1.64794922,-58.85562000
1.67846680,-59.74263000
1.70898438,-61.79362000
1.73950195,-64.58392000
1.77001953,-66.63216000
1.80053711,-66.67365000
1.83105469,-65.43518000
1.86157227,-64.43783000
1.89208984,-64.11759000
1.92260742,-63.96021000
1.95312500,-63.27316000
1.98364258,-62.21240000
2.01416016,-61.64133000
2.04467773,-62.08145000
2.07519531,-63.26286000
2.10571289,-64.12221000
2.13623047,-63.80632000
2.16674805,-63.31400000
2.19726563,-63.53482000
2.22778320,-64.07225000
2.25830078,-64.38848000
2.28881836,-64.48338000
2.31933594,-64.75462000
2.34985352,-65.63824000
2.38037109,-66.71712000
2.41088867,-66.80807000
2.44140625,-65.80759000
2.47192383,-64.67292000
2.50244141,-64.04887000
2.53295898,-64.00632000
2.56347656,-64.29398000
2.59399414,-64.89467000
2.62451172,-66.00247000
2.65502930,-67.34518000
2.68554688,-67.91548000
2.71606445,-67.25627000
2.74658203,-66.12602000
2.77709961,-64.97712000
2.80761719,-64.07963000
2.83813477,-63.85509000
2.86865234,-64.44209000
2.89916992,-65.24659000
2.92968750,-65.20013000
2.96020508,-64.14926000
2.99072266,-62.60436000
3.02124023,-61.07997000
3.05175781,-60.15153000
3.08227539,-60.13987000
3.11279297,-60.86456000
3.14331055,-61.71550000
3.17382813,-62.28186000
3.20434570,-62.65372000
3.23486328,-62.76485000
3.26538086,-62.44499000
3.29589844,-61.86113000
3.32641602,-61.25051000
3.35693359,-60.77969000
3.38745117,-60.60897000
3.41796875,-60.79568000
3.44848633,-61.26840000
3.47900391,-61.92403000
3.50952148,-62.58604000
3.54003906,-62.92036000
3.57055664,-62.62199000
3.60107422,-61.74364000
3.63159180,-60.83595000
3.66210938,-60.57585000
3.69262695,-61.30289000
3.72314453,-62.79046000
3.75366211,-64.00466000
3.78417969,-63.83436000
3.81469727,-62.87835000
3.84521484,-62.13001000
3.87573242,-61.72703000
3.90625000,-61.32228000
3.93676758,-60.74698000
3.96728516,-60.29517000
3.99780273,-60.22749000
4.02832031,-60.31627000
4.05883789,-60.24795000
4.08935547,-60.19967000
4.11987305,-60.18172000
4.15039063,-59.80389000
4.18090820,-59.30631000
4.21142578,-59.40551000
4.24194336,-60.36149000
4.27246094,-61.77288000
4.30297852,-62.74903000
4.33349609,-62.68235000
4.36401367,-61.84785000
4.39453125,-60.85000000
4.42504883,-60.06591000
4.45556641,-59.64862000
4.48608398,-59.78031000
4.51660156,-60.65180000
4.54711914,-62.09673000
4.57763672,-63.26065000
4.60815430,-63.42243000
4.63867188,-63.07673000
4.66918945,-62.77511000
4.69970703,-62.57558000
4.73022461,-62.49751000
4.76074219,-62.76796000
4.79125977,-63.64466000
4.82177734,-65.19350000
4.85229492,-67.11449000
4.88281250,-68.20895000
4.91333008,-67.18344000
4.94384766,-65.32080000
4.97436523,-63.93292000
5.00488281,-63.24181000
5.03540039,-63.21312000
5.06591797,-63.86470000
5.09643555,-65.30782000
5.12695313,-67.39245000
5.15747070,-68.70210000
5.18798828,-67.97779000
5.21850586,-66.81294000
5.24902344,-66.34760000
5.27954102,-66.68607000
5.31005859,-67.79311000
5.34057617,-69.80943000
5.37109375,-72.68388000
5.40161133,-75.51703000
5.43212891,-77.48644000
5.46264648,-79.62350000
5.49316406,-83.21609000
5.52368164,-80.51250000
5.55419922,-72.54474000
5.58471680,-67.19332000
5.61523438,-63.75266000
5.64575195,-61.67096000
5.67626953,-60.66271000
5.70678711,-60.60171000
5.73730469,-61.37227000
5.76782227,-62.41611000
5.79833984,-62.28370000
5.82885742,-60.68399000
5.85937500,-59.06663000
5.88989258,-58.15195000
5.92041016,-57.99010000
5.95092773,-58.44728000
5.98144531,-59.39466000
6.01196289,-60.78376000
6.04248047,-62.34207000
6.07299805,-62.86657000
6.10351563,-61.76617000
6.13403320,-60.45780000
6.16455078,-59.77720000
6.19506836,-59.81575000
6.22558594,-60.58311000
6.25610352,-62.20189000
6.28662109,-64.87005000
6.31713867,-68.65398000
6.34765625,-71.67882000
6.37817383,-69.81184000
6.40869141,-67.00917000
6.43920898,-65.45528000
6.46972656,-65.14292000
6.50024414,-65.96925000
6.53076172,-68.07738000
6.56127930,-72.13769000
6.59179688,-80.21675000
6.62231445,-81.12215000
6.65283203,-74.97870000
6.68334961,-72.52046000
6.71386719,-71.56514000
6.74438477,-71.43704000
6.77490234,-72.14465000
6.80541992,-73.83211000
6.83593750,-76.49249000
6.86645508,-79.82687000
6.89697266,-80.16349000
6.92749023,-75.43111000
6.95800781,-71.46849000
6.98852539,-69.40385000
7.01904297,-69.07367000
7.04956055,-70.13656000
7.08007813,-72.17679000
7.11059570,-74.79150000
7.14111328,-77.84975000
7.17163086,-80.43450000
7.20214844,-79.10880000
7.23266602,-76.41730000
7.26318359,-75.47042000
7.29370117,-76.98072000
7.32421875,-81.23230000
7.35473633,-87.98920000
7.38525391,-93.12125000
7.41577148,-90.75787000
7.44628906,-86.73317000
7.47680664,-83.45079000
7.50732422,-80.93309000
7.53784180,-79.22474000
7.56835938,-77.93767000
7.59887695,-76.66601000
7.62939453,-75.74393000
7.65991211,-75.82749000
7.69042969,-77.28404000
7.72094727,-80.14629000
7.75146484,-84.92420000
7.78198242,-97.00912000
7.81250000,-85.38613000
7.84301758,-78.89188000
7.87353516,-75.94016000
7.90405273,-74.65669000
7.93457031,-74.25862000
7.96508789,-74.80209000
7.99560547,-76.63878000
8.02612305,-78.79557000
8.05664063,-78.95944000
8.08715820,-78.16006000
8.11767578,-77.02124000
8.14819336,-75.25563000
8.17871094,-73.86366000
8.20922852,-73.90411000
8.23974609,-75.77241000
8.27026367,-79.33173000
8.30078125,-83.62341000
8.33129883,-85.53181000
8.36181641,-83.22945000
8.39233398,-80.51427000
8.42285156,-79.06564000
8.45336914,-79.05268000
8.48388672,-80.72654000
8.51440430,-85.06717000
8.54492188,-96.52594000
8.57543945,-86.70547000
8.60595703,-80.82409000
8.63647461,-78.41032000
8.66699219,-78.09178000
8.69750977,-79.75351000
8.72802734,-83.68301000
8.75854492,-91.06945000
8.78906250,-90.17514000
8.81958008,-83.19252000
8.85009766,-80.20729000
8.88061523,-79.53056000
8.91113281,-80.54414000
8.94165039,-82.86259000
8.97216797,-86.01879000
9.00268555,-89.37875000
9.03320313,-92.09808000
9.06372070,-92.26907000
9.09423828,-88.06377000
9.12475586,-84.06691000
9.15527344,-80.68896000
9.18579102,-77.79281000
9.21630859,-76.19794000
9.24682617,-76.20446000
9.27734375,-77.45222000
9.30786133,-79.12605000
9.33837891,-80.77725000
9.36889648,-83.34673000
9.39941406,-88.91351000
9.42993164,-102.05190000
9.46044922,-88.91952000
9.49096680,-83.59393000
9.52148438,-80.71648000
9.55200195,-79.35329000
9.58251953,-79.25343000
9.61303711,-80.12915000
9.64355469,-81.82256000
9.67407227,-84.67225000
9.70458984,-89.37721000
9.73510742,-93.68488000
9.76562500,-88.06032000
9.79614258,-82.45929000
9.82666016,-78.89456000
9.85717773,-77.00272000
9.88769531,-76.36517000
9.91821289,-76.59212000
9.94873047,-77.37881000
9.97924805,-78.59030000
10.00976563,-80.30032000
10.04028320,-81.80376000
10.07080078,-80.26531000
10.10131836,-77.18961000
10.13183594,-75.46234000
10.16235352,-75.85452000
10.19287109,-78.75964000
10.22338867,-83.49487000
10.25390625,-84.23309000
10.28442383,-82.77034000
10.31494141,-81.27103000
10.34545898,-78.58378000
10.37597656,-76.09042000
10.40649414,-75.01965000
10.43701172,-75.51836000
10.46752930,-77.40028000
10.49804688,-80.45574000
10.52856445,-84.28928000
10.55908203,-87.02757000
10.58959961,-87.52325000
10.62011719,-88.98210000
10.65063477,-90.67684000
10.68115234,-87.20386000
10.71166992,-83.44299000
10.74218750,-80.85434000
10.77270508,-79.28456000
10.80322266,-79.10996000
10.83374023,-81.08543000
10.86425781,-86.68396000
10.89477539,-90.74319000
10.92529297,-84.88753000
10.95581055,-83.00221000
10.98632813,-83.43475000
11.01684570,-85.65871000
11.04736328,-90.64909000
11.07788086,-89.87132000
11.10839844,-82.32425000
11.13891602,-78.57150000
11.16943359,-77.36710000
11.19995117,-77.61861000
11.23046875,-77.79769000
11.26098633,-77.99392000
11.29150391,-79.48892000
11.32202148,-81.12608000
11.35253906,-79.35532000
11.38305664,-76.15800000
11.41357422,-74.12755000
11.44409180,-73.66438000
11.47460938,-74.64388000
11.50512695,-76.51687000
11.53564453,-78.14473000
11.56616211,-79.66280000
11.59667969,-82.80513000
11.62719727,-90.14299000
11.65771484,-87.89529000
11.68823242,-79.66918000
11.71875000,-75.47679000
11.74926758,-73.31991000
11.77978516,-72.74290000
11.81030273,-73.69614000
11.84082031,-76.09863000
11.87133789,-79.75738000
11.90185547,-85.10078000
11.93237305,-93.78959000
11.96289063,-85.04037000
11.99340820,-79.00624000
12.02392578,-75.92131000
12.05444336,-74.29074000
12.08496094,-73.43471000
12.11547852,-73.22942000
12.14599609,-73.77117000
12.17651367,-74.78918000
12.20703125,-75.62123000
12.23754883,-76.46359000
12.26806641,-78.87235000
12.29858398,-85.70298000
12.32910156,-90.55146000
12.35961914,-85.63629000
12.39013672,-87.31644000
12.42065430,-89.81831000
12.45117188,-85.29019000
12.48168945,-80.58595000
12.51220703,-78.15049000
12.54272461,-77.54399000
12.57324219,-79.03777000
12.60375977,-85.62201000
12.63427734,-87.04980000
12.66479492,-76.67229000
12.69531250,-72.84689000
12.72583008,-71.51912000
12.75634766,-71.74577000
12.78686523,-72.81166000
12.81738281,-73.92594000
12.84790039,-74.96165000
12.87841797,-76.57294000
12.90893555,-79.36711000
12.93945313,-83.57590000
12.96997070,-89.63706000
13.00048828,-94.01668000
13.03100586,-88.08689000
13.06152344,-82.70122000
13.09204102,-78.61632000
13.12255859,-76.34647000
13.15307617,-75.69705000
13.18359375,-76.10899000
13.21411133,-77.31410000
13.24462891,-80.28917000
13.27514648,-87.74165000
13.30566406,-84.23827000
13.33618164,-77.46930000
13.36669922,-74.61710000
13.39721680,-74.01401000
13.42773438,-74.99622000
13.45825195,-78.95173000
13.48876953,-81.75188000
13.51928711,-70.90919000
13.54980469,-66.75333000
13.58032227,-66.37748000
13.61083984,-69.04280000
13.64135742,-73.43413000
13.67187500,-75.49249000
13.70239258,-76.93191000
13.73291016,-80.16528000
13.76342773,-85.24257000
13.79394531,-84.26833000
13.82446289,-78.81332000
13.85498047,-76.81683000
13.88549805,-77.61468000
13.91601563,-81.92390000
13.94653320,-84.08439000
13.97705078,-79.23342000
14.00756836,-77.61478000
14.03808594,-77.94698000
14.06860352,-79.27848000
14.09912109,-81.69872000
14.12963867,-85.66865000
14.16015625,-91.90400000
14.19067383,-102.53000000
14.22119141,-104.09740000
14.25170898,-88.80487000
14.28222656,-81.86151000
14.31274414,-79.80012000
14.34326172,-80.55157000
14.37377930,-81.12023000
14.40429688,-78.86974000
14.43481445,-76.02892000
14.46533203,-74.77039000
14.49584961,-74.94319000
14.52636719,-75.71764000
14.55688477,-76.78477000
14.58740234,-78.73421000
14.61791992,-82.53089000
14.64843750,-88.16665000
14.67895508,-92.32716000
14.70947266,-97.55400000
14.73999023,-94.69199000
14.77050781,-85.85014000
14.80102539,-82.17834000
14.83154297,-81.52568000
14.86206055,-84.38776000
14.89257813,-93.86662000
14.92309570,-95.16020000
14.95361328,-87.75537000
14.98413086,-84.60062000
15.01464844,-82.97578000
15.04516602,-82.66113000
15.07568359,-83.59512000
15.10620117,-84.71442000
15.13671875,-83.82638000
15.16723633,-80.78384000
15.19775391,-77.44226000
15.22827148,-75.49892000
15.25878906,-76.04556000
15.28930664,-79.17067000
15.31982422,-82.07838000
15.35034180,-81.72013000
15.38085938,-81.64735000
15.41137695,-83.49408000
15.44189453,-88.30411000
15.47241211,-102.83250000
15.50292969,-93.19678000
15.53344727,-86.77451000
15.56396484,-83.17791000
15.59448242,-81.65823000
15.62500000,-81.96135000
15.65551758,-83.38024000
15.68603516,-84.18617000
15.71655273,-84.60595000
15.74707031,-87.52017000
15.77758789,-97.36401000
15.80810547,-92.38016000
15.83862305,-84.50321000
15.86914063,-80.69293000
15.89965820,-78.86784000
15.93017578,-78.20831000
15.96069336,-77.86079000
15.99121094,-77.38395000
16.02172852,-77.11199000
16.05224609,-77.58350000
16.08276367,-78.94852000
16.11328125,-81.08229000
16.14379883,-84.10778000
16.17431641,-88.54395000
16.20483398,-93.27058000
16.23535156,-90.57175000
16.26586914,-85.70420000
16.29638672,-82.66029000
16.32690430,-82.09873000
16.35742188,-84.41685000
16.38793945,-90.39102000
16.41845703,-102.21210000
16.44897461,-99.71996000
16.47949219,-93.72377000
16.51000977,-91.20019000
16.54052734,-89.62699000
16.57104492,-87.66826000
16.60156250,-85.05776000
16.63208008,-82.81783000
16.66259766,-81.46893000
16.69311523,-80.86545000
16.72363281,-80.77762000
16.75415039,-80.99316000
16.78466797,-81.60084000
16.81518555,-83.05897000
16.84570313,-85.98702000
16.87622070,-89.74761000
16.90673828,-88.40962000
16.93725586,-85.21942000
16.96777344,-83.57300000
16.99829102,-83.37399000
17.02880859,-84.75053000
17.05932617,-88.07677000
17.08984375,-92.49282000
17.12036133,-94.68373000
17.15087891,-97.29217000
17.18139648,-101.15150000
17.21191406,-95.27885000
17.24243164,-90.40116000
17.27294922,-87.38692000
17.30346680,-85.34169000
17.33398438,-84.21135000
17.36450195,-84.19072000
17.39501953,-84.62952000
17.42553711,-84.43008000
17.45605469,-84.50446000
17.48657227,-86.00076000
17.51708984,-89.12522000
17.54760742,-93.55544000
17.57812500,-91.76097000
17.60864258,-88.77963000
17.63916016,-87.21541000
17.66967773,-84.13410000
17.70019531,-80.79146000
17.73071289,-79.85516000
17.76123047,-82.76801000
17.79174805,-92.00805000
17.82226563,-89.27307000
17.85278320,-86.60751000
17.88330078,-87.68668000
17.91381836,-90.28830000
17.94433594,-94.01150000
17.97485352,-96.91644000
18.00537109,-95.20538000
18.03588867,-93.43482000
18.06640625,-92.83982000
18.09692383,-92.96591000
18.12744141,-93.31996000
18.15795898,-93.89146000
18.18847656,-95.63666000
18.21899414,-97.43065000
18.24951172,-95.59178000
18.28002930,-92.02142000
18.31054688,-90.27541000
18.34106445,-90.80081000
18.37158203,-92.30679000
18.40209961,-92.82569000
18.43261719,-93.50610000
18.46313477,-94.34684000
18.49365234,-93.79913000
18.52416992,-93.97972000
18.55468750,-94.11940000
18.58520508,-93.43655000
18.61572266,-94.33865000
18.64624023,-96.12065000
18.67675781,-94.90367000
18.70727539,-93.08327000
18.73779297,-93.33881000
18.76831055,-96.79409000
18.79882813,-107.48890000
18.82934570,-104.79110000
18.85986328,-100.98220000
18.89038086,-102.37800000
18.92089844,-105.63800000
18.95141602,-103.58210000
18.98193359,-99.13017000
19.01245117,-97.49925000
19.04296875,-97.92106000
19.07348633,-99.34129000
19.10400391,-101.63350000
19.13452148,-106.36330000
19.16503906,-103.13570000
19.19555664,-98.52869000
19.22607422,-97.05673000
19.25659180,-97.01824000
19.28710938,-96.85787000
19.31762695,-96.74611000
19.34814453,-98.25746000
19.37866211,-102.45640000
19.40917969,-110.26820000
19.43969727,-115.33030000
19.47021484,-131.06490000
19.50073242,-105.04440000
19.53125000,-96.62968000
19.56176758,-93.27032000
19.59228516,-93.72704000
19.62280273,-98.38149000
19.65332031,-109.80960000
19.68383789,-124.62260000
19.71435547,-114.75030000
19.74487305,-114.74130000
19.77539063,-110.70990000
19.80590820,-98.91391000
19.83642578,-94.06628000
19.86694336,-92.28876000
19.89746094,-92.71686000
19.92797852,-94.98695000
19.95849609,-97.71083000
19.98901367,-98.97444000
20.01953125,-101.50110000
20.05004883,-104.86830000
20.08056641,-100.89260000
20.11108398,-94.89746000
20.14160156,-89.76196000
20.17211914,-87.16702000
20.20263672,-87.47943000
20.23315430,-91.24838000
20.26367188,-100.31140000
20.29418945,-103.49620000
20.32470703,-102.64000000
20.35522461,-103.43610000
20.38574219,-100.56930000
20.41625977,-92.28214000
20.44677734,-87.80878000
20.47729492,-87.10463000
20.50781250,-89.41663000
20.53833008,-93.21842000
20.56884766,-94.25218000
20.59936523,-91.19335000
20.62988281,-88.56674000
20.66040039,-88.78006000
20.69091797,-91.97902000
20.72143555,-92.71813000
20.75195313,-91.66703000
20.78247070,-94.11393000
20.81298828,-99.62804000
20.84350586,-101.67660000
20.87402344,-98.67294000
20.90454102,-95.77580000
20.93505859,-94.07645000
20.96557617,-93.44039000
20.99609375,-93.20390000
21.02661133,-92.65488000
21.05712891,-91.98277000
21.08764648,-92.11060000
21.11816406,-92.89433000
21.14868164,-93.36571000
21.17919922,-93.83876000
21.20971680,-94.56902000
21.24023438,-94.68184000
21.27075195,-93.33270000
21.30126953,-92.34253000
21.33178711,-92.55914000
21.36230469,-93.67889000
21.39282227,-95.49755000
21.42333984,-96.82695000
21.45385742,-95.19284000
21.48437500,-92.21627000
21.51489258,-90.72625000
21.54541016,-91.86543000
21.57592773,-95.35693000
21.60644531,-93.28643000
21.63696289,-89.80973000
21.66748047,-89.24366000
21.69799805,-91.49995000
21.72851563,-97.65512000
21.75903320,-106.77960000
21.78955078,-98.68768000
21.82006836,-99.34465000
21.85058594,-106.84440000
21.88110352,-95.79868000
21.91162109,-91.15131000
21.94213867,-89.23496000
21.97265625,-88.72293000
22.00317383,-88.79541000
22.03369141,-88.71606000
22.06420898,-89.24175000
22.09472656,-90.60573000
22.12524414,-91.00322000
22.15576172,-90.98120000
22.18627930,-92.03380000
22.21679688,-93.09967000
22.24731445,-92.83353000
22.27783203,-92.38033000
22.30834961,-93.45302000
22.33886719,-97.03815000
22.36938477,-101.65310000
22.39990234,-96.72766000
22.43041992,-95.08623000
22.46093750,-95.04556000
22.49145508,-92.36407000
22.52197266,-93.22935000
22.55249023,-102.55610000
22.58300781,-105.00000000
22.61352539,-103.05910000
22.64404297,-126.46850000
22.67456055,-103.56170000
22.70507813,-98.26790000
22.73559570,-95.40714000
22.76611328,-94.94770000
22.79663086,-98.66318000
22.82714844,-106.82290000
22.85766602,-96.73852000
22.88818359,-91.68700000
22.91870117,-89.13068000
22.94921875,-88.76604000
22.97973633,-89.45525000
23.01025391,-89.37767000
23.04077148,-89.25529000
23.07128906,-90.80722000
23.10180664,-95.36609000
23.13232422,-96.08546000
23.16284180,-90.76453000
23.19335938,-88.65244000
23.22387695,-88.88666000
23.25439453,-90.99390000
23.28491211,-95.20566000
23.31542969,-101.46560000
23.34594727,-97.59431000
23.37646484,-93.53103000
23.40698242,-93.07094000
23.43750000,-96.94175000
23.46801758,-96.77910000
23.49853516,-90.44543000
23.52905273,-88.63814000
23.55957031,-89.70503000
23.59008789,-92.21039000
23.62060547,-94.41917000
23.65112305,-95.39357000
23.68164063,-96.53725000
23.71215820,-99.46664000
23.74267578,-104.58020000
23.77319336,-113.66110000
23.80371094,-104.06860000
23.83422852,-98.84789000
23.86474609,-99.70979000
23.89526367,-102.19710000
23.92578125,-98.05927000
23.95629883,-97.03496000
23.98681641,-99.49423000
24.01733398,-103.95090000
24.04785156,-106.44730000
24.07836914,-103.98760000
24.10888672,-100.39100000
24.13940430,-98.56332000
24.16992188,-99.70582000
24.20043945,-104.41490000
24.23095703,-104.81150000
24.26147461,-104.18290000
24.29199219,-111.95690000
24.32250977,-103.64850000
24.35302734,-98.55635000
24.38354492,-96.88721000
24.41406250,-95.14996000
24.44458008,-92.25334000
24.47509766,-89.48508000
24.50561523,-87.78592000
24.53613281,-87.57483000
24.56665039,-89.13409000
24.59716797,-93.07815000
24.62768555,-97.02888000
24.65820313,-92.60144000
24.68872070,-89.77605000
24.71923828,-88.77960000
24.74975586,-89.03598000
24.78027344,-91.01299000
24.81079102,-92.96002000
24.84130859,-90.46266000
24.87182617,-89.16618000
24.90234375,-91.11068000
24.93286133,-96.15195000
24.96337891,-97.69440000
24.99389648,-95.76797000
25.02441406,-96.96759000
25.05493164,-98.71075000
25.08544922,-96.66405000
25.11596680,-96.72910000
25.14648438,-103.01340000
25.17700195,-112.29430000
25.20751953,-99.53061000
25.23803711,-93.25359000
25.26855469,-89.88443000
25.29907227,-89.36349000
25.32958984,-91.27682000
25.36010742,-94.95484000
25.39062500,-95.18066000
25.42114258,-92.52198000
25.45166016,-91.29488000
25.48217773,-89.70756000
25.51269531,-87.81981000
25.54321289,-87.46426000
25.57373047,-89.04352000
25.60424805,-91.39488000
25.63476563,-92.34138000
25.66528320,-93.04498000
25.69580078,-93.72995000
25.72631836,-92.05834000
25.75683594,-90.88065000
25.78735352,-92.33717000
25.81787109,-97.29103000
25.84838867,-98.95058000
25.87890625,-94.32806000
25.90942383,-92.63268000
25.93994141,-93.06596000
25.97045898,-94.79781000
26.00097656,-96.71680000
26.03149414,-97.94890000
26.06201172,-96.91242000
26.09252930,-95.08137000
26.12304688,-93.51090000
26.15356445,-92.62839000
26.18408203,-93.38974000
26.21459961,-95.58480000
26.24511719,-97.36649000
26.27563477,-102.82860000
26.30615234,-100.87670000
26.33666992,-90.58250000
26.36718750,-87.03973000
26.39770508,-86.32446000
26.42822266,-87.41565000
26.45874023,-90.24323000
26.48925781,-95.91361000
26.51977539,-100.06300000
26.55029297,-93.64240000
26.58081055,-91.37119000
26.61132813,-92.24431000
26.64184570,-95.44166000
26.67236328,-100.10050000
26.70288086,-106.23440000
26.73339844,-99.98158000
26.76391602,-94.11790000
26.79443359,-90.99852000
26.82495117,-90.04248000
26.85546875,-91.94493000
26.88598633,-97.79766000
26.91650391,-96.07741000
26.94702148,-93.04878000
26.97753906,-94.20280000
27.00805664,-97.52699000
27.03857422,-100.70780000
27.06909180,-107.61980000
27.09960938,-106.84390000
27.13012695,-96.78674000
27.16064453,-91.77482000
27.19116211,-88.81488000
27.22167969,-87.60262000
27.25219727,-88.09356000
27.28271484,-89.77110000
27.31323242,-91.03123000
27.34375000,-91.13915000
27.37426758,-91.03168000
27.40478516,-91.08458000
27.43530273,-91.75031000
27.46582031,-93.96811000
27.49633789,-99.57439000
27.52685547,-110.71510000
27.55737305,-97.17104000
27.58789063,-92.51167000
27.61840820,-91.82663000
27.64892578,-92.42542000
27.67944336,-90.63603000
27.70996094,-89.44635000
27.74047852,-91.00342000
27.77099609,-95.96783000
27.80151367,-102.74870000
27.83203125,-103.99990000
27.86254883,-98.83530000
27.89306641,-95.16384000
27.92358398,-93.05019000
27.95410156,-90.40871000
27.98461914,-88.48893000
28.01513672,-88.30008000
28.04565430,-89.99011000
28.07617188,-93.79913000
28.10668945,-101.71600000
28.13720703,-111.98340000
28.16772461,-101.62600000
28.19824219,-97.98827000
28.22875977,-94.33465000
28.25927734,-90.44128000
28.28979492,-86.98932000
28.32031250,-84.85509000
28.35083008,-84.45278000
28.38134766,-85.59373000
28.41186523,-87.27657000
28.44238281,-88.70898000
28.47290039,-90.59804000
28.50341797,-91.82552000
28.53393555,-90.39288000
28.56445313,-89.13144000
28.59497070,-88.75907000
28.62548828,-88.68990000
28.65600586,-89.43361000
28.68652344,-92.06207000
28.71704102,-95.87831000
28.74755859,-96.67886000
28.77807617,-97.02296000
28.80859375,-98.50974000
28.83911133,-98.09825000
28.86962891,-97.42174000
28.90014648,-100.74510000
28.93066406,-114.60200000
28.96118164,-96.12221000
28.99169922,-92.22673000
29.02221680,-92.92710000
29.05273438,-96.98793000
29.08325195,-93.83393000
29.11376953,-89.09128000
29.14428711,-86.80576000
29.17480469,-86.20081000
29.20532227,-87.01852000
29.23583984,-89.18400000
29.26635742,-92.56786000
29.29687500,-97.18507000
29.32739258,-104.55350000
29.35791016,-100.40390000
29.38842773,-94.55681000
29.41894531,-92.80217000
29.44946289,-93.39752000
29.47998047,-93.16393000
29.51049805,-91.66236000
29.54101563,-92.13506000
29.57153320,-95.94176000
29.60205078,-103.58280000
29.63256836,-105.78240000
29.66308594,-102.37640000
29.69360352,-96.17690000
29.72412109,-92.57315000
29.75463867,-91.18286000
29.78515625,-91.39324000
29.81567383,-93.49872000
29.84619141,-98.91016000
29.87670898,-116.99790000
29.90722656,-103.97090000
29.93774414,-98.03590000
29.96826172,-95.03681000
29.99877930,-92.89462000
30.02929688,-90.99867000
30.05981445,-89.37348000
30.09033203,-88.23541000
30.12084961,-88.41598000
30.15136719,-90.47102000
30.18188477,-92.80346000
30.21240234,-92.48306000
30.24291992,-91.79230000
30.27343750,-91.90088000
30.30395508,-92.72904000
30.33447266,-94.52216000
30.36499023,-98.65050000
30.39550781,-99.45019000
30.42602539,-94.41939000
30.45654297,-93.18550000
30.48706055,-94.25626000
30.51757813,-96.22287000
30.54809570,-97.95126000
30.57861328,-96.92296000
30.60913086,-94.25453000
30.63964844,-92.80515000
30.67016602,-93.20905000
30.70068359,-93.73664000
30.73120117,-91.79894000
30.76171875,-90.20728000
30.79223633,-91.24932000
30.82275391,-96.67560000
30.85327148,-106.69670000
30.88378906,-95.47265000
30.91430664,-93.16093000
30.94482422,-95.03880000
30.97534180,-102.03080000
31.00585938,-103.78470000
31.03637695,-95.98736000
31.06689453,-91.91845000
31.09741211,-89.31408000
31.12792969,-88.14154000
31.15844727,-88.61382000
31.18896484,-90.48844000
31.21948242,-92.59972000
31.25000000,-93.28496000
31.28051758,-92.77873000
31.31103516,-92.41533000
31.34155273,-92.97368000
31.37207031,-94.45625000
31.40258789,-95.96371000
31.43310547,-96.27002000
31.46362305,-96.14838000
31.49414063,-97.04970000
31.52465820,-98.79657000
31.55517578,-102.14420000
31.58569336,-108.05900000
31.61621094,-101.69970000
31.64672852,-94.61208000
31.67724609,-92.26505000
31.70776367,-95.04858000
31.73828125,-98.54508000
31.76879883,-90.19235000
31.79931641,-87.60132000
31.82983398,-88.80795000
31.86035156,-92.51570000
31.89086914,-93.57102000
31.92138672,-92.19845000
31.95190430,-91.61093000
31.98242188,-91.60572000
32.01293945,-92.29163000
32.04345703,-92.06399000
32.07397461,-90.52990000
32.10449219,-88.88251000
32.13500977,-87.84542000
32.16552734,-88.23949000
32.19604492,-89.79851000
32.22656250,-90.93240000
32.25708008,-91.51414000
32.28759766,-92.92506000
32.31811523,-95.24466000
32.34863281,-97.24236000
32.37915039,-98.29045000
32.40966797,-99.21325000
32.44018555,-101.36500000
32.47070313,-105.07380000
32.50122070,-101.40430000
32.53173828,-95.72892000
32.56225586,-94.82322000
32.59277344,-97.18030000
32.62329102,-94.46521000
32.65380859,-91.45998000
32.68432617,-91.20181000
32.71484375,-93.25073000
32.74536133,-98.75596000
32.77587891,-109.47160000
32.80639648,-99.10732000
32.83691406,-98.33332000
32.86743164,-106.53850000
32.89794922,-101.43330000
32.92846680,-96.38860000
32.95898438,-97.73589000
32.98950195,-98.16393000
33.02001953,-93.03040000
33.05053711,-91.21678000
33.08105469,-92.38283000
33.11157227,-95.24274000
33.14208984,-96.70497000
33.17260742,-95.38809000
33.20312500,-94.07800000
33.23364258,-94.65089000
33.26416016,-98.00790000
33.29467773,-96.86539000
33.32519531,-91.42661000
33.35571289,-88.96852000
33.38623047,-89.03741000
33.41674805,-91.17490000
33.44726563,-95.01876000
33.47778320,-100.07400000
33.50830078,-101.42760000
33.53881836,-103.43100000
33.56933594,-103.67540000
33.59985352,-91.66570000
33.63037109,-87.02709000
33.66088867,-85.55424000
33.69140625,-86.17942000
33.72192383,-88.69213000
33.75244141,-94.32578000
33.78295898,-104.43500000
33.81347656,-94.54518000
33.84399414,-92.08374000
33.87451172,-93.34678000
33.90502930,-96.45505000
33.93554688,-98.78336000
33.96606445,-100.02690000
33.99658203,-102.70370000
34.02709961,-113.14420000
34.05761719,-104.35540000
34.08813477,-96.33503000
34.11865234,-92.98468000
34.14916992,-92.68828000
34.17968750,-95.46446000
34.21020508,-96.89093000
34.24072266,-92.71646000
34.27124023,-90.77454000
34.30175781,-91.71190000
34.33227539,-96.18453000
34.36279297,-108.10180000
34.39331055,-104.24220000
34.42382813,-101.32620000
34.45434570,-99.54616000
34.48486328,-97.67546000
34.51538086,-97.09274000
34.54589844,-98.44328000
34.57641602,-98.80875000
34.60693359,-94.88033000
34.63745117,-93.05688000
34.66796875,-94.57899000
34.69848633,-97.50575000
34.72900391,-95.77224000
34.75952148,-94.60201000
34.79003906,-97.06196000
34.82055664,-105.60510000
34.85107422,-104.73170000
34.88159180,-101.08690000
34.91210938,-100.29080000
34.94262695,-99.19388000
34.97314453,-99.71259000
35.00366211,-103.01670000
35.03417969,-98.44749000
35.06469727,-94.04990000
35.09521484,-93.22826000
35.12573242,-94.90086000
35.15625000,-98.13426000
35.18676758,-101.23340000
35.21728516,-102.95720000
35.24780273,-105.32330000
35.27832031,-109.35680000
35.30883789,-105.32620000
35.33935547,-100.83980000
35.36987305,-99.77489000
35.40039063,-102.57930000
35.43090820,-106.93970000
35.46142578,-100.03390000
35.49194336,-94.57399000
35.52246094,-92.66229000
35.55297852,-93.75732000
35.58349609,-97.21236000
35.61401367,-100.43240000
35.64453125,-97.85568000
35.67504883,-95.05658000
35.70556641,-95.16979000
35.73608398,-98.58743000
35.76660156,-103.52360000
35.79711914,-102.35460000
35.82763672,-102.31000000
35.85815430,-106.51090000
35.88867188,-109.83040000
35.91918945,-104.72180000
35.94970703,-103.23520000
35.98022461,-103.56110000
36.01074219,-100.05950000
36.04125977,-96.62312000
36.07177734,-96.85014000
36.10229492,-100.54750000
36.13281250,-99.89049000
36.16333008,-96.35754000
36.19384766,-94.56198000
36.22436523,-93.72474000
36.25488281,-93.48331000
36.28540039,-93.45644000
36.31591797,-92.85088000
36.34643555,-91.86801000
36.37695313,-91.35840000
36.40747070,-91.18591000
36.43798828,-90.91056000
36.46850586,-90.66344000
36.49902344,-90.61562000
36.52954102,-90.97779000
36.56005859,-92.16756000
36.59057617,-94.36738000
36.62109375,-97.10638000
36.65161133,-100.19220000
36.68212891,-104.55610000
36.71264648,-112.71600000
36.74316406,-108.47390000
36.77368164,-100.54370000
36.80419922,-98.79669000
36.83471680,-103.57860000
36.86523438,-104.87660000
36.89575195,-95.63660000
36.92626953,-93.67286000
36.95678711,-96.23747000
36.98730469,-104.48040000
37.01782227,-101.63600000
37.04833984,-99.13177000
37.07885742,-98.95779000
37.10937500,-97.99896000
37.13989258,-98.17619000
37.17041016,-97.93083000
37.20092773,-97.70270000
37.23144531,-101.07230000
37.26196289,-101.34700000
37.29248047,-100.24780000
37.32299805,-101.45790000
37.35351563,-95.14114000
37.38403320,-93.52913000
37.41455078,-98.34938000
37.44506836,-108.63680000
37.47558594,-96.04924000
37.50610352,-94.73143000
37.53662109,-95.28740000
37.56713867,-92.08298000
37.59765625,-90.04456000
37.62817383,-91.24238000
37.65869141,-96.23299000
37.68920898,-101.89900000
37.71972656,-97.32227000
37.75024414,-95.80276000
37.78076172,-97.57751000
37.81127930,-102.93000000
37.84179688,-114.92140000
37.87231445,-120.86590000
37.90283203,-113.56430000
37.93334961,-108.41110000
37.96386719,-103.80860000
37.99438477,-100.89800000
38.02490234,-99.34986000
38.05541992,-99.30841000
38.08593750,-101.53310000
38.11645508,-98.90049000
38.14697266,-94.22061000
38.17749023,-94.06636000
38.20800781,-101.46260000
38.23852539,-101.15300000
38.26904297,-93.26234000
38.29956055,-91.37577000
38.33007813,-91.40691000
38.36059570,-92.08035000
38.39111328,-92.94441000
38.42163086,-94.50479000
38.45214844,-97.40735000
38.48266602,-98.29936000
38.51318359,-93.04207000
38.54370117,-89.58546000
38.57421875,-89.03049000
38.60473633,-90.96199000
38.63525391,-94.90314000
38.66577148,-100.23630000
38.69628906,-98.31062000
38.72680664,-92.27584000
38.75732422,-89.27215000
38.78784180,-89.29921000
38.81835938,-92.13779000
38.84887695,-96.64914000
38.87939453,-96.41106000
38.90991211,-92.80597000
38.94042969,-90.88477000
38.97094727,-91.26206000
39.00146484,-93.48459000
39.03198242,-95.68918000
39.06250000,-95.56433000
39.09301758,-92.58301000
39.12353516,-88.47180000
39.15405273,-86.11134000
39.18457031,-86.07603000
39.21508789,-88.26130000
39.24560547,-91.46947000
39.27612305,-92.50657000
39.30664063,-92.62267000
39.33715820,-93.48885000
39.36767578,-96.17997000
39.39819336,-104.87240000
39.42871094,-106.77950000
39.45922852,-100.68460000
39.48974609,-98.16214000
39.52026367,-97.09580000
39.55078125,-98.92175000
39.58129883,-102.51090000
39.61181641,-106.58030000
39.64233398,-93.64700000
39.67285156,-88.46058000
39.70336914,-86.03180000
39.73388672,-84.26086000
39.76440430,-83.13177000
39.79492188,-83.92963000
39.82543945,-88.09983000
39.85595703,-97.49477000
39.88647461,-100.46600000
39.91699219,-99.03534000
39.94750977,-96.39305000
39.97802734,-94.15211000
40.00854492,-93.23859000
40.03906250,-93.88126000
40.06958008,-96.28664000
40.10009766,-94.83920000
40.13061523,-89.32496000
40.16113281,-86.38653000
40.19165039,-85.85094000
40.22216797,-86.59932000
40.25268555,-87.08333000
40.28320313,-87.17204000
40.31372070,-87.58887000
40.34423828,-88.19091000
40.37475586,-89.25735000
40.40527344,-90.82095000
40.43579102,-92.22126000
40.46630859,-93.11280000
40.49682617,-92.83894000
40.52734375,-91.52877000
40.55786133,-88.41135000
40.58837891,-86.31194000
40.61889648,-87.30994000
40.64941406,-92.64581000
40.67993164,-101.49630000
40.71044922,-97.61217000
40.74096680,-96.06956000
40.77148438,-94.27231000
40.80200195,-90.08334000
40.83251953,-87.12566000
40.86303711,-86.29382000
40.89355469,-86.61128000
40.92407227,-86.84264000
40.95458984,-86.15356000
40.98510742,-85.22195000
41.01562500,-85.06361000
41.04614258,-85.53964000
41.07666016,-85.59953000
41.10717773,-85.05790000
41.13769531,-84.89578000
41.16821289,-85.50366000
41.19873047,-86.69432000
41.22924805,-88.70315000
41.25976563,-91.67171000
41.29028320,-92.49962000
41.32080078,-92.29755000
41.35131836,-96.79917000
41.38183594,-108.56590000
41.41235352,-97.04030000
41.44287109,-99.56990000
41.47338867,-94.56442000
41.50390625,-87.18304000
41.53442383,-84.24022000
41.56494141,-83.72451000
41.59545898,-84.55196000
41.62597656,-86.05500000
41.65649414,-88.62959000
41.68701172,-93.05035000
41.71752930,-94.96751000
41.74804688,-90.75005000
41.77856445,-85.59340000
41.80908203,-81.42638000
41.83959961,-79.28530000
41.87011719,-79.41676000
41.90063477,-81.48293000
41.93115234,-84.31773000
41.96166992,-86.47362000
41.99218750,-88.09592000
42.02270508,-90.38367000
42.05322266,-92.96970000
42.08374023,-94.81225000
42.11425781,-103.79550000
42.14477539,-92.24738000
42.17529297,-85.17834000
42.20581055,-83.07132000
42.23632813,-83.72264000
42.26684570,-85.34859000
42.29736328,-86.46161000
42.32788086,-86.62939000
42.35839844,-85.90211000
42.38891602,-86.15768000
42.41943359,-88.33781000
42.44995117,-90.17986000
42.48046875,-88.31546000
42.51098633,-86.97124000
42.54150391,-87.99869000
42.57202148,-91.13707000
42.60253906,-92.00372000
42.63305664,-91.47879000
42.66357422,-95.59404000
42.69409180,-122.01780000
42.72460938,-97.56408000
42.75512695,-95.83176000
42.78564453,-95.68420000
42.81616211,-90.72684000
42.84667969,-86.69402000
42.87719727,-85.56636000
42.90771484,-87.42196000
42.93823242,-92.13857000
42.96875000,-97.36866000
42.99926758,-94.80325000
43.02978516,-92.13968000
43.06030273,-95.05601000
43.09082031,-97.80425000
43.12133789,-91.13687000
43.15185547,-87.62883000
43.18237305,-85.73437000
43.21289063,-85.73784000
43.24340820,-87.42178000
43.27392578,-89.06381000
43.30444336,-89.63106000
43.33496094,-89.87511000
43.36547852,-92.50719000
43.39599609,-102.63690000
43.42651367,-103.16840000
43.45703125,-98.97736000
43.48754883,-96.45349000
43.51806641,-92.64435000
43.54858398,-91.10557000
43.57910156,-91.24597000
43.60961914,-90.62077000
43.64013672,-90.00126000
43.67065430,-90.88864000
43.70117188,-93.29002000
43.73168945,-99.09407000
43.76220703,-108.24100000
43.79272461,-92.73414000
43.82324219,-87.04469000
43.85375977,-84.62228000
43.88427734,-84.87622000
43.91479492,-87.51196000
43.94531250,-91.10936000
43.97583008,-90.74489000
44.00634766,-88.02865000
44.03686523,-87.46690000
44.06738281,-89.62742000
44.09790039,-94.70599000
44.12841797,-106.29460000
44.15893555,-94.63449000
44.18945313,-89.16982000
44.21997070,-88.15781000
44.25048828,-90.22218000
44.28100586,-92.71160000
44.31152344,-90.50632000
44.34204102,-87.44953000
44.37255859,-86.33778000
44.40307617,-87.22908000
44.43359375,-90.07436000
44.46411133,-96.39741000
44.49462891,-107.30180000
44.52514648,-94.38424000
44.55566406,-92.23749000
44.58618164,-94.42393000
44.61669922,-97.10709000
44.64721680,-93.69731000
44.67773438,-89.88961000
44.70825195,-88.58372000
44.73876953,-90.20076000
44.76928711,-94.89346000
44.79980469,-101.85920000
44.83032227,-98.74757000
44.86083984,-92.91162000
44.89135742,-89.91061000
44.92187500,-87.81511000
44.95239258,-86.28330000
44.98291016,-86.57433000
45.01342773,-89.13756000
45.04394531,-94.48271000
45.07446289,-118.25800000
45.10498047,-93.59817000
45.13549805,-87.38761000
45.16601563,-84.61341000
45.19653320,-84.02243000
45.22705078,-85.30299000
45.25756836,-87.82726000
45.28808594,-89.95306000
45.31860352,-90.18967000
45.34912109,-89.53790000
45.37963867,-90.60661000
45.41015625,-95.42772000
45.44067383,-99.89177000
45.47119141,-93.94299000
45.50170898,-90.78909000
45.53222656,-89.22131000
45.56274414,-89.12364000
45.59326172,-91.07742000
45.62377930,-94.21220000
45.65429688,-93.13457000
45.68481445,-90.74173000
45.71533203,-90.73646000
45.74584961,-93.10017000
45.77636719,-96.95779000
45.80688477,-102.14030000
45.83740234,-106.20090000
45.86791992,-103.33780000
45.89843750,-100.03370000
45.92895508,-98.70502000
45.95947266,-97.18106000
45.98999023,-94.61578000
46.02050781,-93.19321000
46.05102539,-95.08365000
46.08154297,-103.99450000
46.11206055,-104.78580000
46.14257813,-96.62729000
46.17309570,-93.28699000
46.20361328,-92.72262000
46.23413086,-94.96620000
46.26464844,-99.53270000
46.29516602,-102.14050000
46.32568359,-94.16825000
46.35620117,-90.68203000
46.38671875,-91.03137000
46.41723633,-94.44251000
46.44775391,-100.45210000
46.47827148,-104.12430000
46.50878906,-97.33337000
46.53930664,-93.67271000
46.56982422,-92.56310000
46.60034180,-93.35097000
46.63085938,-95.23958000
46.66137695,-94.32488000
46.69189453,-92.35958000
46.72241211,-93.53717000
46.75292969,-100.04700000
46.78344727,-104.56370000
46.81396484,-99.06935000
46.84448242,-98.43396000
46.87500000,-99.34412000
46.90551758,-100.11300000
46.93603516,-98.93823000
46.96655273,-101.25430000
46.99707031,-98.76679000
47.02758789,-93.59697000
47.05810547,-93.75542000
47.08862305,-97.69459000
47.11914063,-96.93657000
47.14965820,-93.23839000
47.18017578,-91.97852000
47.21069336,-93.00434000
47.24121094,-94.45083000
47.27172852,-96.60155000
47.30224609,-99.11732000
47.33276367,-96.70207000
47.36328125,-96.82585000
47.39379883,-99.76190000
47.42431641,-101.81810000
47.45483398,-104.65440000
47.48535156,-105.16750000
47.51586914,-99.52452000
47.54638672,-98.92654000
47.57690430,-108.48140000
47.60742188,-97.78589000
47.63793945,-91.79603000
47.66845703,-90.71107000
47.69897461,-92.45309000
47.72949219,-95.35628000
47.76000977,-97.14263000
47.79052734,-96.68077000
47.82104492,-93.78435000
47.85156250,-91.12763000
47.88208008,-90.26687000
47.91259766,-90.64376000
47.94311523,-89.81326000
47.97363281,-87.76994000
48.00415039,-87.08862000
48.03466797,-88.78658000
48.06518555,-92.68479000
48.09570313,-96.93083000
48.12622070,-102.27470000
48.15673828,-121.55490000
48.18725586,-106.88580000
48.21777344,-100.80970000
48.24829102,-97.78111000
48.27880859,-95.32599000
48.30932617,-92.65060000
48.33984375,-91.87789000
48.37036133,-95.44849000
48.40087891,-103.86930000
48.43139648,-94.65966000
48.46191406,-93.61474000
48.49243164,-96.42311000
48.52294922,-98.03671000
48.55346680,-98.38692000
48.58398438,-96.57191000
48.61450195,-93.09468000
48.64501953,-90.16660000
48.67553711,-88.68390000
48.70605469,-89.27615000
48.73657227,-91.91409000
48.76708984,-95.34079000
48.79760742,-97.85018000
48.82812500,-99.45869000
48.85864258,-97.36331000
48.88916016,-93.25519000
48.91967773,-92.51072000
48.95019531,-96.84577000
48.98071289,-115.01840000
49.01123047,-96.87700000
49.04174805,-95.27644000
49.07226563,-98.77029000
49.10278320,-101.14710000
49.13330078,-99.93668000
49.16381836,-102.96780000
49.19433594,-101.82530000
49.22485352,-100.19620000
49.25537109,-107.41320000
49.28588867,-100.76150000
49.31640625,-90.86584000
49.34692383,-86.53619000
49.37744141,-85.40884000
49.40795898,-86.99338000
49.43847656,-90.24084000
49.46899414,-91.67683000
49.49951172,-90.35364000
49.53002930,-89.45349000
49.56054688,-90.34280000
49.59106445,-92.17667000
49.62158203,-92.15411000
49.65209961,-89.91838000
49.68261719,-88.05873000
49.71313477,-88.05875000
49.74365234,-90.51124000
49.77416992,-95.68976000
49.80468750,-99.10023000
49.83520508,-97.62160000
49.86572266,-98.01331000
49.89624023,-98.71738000
49.92675781,-96.94546000
49.95727539,-92.71564000
49.98779297,-88.28938000
50.01831055,-85.67707000
