Frequency,Channel A
(MHz),(dBu)

0.00000000,-49.74044000
0.03051758,-50.72426000
0.06103516,-53.19236000
0.09155273,-52.73058000
0.12207031,-56.82249000
0.15258789,-66.37592000
0.18310547,-68.62357000
0.21362305,-74.31631000
0.24414063,-72.94218000
0.27465820,-67.75724000
0.30517578,-63.29720000
0.33569336,-61.09663000
0.36621094,-62.43555000
0.39672852,-59.41708000
0.42724609,-54.57536000
0.45776367,-53.43501000
0.48828125,-55.25608000
0.51879883,-59.49909000
0.54931641,-66.23967000
0.57983398,-66.76405000
0.61035156,-61.81427000
0.64086914,-58.34149000
0.67138672,-56.71592000
0.70190430,-57.74590000
0.73242188,-61.73599000
0.76293945,-68.17316000
0.79345703,-74.13542000
0.82397461,-78.99703000
0.85449219,-89.31120000
0.88500977,-83.82268000
0.91552734,-73.07433000
0.94604492,-68.17464000
0.97656250,-67.98402000
1.00708008,-71.25483000
1.03759766,-75.77342000
1.06811523,-75.52772000
1.09863281,-73.15177000
1.12915039,-73.91103000
1.15966797,-79.63064000
1.19018555,-77.96952000
1.22070313,-71.23367000
1.25122070,-69.10687000
1.28173828,-68.74232000
1.31225586,-65.85204000
1.34277344,-63.97026000
1.37329102,-65.12651000
1.40380859,-68.36172000
1.43432617,-68.56396000
1.46484375,-66.91402000
1.49536133,-66.94232000
1.52587891,-69.83880000
1.55639648,-76.53339000
1.58691406,-83.35188000
1.61743164,-76.72669000
1.64794922,-77.98223000
1.67846680,-83.70964000
1.70898438,-71.32338000
1.73950195,-70.26801000
1.77001953,-75.58569000
1.80053711,-74.44370000
1.83105469,-70.52002000
1.86157227,-73.40626000
1.89208984,-94.44847000
1.92260742,-75.51958000
1.95312500,-71.81554000
1.98364258,-69.99199000
2.01416016,-69.98939000
2.04467773,-71.17392000
2.07519531,-72.67829000
2.10571289,-76.17873000
2.13623047,-78.32277000
2.16674805,-76.05048000
2.19726563,-78.68957000
2.22778320,-80.62292000
2.25830078,-75.02460000
2.28881836,-75.81266000
2.31933594,-82.41298000
2.34985352,-81.63560000
2.38037109,-76.09595000
2.41088867,-75.73926000
2.44140625,-81.90195000
2.47192383,-85.81771000
2.50244141,-79.85677000
2.53295898,-81.29246000
2.56347656,-84.57233000
2.59399414,-79.58157000
2.62451172,-83.20466000
2.65502930,-82.48956000
2.68554688,-73.97249000
2.71606445,-74.64297000
2.74658203,-85.65269000
2.77709961,-78.63980000
2.80761719,-75.12219000
2.83813477,-76.74113000
2.86865234,-74.35622000
2.89916992,-70.17406000
2.92968750,-69.72682000
2.96020508,-71.86385000
2.99072266,-73.05885000
3.02124023,-73.69395000
3.05175781,-73.81158000
3.08227539,-74.18590000
3.11279297,-79.45504000
3.14331055,-91.55110000
3.17382813,-83.75027000
3.20434570,-78.13106000
3.23486328,-75.23755000
3.26538086,-78.81509000
3.29589844,-83.18417000
3.32641602,-80.47341000
3.35693359,-88.53964000
3.38745117,-84.61678000
3.41796875,-77.41273000
3.44848633,-76.90415000
3.47900391,-81.00968000
3.50952148,-87.33197000
3.54003906,-89.01814000
3.57055664,-80.76740000
3.60107422,-77.55776000
3.63159180,-75.21269000
3.66210938,-77.27403000
3.69262695,-88.10770000
3.72314453,-78.61829000
3.75366211,-72.72688000
3.78417969,-71.88026000
3.81469727,-75.92904000
3.84521484,-88.21783000
3.87573242,-81.41857000
3.90625000,-75.70467000
3.93676758,-78.24776000
3.96728516,-92.83553000
3.99780273,-83.40543000
4.02832031,-78.92140000
4.05883789,-75.98689000
4.08935547,-76.29420000
4.11987305,-77.62162000
4.15039063,-86.36667000
4.18090820,-84.61762000
4.21142578,-82.18544000
4.24194336,-79.55563000
4.27246094,-77.37415000
4.30297852,-77.14458000
4.33349609,-78.70708000
4.36401367,-86.62366000
4.39453125,-80.41858000
4.42504883,-86.11688000
4.45556641,-82.18285000
4.48608398,-77.45419000
4.51660156,-77.66926000
4.54711914,-80.35474000
4.57763672,-99.22769000
4.60815430,-80.94861000
4.63867188,-79.09592000
4.66918945,-77.52386000
4.69970703,-80.43422000
4.73022461,-89.99654000
4.76074219,-82.75047000
4.79125977,-77.13979000
4.82177734,-74.99226000
4.85229492,-81.96807000
4.88281250,-81.06976000
4.91333008,-74.16006000
4.94384766,-73.66261000
4.97436523,-77.55547000
5.00488281,-94.12450000
5.03540039,-88.74065000
5.06591797,-82.19872000
5.09643555,-76.77922000
5.12695313,-77.73119000
5.15747070,-82.16637000
5.18798828,-81.91676000
5.21850586,-79.57961000
5.24902344,-81.96613000
5.27954102,-94.52987000
5.31005859,-79.80002000
5.34057617,-80.25674000
5.37109375,-87.88662000
5.40161133,-86.44039000
5.43212891,-79.47755000
5.46264648,-79.25424000
5.49316406,-90.21548000
5.52368164,-79.01080000
5.55419922,-76.73379000
5.58471680,-80.60990000
5.61523438,-80.57461000
5.64575195,-77.02682000
5.67626953,-75.11259000
5.70678711,-77.08866000
5.73730469,-75.27030000
5.76782227,-73.79163000
5.79833984,-73.62469000
5.82885742,-73.79424000
5.85937500,-75.79963000
5.88989258,-71.55028000
5.92041016,-72.19140000
5.95092773,-74.84994000
5.98144531,-75.72679000
6.01196289,-78.78923000
6.04248047,-76.38836000
6.07299805,-76.35573000
6.10351563,-73.37234000
6.13403320,-75.11386000
6.16455078,-77.46034000
6.19506836,-78.17452000
6.22558594,-81.44639000
6.25610352,-79.63308000
6.28662109,-78.46287000
6.31713867,-77.28858000
6.34765625,-82.14520000
6.37817383,-78.36270000
6.40869141,-80.00884000
6.43920898,-99.46411000
6.46972656,-82.55212000
6.50024414,-79.39291000
6.53076172,-80.50227000
6.56127930,-91.04500000
6.59179688,-82.62297000
6.62231445,-85.33797000
6.65283203,-86.22280000
6.68334961,-83.00106000
6.71386719,-87.33504000
6.74438477,-85.90416000
6.77490234,-82.95683000
6.80541992,-84.27257000
6.83593750,-89.54672000
6.86645508,-87.46017000
6.89697266,-86.40211000
6.92749023,-89.34830000
6.95800781,-94.99680000
6.98852539,-105.67120000
7.01904297,-99.44296000
7.04956055,-88.22572000
7.08007813,-85.71957000
7.11059570,-88.83121000
7.14111328,-92.23309000
7.17163086,-91.28305000
7.20214844,-89.92740000
7.23266602,-88.79846000
7.26318359,-85.25273000
7.29370117,-84.63973000
7.32421875,-88.21913000
7.35473633,-89.53061000
7.38525391,-87.53398000
7.41577148,-86.27338000
7.44628906,-85.29031000
7.47680664,-84.92809000
7.50732422,-87.66725000
7.53784180,-95.05859000
7.56835938,-100.42670000
7.59887695,-100.22130000
7.62939453,-95.84062000
7.65991211,-103.19940000
7.69042969,-92.49618000
7.72094727,-89.54790000
7.75146484,-90.26563000
7.78198242,-95.88634000
7.81250000,-95.68050000
7.84301758,-109.38250000
7.87353516,-93.01522000
7.90405273,-92.09715000
7.93457031,-94.61510000
7.96508789,-90.48389000
7.99560547,-95.03955000
8.02612305,-98.91313000
8.05664063,-101.96070000
8.08715820,-95.33258000
8.11767578,-96.47993000
8.14819336,-93.36378000
8.17871094,-90.88749000
8.20922852,-93.66505000
8.23974609,-92.30273000
8.27026367,-88.73137000
8.30078125,-86.71976000
8.33129883,-88.56477000
8.36181641,-93.20341000
8.39233398,-98.95817000
8.42285156,-98.30993000
8.45336914,-91.24382000
8.48388672,-87.02918000
8.51440430,-85.61646000
8.54492188,-88.20749000
8.57543945,-94.06204000
8.60595703,-95.91647000
8.63647461,-94.84254000
8.66699219,-108.39200000
8.69750977,-86.21126000
8.72802734,-80.82249000
8.75854492,-80.18611000
8.78906250,-82.37433000
8.81958008,-85.31963000
8.85009766,-87.60191000
8.88061523,-91.91469000
8.91113281,-102.81640000
8.94165039,-94.91250000
8.97216797,-91.11687000
9.00268555,-89.84055000
9.03320313,-93.72156000
9.06372070,-92.37643000
9.09423828,-89.08944000
9.12475586,-89.02390000
9.15527344,-87.58044000
9.18579102,-85.29921000
9.21630859,-84.95749000
9.24682617,-87.31645000
9.27734375,-90.80325000
9.30786133,-90.08037000
9.33837891,-89.84586000
9.36889648,-94.55776000
9.39941406,-91.27963000
9.42993164,-87.00385000
9.46044922,-87.11189000
9.49096680,-90.37685000
9.52148438,-86.88053000
9.55200195,-84.03764000
9.58251953,-85.54786000
9.61303711,-88.79726000
9.64355469,-88.46089000
9.67407227,-85.98874000
9.70458984,-84.56720000
9.73510742,-84.60498000
9.76562500,-85.78403000
9.79614258,-89.37096000
9.82666016,-98.29700000
9.85717773,-89.45654000
9.88769531,-87.94000000
9.91821289,-89.97147000
9.94873047,-86.84029000
9.97924805,-84.72708000
10.00976563,-84.28051000
10.04028320,-84.05829000
10.07080078,-84.10595000
10.10131836,-85.18227000
10.13183594,-86.19579000
10.16235352,-86.65150000
10.19287109,-88.18726000
10.22338867,-88.44453000
10.25390625,-86.26172000
10.28442383,-85.94631000
10.31494141,-89.79138000
10.34545898,-87.38033000
10.37597656,-84.42432000
10.40649414,-85.38130000
10.43701172,-87.15224000
10.46752930,-86.07722000
10.49804688,-86.38249000
10.52856445,-91.45631000
10.55908203,-97.54320000
10.58959961,-99.69264000
10.62011719,-98.74892000
10.65063477,-86.70345000
10.68115234,-82.03036000
10.71166992,-80.48176000
10.74218750,-81.12434000
10.77270508,-83.90271000
10.80322266,-85.51836000
10.83374023,-84.24468000
10.86425781,-87.70976000
10.89477539,-88.83487000
10.92529297,-82.27902000
10.95581055,-80.58531000
10.98632813,-81.15337000
11.01684570,-83.80230000
11.04736328,-92.34576000
11.07788086,-94.72516000
11.10839844,-86.87888000
11.13891602,-83.72402000
11.16943359,-82.79985000
11.19995117,-82.42577000
11.23046875,-82.58279000
11.26098633,-83.86086000
11.29150391,-84.49905000
11.32202148,-85.38396000
11.35253906,-87.21033000
11.38305664,-88.52536000
11.41357422,-88.11842000
11.44409180,-89.46066000
11.47460938,-89.36491000
11.50512695,-84.93751000
11.53564453,-82.26378000
11.56616211,-83.62668000
11.59667969,-85.09159000
11.62719727,-80.04319000
11.65771484,-75.66931000
11.68823242,-74.11922000
11.71875000,-75.38290000
11.74926758,-79.10066000
11.77978516,-84.82845000
11.81030273,-93.53050000
11.84082031,-100.46000000
11.87133789,-89.28017000
11.90185547,-86.87904000
11.93237305,-87.82685000
11.96289063,-90.99889000
11.99340820,-98.08471000
12.02392578,-118.20330000
12.05444336,-98.86559000
12.08496094,-91.24996000
12.11547852,-85.77092000
12.14599609,-82.92641000
12.17651367,-82.28117000
12.20703125,-82.80877000
12.23754883,-83.81743000
12.26806641,-86.24658000
12.29858398,-91.14816000
12.32910156,-88.81614000
12.35961914,-87.50816000
12.39013672,-91.90979000
12.42065430,-97.02599000
12.45117188,-89.21983000
12.48168945,-82.81686000
12.51220703,-80.61800000
12.54272461,-81.20884000
12.57324219,-81.86652000
12.60375977,-79.47066000
12.63427734,-76.71870000
12.66479492,-75.35986000
12.69531250,-75.31533000
12.72583008,-76.71563000
12.75634766,-79.79459000
12.78686523,-81.11927000
12.81738281,-80.19421000
12.84790039,-81.36156000
12.87841797,-84.91645000
12.90893555,-91.37302000
12.93945313,-95.40648000
12.96997070,-86.43709000
13.00048828,-82.63359000
13.03100586,-83.33566000
13.06152344,-84.43053000
13.09204102,-82.42387000
13.12255859,-82.58057000
13.15307617,-86.51422000
13.18359375,-86.26422000
13.21411133,-83.22050000
13.24462891,-82.66750000
13.27514648,-82.11219000
13.30566406,-83.56605000
13.33618164,-84.22269000
13.36669922,-81.77380000
13.39721680,-81.13161000
13.42773438,-82.70171000
13.45825195,-82.00790000
13.48876953,-73.45892000
13.51928711,-67.65137000
13.54980469,-65.55261000
13.58032227,-66.33173000
13.61083984,-68.50173000
13.64135742,-69.84174000
13.67187500,-69.05842000
13.70239258,-68.13264000
13.73291016,-69.40805000
13.76342773,-73.77834000
13.79394531,-82.88107000
13.82446289,-97.08985000
13.85498047,-86.43844000
13.88549805,-86.92107000
13.91601563,-95.89568000
13.94653320,-96.21094000
13.97705078,-93.19859000
14.00756836,-94.72927000
14.03808594,-97.10900000
14.06860352,-97.23112000
14.09912109,-93.80759000
14.12963867,-88.74603000
14.16015625,-86.57123000
14.19067383,-86.06581000
14.22119141,-86.63033000
14.25170898,-89.01271000
14.28222656,-96.42658000
14.31274414,-96.82888000
14.34326172,-89.04639000
14.37377930,-87.51788000
14.40429688,-91.29813000
14.43481445,-91.48691000
14.46533203,-83.99347000
14.49584961,-82.91965000
14.52636719,-85.48812000
14.55688477,-90.57351000
14.58740234,-91.82446000
14.61791992,-86.99052000
14.64843750,-82.70752000
14.67895508,-79.26678000
14.70947266,-77.82071000
14.73999023,-79.60031000
14.77050781,-86.51312000
14.80102539,-94.19809000
14.83154297,-90.83650000
14.86206055,-92.10022000
14.89257813,-91.36226000
14.92309570,-90.72335000
14.95361328,-90.81671000
14.98413086,-88.37471000
15.01464844,-88.58635000
15.04516602,-90.23483000
15.07568359,-89.90579000
15.10620117,-93.26408000
15.13671875,-98.15517000
15.16723633,-92.09209000
15.19775391,-86.03485000
15.22827148,-84.65309000
15.25878906,-86.10304000
15.28930664,-86.06934000
15.31982422,-83.91010000
15.35034180,-82.82363000
15.38085938,-83.36974000
15.41137695,-85.46411000
15.44189453,-88.96046000
15.47241211,-93.53817000
15.50292969,-100.14750000
15.53344727,-87.46680000
15.56396484,-80.54669000
15.59448242,-78.20001000
15.62500000,-79.49454000
15.65551758,-83.12430000
15.68603516,-86.14171000
15.71655273,-89.39514000
15.74707031,-93.16316000
15.77758789,-99.15580000
15.80810547,-94.00446000
15.83862305,-92.22449000
15.86914063,-95.13619000
15.89965820,-92.38148000
15.93017578,-86.84991000
15.96069336,-87.25083000
15.99121094,-92.85594000
16.02172852,-104.47540000
16.05224609,-95.65610000
16.08276367,-89.54988000
16.11328125,-90.27348000
16.14379883,-92.89254000
16.17431641,-93.79729000
16.20483398,-93.61734000
16.23535156,-91.36491000
16.26586914,-85.39048000
16.29638672,-82.61900000
16.32690430,-82.41815000
16.35742188,-83.51491000
16.38793945,-85.92838000
16.41845703,-92.22012000
16.44897461,-108.13090000
16.47949219,-110.39740000
16.51000977,-91.85385000
16.54052734,-86.36499000
16.57104492,-85.87744000
16.60156250,-86.44896000
16.63208008,-86.27396000
16.66259766,-87.93039000
16.69311523,-92.89236000
16.72363281,-91.98109000
16.75415039,-88.90105000
16.78466797,-88.17892000
16.81518555,-91.06334000
16.84570313,-120.32680000
16.87622070,-91.36581000
16.90673828,-89.48409000
16.93725586,-92.32178000
16.96777344,-96.47632000
16.99829102,-102.27980000
17.02880859,-100.37350000
17.05932617,-92.21844000
17.08984375,-89.02032000
17.12036133,-90.07756000
17.15087891,-97.97934000
17.18139648,-93.14676000
17.21191406,-88.60478000
17.24243164,-88.15480000
17.27294922,-89.48550000
17.30346680,-92.45628000
17.33398438,-95.33720000
17.36450195,-97.94433000
17.39501953,-105.53470000
17.42553711,-99.15181000
17.45605469,-100.49220000
17.48657227,-98.92899000
17.51708984,-92.32490000
17.54760742,-92.02896000
17.57812500,-92.94608000
17.60864258,-93.50770000
17.63916016,-101.60370000
17.66967773,-92.61981000
17.70019531,-88.60941000
17.73071289,-93.66507000
17.76123047,-79.69064000
17.79174805,-73.71078000
17.82226563,-72.21503000
17.85278320,-74.17157000
17.88330078,-79.66180000
17.91381836,-88.47719000
17.94433594,-93.71440000
17.97485352,-94.95556000
18.00537109,-94.72923000
18.03588867,-99.79817000
18.06640625,-102.83930000
18.09692383,-100.89150000
18.12744141,-105.51940000
18.15795898,-104.67110000
18.18847656,-103.39470000
18.21899414,-107.75060000
18.24951172,-107.70630000
18.28002930,-104.86890000
18.31054688,-94.29504000
18.34106445,-92.81356000
18.37158203,-93.62604000
18.40209961,-93.01823000
18.43261719,-95.65273000
18.46313477,-102.43070000
18.49365234,-96.48544000
18.52416992,-96.62410000
18.55468750,-99.62231000
18.58520508,-98.51447000
18.61572266,-102.76310000
18.64624023,-99.71106000
18.67675781,-96.70455000
18.70727539,-95.30453000
18.73779297,-94.23000000
18.76831055,-94.89761000
18.79882813,-96.14445000
18.82934570,-92.21569000
18.85986328,-88.61065000
18.89038086,-87.98471000
18.92089844,-89.16856000
18.95141602,-90.45114000
18.98193359,-91.47017000
19.01245117,-93.25685000
19.04296875,-95.05212000
19.07348633,-96.33458000
19.10400391,-102.92510000
19.13452148,-103.57010000
19.16503906,-95.16415000
19.19555664,-93.66670000
19.22607422,-94.62759000
19.25659180,-96.37344000
19.28710938,-99.19311000
19.31762695,-114.19170000
19.34814453,-96.49537000
19.37866211,-90.70526000
19.40917969,-90.29033000
19.43969727,-94.34427000
19.47021484,-102.92640000
19.50073242,-97.58678000
19.53125000,-94.93558000
19.56176758,-96.94331000
19.59228516,-104.63530000
19.62280273,-94.14025000
19.65332031,-89.70778000
19.68383789,-88.30450000
19.71435547,-87.24738000
19.74487305,-86.17554000
19.77539063,-86.38935000
19.80590820,-89.05249000
19.83642578,-93.74778000
19.86694336,-93.10146000
19.89746094,-92.23347000
19.92797852,-95.44381000
19.95849609,-101.24840000
19.98901367,-104.59490000
20.01953125,-98.45993000
20.05004883,-92.21259000
20.08056641,-92.26685000
20.11108398,-96.30276000
20.14160156,-98.94722000
20.17211914,-93.85406000
20.20263672,-91.91609000
20.23315430,-95.68913000
20.26367188,-99.47055000
20.29418945,-96.59079000
20.32470703,-99.39706000
20.35522461,-96.32030000
20.38574219,-92.87788000
20.41625977,-90.78145000
20.44677734,-89.13724000
20.47729492,-88.42172000
20.50781250,-88.40282000
20.53833008,-90.48252000
20.56884766,-97.02489000
20.59936523,-108.54400000
20.62988281,-97.93452000
20.66040039,-94.64365000
20.69091797,-96.05302000
20.72143555,-99.07508000
20.75195313,-98.49753000
20.78247070,-97.75018000
20.81298828,-102.39120000
20.84350586,-105.09430000
20.87402344,-96.32059000
20.90454102,-96.80759000
20.93505859,-101.01270000
20.96557617,-103.59340000
20.99609375,-101.06220000
21.02661133,-97.33382000
21.05712891,-96.59967000
21.08764648,-100.65680000
21.11816406,-112.32140000
21.14868164,-111.75390000
21.17919922,-104.81140000
21.20971680,-102.21060000
21.24023438,-101.03180000
21.27075195,-104.56940000
21.30126953,-96.17812000
21.33178711,-94.73964000
21.36230469,-103.26070000
21.39282227,-95.12687000
21.42333984,-91.96484000
21.45385742,-94.18695000
21.48437500,-97.87876000
21.51489258,-100.10510000
21.54541016,-104.12770000
21.57592773,-100.54800000
21.60644531,-96.73331000
21.63696289,-97.07602000
21.66748047,-102.35300000
21.69799805,-97.95472000
21.72851563,-93.54285000
21.75903320,-93.97411000
21.78955078,-90.83629000
21.82006836,-89.58676000
21.85058594,-90.37070000
21.88110352,-90.61375000
21.91162109,-91.01830000
21.94213867,-91.33058000
21.97265625,-95.47766000
22.00317383,-110.76190000
22.03369141,-104.82880000
22.06420898,-97.43451000
22.09472656,-90.82628000
22.12524414,-92.47382000
22.15576172,-103.85810000
22.18627930,-95.86340000
22.21679688,-97.46707000
22.24731445,-100.65970000
22.27783203,-96.08968000
22.30834961,-92.54820000
22.33886719,-91.60455000
22.36938477,-92.47498000
22.39990234,-90.75638000
22.43041992,-89.07233000
22.46093750,-88.93803000
22.49145508,-89.42025000
22.52197266,-91.78542000
22.55249023,-94.84756000
22.58300781,-93.29422000
22.61352539,-92.38307000
22.64404297,-92.85880000
22.67456055,-92.49199000
22.70507813,-91.35278000
22.73559570,-90.32085000
22.76611328,-89.95584000
22.79663086,-91.61723000
22.82714844,-94.11392000
22.85766602,-94.13617000
22.88818359,-97.92599000
22.91870117,-98.14716000
22.94921875,-92.25475000
22.97973633,-91.38947000
23.01025391,-93.11852000
23.04077148,-94.76653000
23.07128906,-94.27084000
23.10180664,-93.24504000
23.13232422,-94.31454000
23.16284180,-101.07430000
23.19335938,-101.73540000
23.22387695,-93.80902000
23.25439453,-92.43531000
23.28491211,-94.30350000
23.31542969,-101.26420000
23.34594727,-100.65080000
23.37646484,-93.46839000
23.40698242,-94.82132000
23.43750000,-94.41808000
23.46801758,-90.75653000
23.49853516,-92.38205000
23.52905273,-97.40704000
23.55957031,-97.35908000
23.59008789,-99.52541000
23.62060547,-100.78040000
23.65112305,-94.33282000
23.68164063,-92.52525000
23.71215820,-92.79387000
23.74267578,-92.38057000
23.77319336,-91.65230000
23.80371094,-91.21316000
23.83422852,-91.46078000
23.86474609,-93.92253000
23.89526367,-98.07994000
23.92578125,-96.44019000
23.95629883,-96.07456000
23.98681641,-98.39899000
24.01733398,-100.34510000
24.04785156,-98.68828000
24.07836914,-94.37814000
24.10888672,-91.51225000
24.13940430,-91.89091000
24.16992188,-95.15675000
24.20043945,-96.46111000
24.23095703,-95.64637000
24.26147461,-93.23077000
24.29199219,-91.23080000
24.32250977,-93.30624000
24.35302734,-100.70850000
24.38354492,-103.29600000
24.41406250,-99.36996000
24.44458008,-95.69237000
24.47509766,-96.34985000
24.50561523,-97.20770000
24.53613281,-95.74875000
24.56665039,-100.04700000
24.59716797,-103.94100000
24.62768555,-94.82827000
24.65820313,-92.69543000
24.68872070,-91.69999000
24.71923828,-91.46188000
24.74975586,-92.44640000
24.78027344,-91.98308000
24.81079102,-90.86517000
24.84130859,-93.11664000
24.87182617,-103.68170000
24.90234375,-103.18760000
24.93286133,-104.94910000
24.96337891,-105.28210000
24.99389648,-97.15206000
25.02441406,-96.69129000
25.05493164,-96.37543000
25.08544922,-92.83076000
25.11596680,-90.21849000
25.14648438,-91.29101000
25.17700195,-97.29605000
25.20751953,-102.57130000
25.23803711,-103.19840000
25.26855469,-97.42202000
25.29907227,-93.14806000
25.32958984,-92.78226000
25.36010742,-94.77199000
25.39062500,-98.53726000
25.42114258,-105.74600000
25.45166016,-104.17980000
25.48217773,-100.88890000
25.51269531,-106.33350000
25.54321289,-104.77360000
25.57373047,-99.98028000
25.60424805,-106.75720000
25.63476563,-102.22050000
25.66528320,-97.41742000
25.69580078,-99.81030000
25.72631836,-103.93090000
25.75683594,-98.88228000
25.78735352,-96.53738000
25.81787109,-96.88318000
25.84838867,-93.30821000
25.87890625,-91.68285000
25.90942383,-94.67513000
25.93994141,-102.57710000
25.97045898,-102.14290000
26.00097656,-102.95300000
26.03149414,-100.73850000
26.06201172,-105.30450000
26.09252930,-98.34336000
26.12304688,-93.91945000
26.15356445,-96.07201000
26.18408203,-102.77050000
26.21459961,-103.75140000
26.24511719,-98.24009000
26.27563477,-97.08630000
26.30615234,-99.71732000
26.33666992,-95.60897000
26.36718750,-93.20991000
26.39770508,-95.12161000
26.42822266,-99.06151000
26.45874023,-94.17312000
26.48925781,-90.71228000
26.51977539,-91.18335000
26.55029297,-95.96104000
26.58081055,-101.74350000
26.61132813,-98.01941000
26.64184570,-94.29871000
26.67236328,-94.73955000
26.70288086,-102.12730000
26.73339844,-104.19550000
26.76391602,-107.16290000
26.79443359,-98.66456000
26.82495117,-96.98416000
26.85546875,-101.95460000
26.88598633,-109.13050000
26.91650391,-103.45590000
26.94702148,-97.17658000
26.97753906,-95.72470000
27.00805664,-98.09777000
27.03857422,-103.18440000
27.06909180,-105.05460000
27.09960938,-102.81320000
27.13012695,-99.05528000
27.16064453,-96.10844000
27.19116211,-94.61392000
27.22167969,-94.80411000
27.25219727,-96.12308000
27.28271484,-97.11373000
27.31323242,-95.63430000
27.34375000,-94.90651000
27.37426758,-96.69781000
27.40478516,-97.20356000
27.43530273,-95.46306000
27.46582031,-94.94556000
27.49633789,-96.30409000
27.52685547,-101.57040000
27.55737305,-108.19020000
27.58789063,-104.46400000
27.61840820,-108.10690000
27.64892578,-103.58580000
27.67944336,-99.63736000
27.70996094,-104.89200000
27.74047852,-105.54530000
27.77099609,-98.76299000
27.80151367,-100.63690000
27.83203125,-112.17030000
27.86254883,-104.26570000
27.89306641,-98.20573000
27.92358398,-95.25784000
27.95410156,-93.95851000
27.98461914,-92.91185000
28.01513672,-91.27659000
28.04565430,-91.13004000
28.07617188,-93.57312000
28.10668945,-98.52214000
28.13720703,-102.31440000
28.16772461,-98.38284000
28.19824219,-94.86021000
28.22875977,-93.30758000
28.25927734,-92.51585000
28.28979492,-91.29439000
28.32031250,-89.78262000
28.35083008,-89.57139000
28.38134766,-91.68214000
28.41186523,-95.86450000
28.44238281,-99.40468000
28.47290039,-101.42560000
28.50341797,-99.61884000
28.53393555,-95.24841000
28.56445313,-96.57436000
28.59497070,-92.19170000
28.62548828,-86.30385000
28.65600586,-84.48225000
28.68652344,-85.44923000
28.71704102,-88.51035000
28.74755859,-93.12466000
28.77807617,-96.49379000
28.80859375,-94.68201000
28.83911133,-91.91844000
28.86962891,-92.08948000
28.90014648,-97.74895000
28.93066406,-97.85251000
28.96118164,-91.42033000
28.99169922,-89.91501000
29.02221680,-91.28197000
29.05273438,-93.83911000
29.08325195,-94.39368000
29.11376953,-92.89642000
29.14428711,-91.46913000
29.17480469,-91.30931000
29.20532227,-92.39925000
29.23583984,-92.50024000
29.26635742,-90.94535000
29.29687500,-90.78094000
29.32739258,-92.99149000
29.35791016,-96.17722000
29.38842773,-98.64539000
29.41894531,-106.34390000
29.44946289,-104.09790000
29.47998047,-95.96389000
29.51049805,-94.73126000
29.54101563,-98.18723000
29.57153320,-102.36720000
29.60205078,-93.11172000
29.63256836,-88.57467000
29.66308594,-87.01458000
29.69360352,-87.74367000
29.72412109,-89.97591000
29.75463867,-91.66558000
29.78515625,-91.45883000
29.81567383,-91.05737000
29.84619141,-92.16012000
29.87670898,-94.68284000
29.90722656,-96.65658000
29.93774414,-95.53317000
29.96826172,-92.87853000
29.99877930,-91.78098000
30.02929688,-93.06239000
30.05981445,-96.83788000
30.09033203,-103.00590000
30.12084961,-106.22370000
30.15136719,-101.53430000
30.18188477,-97.04300000
30.21240234,-94.30196000
30.24291992,-93.63243000
30.27343750,-94.18089000
30.30395508,-94.84772000
30.33447266,-95.22200000
30.36499023,-93.02649000
30.39550781,-91.83620000
30.42602539,-94.18062000
30.45654297,-100.60610000
30.48706055,-98.64449000
30.51757813,-97.22063000
30.54809570,-101.83770000
30.57861328,-107.63290000
30.60913086,-99.82029000
30.63964844,-93.11527000
30.67016602,-88.61742000
30.70068359,-86.86101000
30.73120117,-87.94383000
30.76171875,-91.87296000
30.79223633,-99.17001000
30.82275391,-106.84500000
30.85327148,-100.73650000
30.88378906,-101.08980000
30.91430664,-107.19030000
30.94482422,-101.58620000
30.97534180,-94.98712000
31.00585938,-92.05105000
31.03637695,-92.19665000
31.06689453,-95.91052000
31.09741211,-97.05329000
31.12792969,-93.11444000
31.15844727,-93.63683000
31.18896484,-99.27530000
31.21948242,-105.51190000
31.25000000,-106.90920000
31.28051758,-103.26620000
31.31103516,-100.45180000
31.34155273,-95.38883000
31.37207031,-90.34578000
31.40258789,-88.92738000
31.43310547,-91.26686000
31.46362305,-98.10669000
31.49414063,-99.25986000
31.52465820,-97.58744000
31.55517578,-95.39235000
31.58569336,-91.30479000
31.61621094,-89.13711000
31.64672852,-87.91321000
31.67724609,-87.59690000
31.70776367,-88.73817000
31.73828125,-92.74490000
31.76879883,-100.72630000
31.79931641,-92.44887000
31.82983398,-90.49689000
31.86035156,-92.47517000
31.89086914,-96.87561000
31.92138672,-107.87980000
31.95190430,-99.70765000
31.98242188,-93.17550000
32.01293945,-91.36467000
32.04345703,-90.71679000
32.07397461,-90.28245000
32.10449219,-91.14851000
32.13500977,-94.62334000
32.16552734,-102.54790000
32.19604492,-113.84060000
32.22656250,-106.57180000
32.25708008,-101.13330000
32.28759766,-95.49354000
32.31811523,-92.61261000
32.34863281,-92.19955000
32.37915039,-92.95271000
32.40966797,-95.38040000
32.44018555,-110.13150000
32.47070313,-95.44711000
32.50122070,-91.46486000
32.53173828,-93.56311000
32.56225586,-103.33300000
32.59277344,-98.06151000
32.62329102,-93.36397000
32.65380859,-91.72861000
32.68432617,-90.96381000
32.71484375,-91.18752000
32.74536133,-93.35476000
32.77587891,-98.29780000
32.80639648,-103.26720000
32.83691406,-102.84540000
32.86743164,-100.79470000
32.89794922,-99.80521000
32.92846680,-100.18900000
32.95898438,-101.03840000
32.98950195,-104.84190000
33.02001953,-104.50020000
33.05053711,-94.82571000
33.08105469,-91.01947000
33.11157227,-90.93396000
33.14208984,-94.41165000
33.17260742,-102.10190000
33.20312500,-103.09150000
33.23364258,-100.53390000
33.26416016,-100.69300000
33.29467773,-100.81640000
33.32519531,-96.71066000
33.35571289,-93.57764000
33.38623047,-93.49809000
33.41674805,-96.79956000
33.44726563,-102.46150000
33.47778320,-104.94460000
33.50830078,-113.80630000
33.53881836,-106.64790000
33.56933594,-97.96248000
33.59985352,-93.37594000
33.63037109,-90.83688000
33.66088867,-89.89684000
33.69140625,-90.04800000
33.72192383,-91.04531000
33.75244141,-93.20567000
33.78295898,-95.78410000
33.81347656,-96.71574000
33.84399414,-97.96271000
33.87451172,-101.39580000
33.90502930,-103.71840000
33.93554688,-100.17710000
33.96606445,-97.15297000
33.99658203,-96.17329000
34.02709961,-97.15038000
34.05761719,-98.81287000
34.08813477,-99.44469000
34.11865234,-101.74700000
34.14916992,-108.19950000
34.17968750,-105.46380000
34.21020508,-99.76670000
34.24072266,-95.43041000
34.27124023,-93.79774000
34.30175781,-95.94456000
34.33227539,-103.13230000
34.36279297,-102.79570000
34.39331055,-100.83580000
34.42382813,-102.62610000
34.45434570,-104.93240000
34.48486328,-106.68560000
34.51538086,-111.39890000
34.54589844,-102.74830000
34.57641602,-98.48245000
34.60693359,-98.39341000
34.63745117,-98.29662000
34.66796875,-98.15964000
34.69848633,-98.34265000
34.72900391,-98.96552000
34.75952148,-101.54070000
34.79003906,-96.61337000
34.82055664,-92.77834000
34.85107422,-91.80892000
34.88159180,-92.27370000
34.91210938,-93.42699000
34.94262695,-95.10657000
34.97314453,-96.05576000
35.00366211,-96.70209000
35.03417969,-100.04750000
35.06469727,-106.86720000
35.09521484,-108.98620000
35.12573242,-99.13808000
35.15625000,-96.06513000
35.18676758,-98.90024000
35.21728516,-104.76120000
35.24780273,-96.90597000
35.27832031,-95.52182000
35.30883789,-98.18240000
35.33935547,-103.66440000
35.36987305,-108.74050000
35.40039063,-99.94858000
35.43090820,-96.11889000
35.46142578,-96.52824000
35.49194336,-102.29580000
35.52246094,-116.06190000
35.55297852,-103.07280000
35.58349609,-102.36080000
35.61401367,-106.26290000
35.64453125,-104.98510000
35.67504883,-99.27054000
35.70556641,-96.82899000
35.73608398,-95.68892000
35.76660156,-95.84535000
35.79711914,-97.82005000
35.82763672,-99.91229000
35.85815430,-97.87322000
35.88867188,-94.92880000
35.91918945,-93.74306000
35.94970703,-94.09738000
35.98022461,-95.35567000
36.01074219,-96.49491000
36.04125977,-96.46188000
36.07177734,-95.65883000
36.10229492,-95.69893000
36.13281250,-97.75924000
36.16333008,-101.81380000
36.19384766,-103.86750000
36.22436523,-99.64356000
36.25488281,-94.88528000
36.28540039,-92.75337000
36.31591797,-93.09898000
36.34643555,-95.33547000
36.37695313,-100.96180000
36.40747070,-108.79610000
36.43798828,-98.50500000
36.46850586,-96.13463000
36.49902344,-95.33006000
36.52954102,-92.72107000
36.56005859,-90.10361000
36.59057617,-89.32512000
36.62109375,-90.24138000
36.65161133,-91.65082000
36.68212891,-92.65669000
36.71264648,-95.16160000
36.74316406,-103.63430000
36.77368164,-97.04164000
36.80419922,-92.62264000
36.83471680,-92.91132000
36.86523438,-95.81187000
36.89575195,-99.92435000
36.92626953,-100.92710000
36.95678711,-96.61443000
36.98730469,-95.18037000
37.01782227,-95.34042000
37.04833984,-94.36961000
37.07885742,-92.43231000
37.10937500,-91.58337000
37.13989258,-92.81799000
37.17041016,-96.21860000
37.20092773,-100.49010000
37.23144531,-95.87045000
37.26196289,-91.56638000
37.29248047,-90.22792000
37.32299805,-90.83528000
37.35351563,-92.20163000
37.38403320,-93.76998000
37.41455078,-98.70065000
37.44506836,-108.08490000
37.47558594,-97.59963000
37.50610352,-98.14820000
37.53662109,-100.59940000
37.56713867,-94.62742000
37.59765625,-91.82231000
37.62817383,-92.22614000
37.65869141,-95.12353000
37.68920898,-98.64506000
37.71972656,-102.08950000
37.75024414,-118.40440000
37.78076172,-101.60040000
37.81127930,-95.45470000
37.84179688,-93.13547000
37.87231445,-93.14311000
37.90283203,-95.48819000
37.93334961,-99.59885000
37.96386719,-103.08520000
37.99438477,-112.30220000
38.02490234,-99.86609000
38.05541992,-92.65178000
38.08593750,-89.45092000
38.11645508,-89.00446000
38.14697266,-91.09267000
38.17749023,-94.95728000
38.20800781,-97.33046000
38.23852539,-95.43832000
38.26904297,-92.29171000
38.29956055,-90.55855000
38.33007813,-91.34225000
38.36059570,-94.60247000
38.39111328,-96.26038000
38.42163086,-95.08378000
38.45214844,-94.13357000
38.48266602,-92.82681000
38.51318359,-91.34025000
38.54370117,-90.03223000
38.57421875,-88.78259000
38.60473633,-87.99507000
38.63525391,-88.86786000
38.66577148,-93.08643000
38.69628906,-99.47575000
38.72680664,-96.92473000
38.75732422,-100.40480000
38.78784180,-113.52280000
38.81835938,-98.07498000
38.84887695,-95.02606000
38.87939453,-97.22176000
38.90991211,-99.45999000
38.94042969,-88.81425000
38.97094727,-84.91603000
39.00146484,-84.94747000
39.03198242,-88.70304000
39.06250000,-97.75847000
39.09301758,-97.65529000
39.12353516,-93.98391000
39.15405273,-93.50391000
39.18457031,-94.29966000
39.21508789,-96.66259000
39.24560547,-99.92323000
39.27612305,-95.12107000
39.30664063,-89.99335000
39.33715820,-88.68721000
39.36767578,-91.00432000
39.39819336,-94.85455000
39.42871094,-96.85966000
39.45922852,-103.17190000
39.48974609,-96.58513000
39.52026367,-92.27148000
39.55078125,-92.59448000
39.58129883,-94.44118000
39.61181641,-89.16193000
39.64233398,-84.68178000
39.67285156,-83.77007000
39.70336914,-86.64374000
39.73388672,-95.49790000
39.76440430,-95.86475000
39.79492188,-90.21745000
39.82543945,-88.78216000
39.85595703,-89.21578000
39.88647461,-91.30916000
39.91699219,-98.83106000
39.94750977,-94.58818000
39.97802734,-88.64748000
40.00854492,-90.27058000
40.03906250,-104.75190000
40.06958008,-93.73483000
40.10009766,-93.93871000
40.13061523,-106.02650000
40.16113281,-96.27536000
40.19165039,-95.34723000
40.22216797,-106.54880000
40.25268555,-93.21858000
40.28320313,-85.97952000
40.31372070,-83.32130000
40.34423828,-83.56037000
40.37475586,-86.18251000
40.40527344,-90.28023000
40.43579102,-93.72623000
40.46630859,-96.41884000
40.49682617,-96.54198000
40.52734375,-94.63403000
40.55786133,-96.63106000
40.58837891,-99.48746000
40.61889648,-85.32874000
40.64941406,-80.83961000
40.67993164,-80.56538000
40.71044922,-83.90796000
40.74096680,-90.52311000
40.77148438,-93.35406000
40.80200195,-93.19376000
40.83251953,-92.80522000
40.86303711,-90.97256000
40.89355469,-91.21095000
40.92407227,-98.18096000
40.95458984,-91.02663000
40.98510742,-85.03374000
41.01562500,-84.57173000
41.04614258,-87.96922000
41.07666016,-92.91530000
41.10717773,-93.45714000
41.13769531,-90.66656000
41.16821289,-90.13586000
41.19873047,-91.50958000
41.22924805,-92.12209000
41.25976563,-99.30652000
41.29028320,-92.88142000
41.32080078,-85.89596000
41.35131836,-85.52245000
41.38183594,-89.40002000
41.41235352,-94.47247000
41.44287109,-95.27206000
41.47338867,-97.00682000
41.50390625,-103.86000000
41.53442383,-96.42374000
41.56494141,-89.97707000
41.59545898,-85.08564000
41.62597656,-81.55979000
41.65649414,-80.20515000
41.68701172,-81.55141000
41.71752930,-86.65446000
41.74804688,-101.83160000
41.77856445,-95.12100000
41.80908203,-90.81895000
41.83959961,-88.99545000
41.87011719,-88.23961000
41.90063477,-88.59491000
41.93115234,-94.27010000
41.96166992,-93.35291000
41.99218750,-84.53777000
42.02270508,-82.86012000
42.05322266,-84.25716000
42.08374023,-85.98701000
42.11425781,-86.21423000
42.14477539,-86.87140000
42.17529297,-90.12386000
42.20581055,-91.39174000
42.23632813,-86.44644000
42.26684570,-82.27433000
42.29736328,-79.75865000
42.32788086,-78.96757000
42.35839844,-79.81249000
42.38891602,-82.31305000
42.41943359,-86.10886000
42.44995117,-89.39998000
42.48046875,-91.29334000
42.51098633,-92.40512000
42.54150391,-92.53440000
42.57202148,-91.50414000
42.60253906,-88.50610000
42.63305664,-85.29464000
42.66357422,-83.91450000
42.69409180,-85.21750000
42.72460938,-90.08186000
42.75512695,-93.57743000
42.78564453,-90.87310000
42.81616211,-92.26834000
42.84667969,-98.52158000
42.87719727,-96.28465000
42.90771484,-89.25508000
42.93823242,-85.49109000
42.96875000,-83.87405000
42.99926758,-83.47927000
43.02978516,-83.61055000
43.06030273,-84.46075000
43.09082031,-86.40759000
43.12133789,-89.49715000
43.15185547,-94.03993000
43.18237305,-99.52237000
43.21289063,-101.84010000
43.24340820,-100.18680000
43.27392578,-101.22170000
43.30444336,-102.97000000
43.33496094,-91.59024000
43.36547852,-87.72579000
43.39599609,-88.23569000
43.42651367,-92.71057000
43.45703125,-99.11850000
43.48754883,-95.64277000
43.51806641,-89.69678000
43.54858398,-87.57433000
43.57910156,-88.92583000
43.60961914,-92.05537000
43.64013672,-91.92043000
43.67065430,-89.02641000
43.70117188,-87.89112000
43.73168945,-88.64101000
43.76220703,-88.19391000
43.79272461,-87.62210000
43.82324219,-89.39937000
43.85375977,-91.53920000
43.88427734,-91.17906000
43.91479492,-93.04035000
43.94531250,-101.05460000
43.97583008,-101.73070000
44.00634766,-91.91048000
44.03686523,-87.73889000
44.06738281,-87.45930000
44.09790039,-91.46450000
44.12841797,-103.29860000
44.15893555,-91.50608000
44.18945313,-87.86090000
44.21997070,-88.96135000
44.25048828,-94.51373000
44.28100586,-95.31287000
44.31152344,-90.29086000
44.34204102,-87.57214000
44.37255859,-86.67838000
44.40307617,-88.53081000
44.43359375,-94.89071000
44.46411133,-99.77856000
44.49462891,-101.65190000
44.52514648,-101.35470000
44.55566406,-93.72245000
44.58618164,-92.74146000
44.61669922,-94.82475000
44.64721680,-98.03875000
44.67773438,-94.39127000
44.70825195,-91.98370000
44.73876953,-94.79546000
44.76928711,-101.74900000
44.79980469,-94.99725000
44.83032227,-89.71437000
44.86083984,-86.91914000
44.89135742,-86.86924000
44.92187500,-88.62173000
44.95239258,-90.89870000
44.98291016,-95.75946000
45.01342773,-94.80308000
45.04394531,-88.27259000
45.07446289,-85.92731000
45.10498047,-86.72863000
45.13549805,-90.36479000
45.16601563,-94.42013000
45.19653320,-94.21011000
45.22705078,-94.64063000
45.25756836,-96.91102000
45.28808594,-97.92851000
45.31860352,-95.92590000
45.34912109,-93.42178000
45.37963867,-92.36744000
45.41015625,-93.50300000
45.44067383,-96.45583000
45.47119141,-96.47963000
45.50170898,-93.08816000
45.53222656,-90.94898000
45.56274414,-90.35527000
45.59326172,-91.13866000
45.62377930,-93.37414000
45.65429688,-96.12420000
45.68481445,-96.11874000
45.71533203,-93.22227000
45.74584961,-91.59447000
45.77636719,-92.67960000
45.80688477,-95.19196000
45.83740234,-95.38771000
45.86791992,-94.37468000
45.89843750,-94.18334000
45.92895508,-94.77726000
45.95947266,-96.46323000
45.98999023,-98.52043000
46.02050781,-95.34177000
46.05102539,-92.19574000
46.08154297,-91.07553000
46.11206055,-91.32550000
46.14257813,-92.89712000
46.17309570,-96.04655000
46.20361328,-100.14450000
46.23413086,-107.53150000
46.26464844,-105.43320000
46.29516602,-96.77710000
46.32568359,-95.59128000
46.35620117,-97.89036000
46.38671875,-98.98822000
46.41723633,-96.70828000
46.44775391,-94.64156000
46.47827148,-93.71810000
46.50878906,-94.35421000
46.53930664,-97.38263000
46.56982422,-104.22360000
46.60034180,-97.30493000
46.63085938,-92.32558000
46.66137695,-91.46590000
46.69189453,-94.89342000
46.72241211,-110.29040000
46.75292969,-100.61640000
46.78344727,-96.58116000
46.81396484,-94.95749000
46.84448242,-93.08392000
46.87500000,-91.15538000
46.90551758,-90.19965000
46.93603516,-90.64317000
46.96655273,-92.01392000
46.99707031,-92.71366000
47.02758789,-91.41232000
47.05810547,-89.65901000
47.08862305,-89.10555000
47.11914063,-90.40855000
47.14965820,-93.45831000
47.18017578,-93.58341000
47.21069336,-91.15818000
47.24121094,-91.93317000
47.27172852,-97.54857000
47.30224609,-102.04400000
47.33276367,-98.12569000
47.36328125,-98.08934000
47.39379883,-98.25690000
47.42431641,-95.97321000
47.45483398,-94.26088000
47.48535156,-93.53989000
47.51586914,-93.39111000
47.54638672,-94.59624000
47.57690430,-94.05623000
47.60742188,-90.69981000
47.63793945,-89.55154000
47.66845703,-91.68207000
47.69897461,-95.73692000
47.72949219,-93.36831000
47.76000977,-92.19905000
47.79052734,-95.79895000
47.82104492,-107.12330000
47.85156250,-93.28781000
47.88208008,-87.70328000
47.91259766,-85.89192000
47.94311523,-87.10291000
47.97363281,-90.99880000
48.00415039,-95.53551000
48.03466797,-96.24243000
48.06518555,-95.44649000
48.09570313,-98.37946000
48.12622070,-111.56550000
48.15673828,-104.01120000
48.18725586,-100.72020000
48.21777344,-93.80983000
48.24829102,-90.39581000
48.27880859,-90.98871000
48.30932617,-95.31831000
48.33984375,-97.99549000
48.37036133,-92.55075000
48.40087891,-89.30002000
48.43139648,-88.71906000
48.46191406,-90.55019000
48.49243164,-95.52055000
48.52294922,-105.78170000
48.55346680,-93.37323000
48.58398438,-88.55332000
48.61450195,-87.53514000
48.64501953,-88.90868000
48.67553711,-90.87373000
48.70605469,-92.06002000
48.73657227,-92.43208000
48.76708984,-92.06753000
48.79760742,-92.22421000
48.82812500,-93.54092000
48.85864258,-94.85603000
48.88916016,-94.69844000
48.91967773,-93.98202000
48.95019531,-95.33028000
48.98071289,-103.04530000
49.01123047,-106.22340000
49.04174805,-100.66370000
49.07226563,-100.33540000
49.10278320,-100.27040000
49.13330078,-104.44700000
49.16381836,-100.84960000
49.19433594,-93.96626000
49.22485352,-90.05410000
49.25537109,-88.00044000
49.28588867,-87.90488000
49.31640625,-89.99216000
49.34692383,-94.14740000
49.37744141,-97.67531000
49.40795898,-97.10852000
49.43847656,-96.38519000
49.46899414,-97.09713000
49.49951172,-93.05901000
49.53002930,-87.24899000
49.56054688,-83.69785000
49.59106445,-82.42057000
49.62158203,-83.66977000
49.65209961,-87.75468000
49.68261719,-93.22867000
49.71313477,-94.11575000
49.74365234,-91.10327000
49.77416992,-89.24595000
49.80468750,-89.78616000
49.83520508,-91.98009000
49.86572266,-95.63591000
49.89624023,-102.27980000
49.92675781,-93.38909000
49.95727539,-89.03760000
49.98779297,-88.58956000
50.01831055,-90.69549000
