Frequency,Channel A
(MHz),(dBu)

0.00000000,-25.79718000
0.03051758,-26.14252000
0.06103516,-31.29046000
0.09155273,-41.20157000
0.12207031,-62.92273000
0.15258789,-66.61272000
0.18310547,-69.90373000
0.21362305,-65.08092000
0.24414063,-63.04758000
0.27465820,-63.42037000
0.30517578,-63.10561000
0.33569336,-62.55301000
0.36621094,-63.38058000
0.39672852,-65.64074000
0.42724609,-61.36995000
0.45776367,-58.35401000
0.48828125,-59.25764000
0.51879883,-63.30341000
0.54931641,-65.12679000
0.57983398,-63.97593000
0.61035156,-65.47961000
0.64086914,-64.94633000
0.67138672,-62.89836000
0.70190430,-65.52316000
0.73242188,-84.18637000
0.76293945,-69.70648000
0.79345703,-67.85279000
0.82397461,-69.73293000
0.85449219,-72.28162000
0.88500977,-84.88448000
0.91552734,-75.23096000
0.94604492,-72.69037000
0.97656250,-76.73234000
1.00708008,-80.44163000
1.03759766,-74.04369000
1.06811523,-70.61243000
1.09863281,-71.79128000
1.12915039,-76.88535000
1.15966797,-82.76508000
1.19018555,-80.53455000
1.22070313,-76.13065000
1.25122070,-73.36549000
1.28173828,-71.86317000
1.31225586,-73.03783000
1.34277344,-76.84315000
1.37329102,-74.11954000
1.40380859,-71.44756000
1.43432617,-71.77740000
1.46484375,-72.61250000
1.49536133,-72.51170000
1.52587891,-73.45271000
1.55639648,-74.62611000
1.58691406,-73.73022000
1.61743164,-71.95212000
1.64794922,-70.88799000
1.67846680,-70.09950000
1.70898438,-68.95415000
1.73950195,-67.59356000
1.77001953,-65.99368000
1.80053711,-65.77815000
1.83105469,-68.21517000
1.86157227,-74.29137000
1.89208984,-84.64614000
1.92260742,-85.42490000
1.95312500,-83.29614000
1.98364258,-81.36325000
2.01416016,-79.33266000
2.04467773,-79.10863000
2.07519531,-79.05470000
2.10571289,-77.73850000
2.13623047,-76.54837000
2.16674805,-75.82998000
2.19726563,-76.11647000
2.22778320,-78.56442000
2.25830078,-81.52972000
2.28881836,-85.85936000
2.31933594,-110.85270000
2.34985352,-87.04438000
2.38037109,-84.08474000
2.41088867,-82.76384000
2.44140625,-83.49889000
2.47192383,-92.57860000
2.50244141,-90.07402000
2.53295898,-86.84121000
2.56347656,-84.21856000
2.59399414,-76.68710000
2.62451172,-72.04420000
2.65502930,-69.23114000
2.68554688,-68.45439000
2.71606445,-70.00335000
2.74658203,-73.19789000
2.77709961,-76.80971000
2.80761719,-83.00427000
2.83813477,-96.61994000
2.86865234,-91.82678000
2.89916992,-90.01899000
2.92968750,-84.26744000
2.96020508,-81.21994000
2.99072266,-80.30925000
3.02124023,-83.46979000
3.05175781,-94.47537000
3.08227539,-101.72890000
3.11279297,-88.94146000
3.14331055,-82.82796000
3.17382813,-79.69710000
3.20434570,-76.27036000
3.23486328,-74.06579000
3.26538086,-73.97028000
3.29589844,-74.84193000
3.32641602,-75.84563000
3.35693359,-78.29115000
3.38745117,-83.33015000
3.41796875,-83.39469000
3.44848633,-82.83897000
3.47900391,-83.29372000
3.50952148,-80.14309000
3.54003906,-77.26070000
3.57055664,-74.25640000
3.60107422,-73.36784000
3.63159180,-76.44839000
3.66210938,-89.75579000
3.69262695,-81.37024000
3.72314453,-78.55864000
3.75366211,-79.13911000
3.78417969,-77.71340000
3.81469727,-75.08699000
3.84521484,-73.95255000
3.87573242,-73.22314000
3.90625000,-72.88266000
3.93676758,-75.47656000
3.96728516,-81.44162000
3.99780273,-77.96085000
4.02832031,-74.99379000
4.05883789,-74.76713000
4.08935547,-76.03416000
4.11987305,-80.22366000
4.15039063,-92.78893000
4.18090820,-82.71875000
4.21142578,-84.77962000
4.24194336,-87.61737000
4.27246094,-79.33539000
4.30297852,-77.88331000
4.33349609,-78.59564000
4.36401367,-79.69772000
4.39453125,-83.67366000
4.42504883,-101.34390000
4.45556641,-83.84553000
4.48608398,-78.19278000
4.51660156,-77.06031000
4.54711914,-79.20808000
4.57763672,-85.92720000
4.60815430,-89.49217000
4.63867188,-81.30872000
4.66918945,-78.03534000
4.69970703,-76.60062000
4.73022461,-76.99994000
4.76074219,-79.00850000
4.79125977,-78.72835000
4.82177734,-79.59757000
4.85229492,-87.89700000
4.88281250,-85.95511000
4.91333008,-79.15709000
4.94384766,-77.98878000
4.97436523,-79.91132000
5.00488281,-83.33192000
5.03540039,-79.30708000
5.06591797,-76.13919000
5.09643555,-76.53621000
5.12695313,-80.93611000
5.15747070,-83.46699000
5.18798828,-76.36101000
5.21850586,-73.89087000
5.24902344,-74.50301000
5.27954102,-74.69196000
5.31005859,-72.95313000
5.34057617,-72.98428000
5.37109375,-75.55871000
5.40161133,-79.14816000
5.43212891,-79.07741000
5.46264648,-76.95598000
5.49316406,-76.33778000
5.52368164,-77.67709000
5.55419922,-77.09129000
5.58471680,-73.90706000
5.61523438,-72.91241000
5.64575195,-75.45859000
5.67626953,-79.59573000
5.70678711,-77.56851000
5.73730469,-78.08122000
5.76782227,-84.15585000
5.79833984,-81.81624000
5.82885742,-75.61789000
5.85937500,-74.66721000
5.88989258,-78.19994000
5.92041016,-79.40661000
5.95092773,-74.77208000
5.98144531,-73.52748000
6.01196289,-75.83537000
6.04248047,-83.00304000
6.07299805,-87.04056000
6.10351563,-80.17909000
6.13403320,-79.55173000
6.16455078,-80.41798000
6.19506836,-75.63458000
6.22558594,-72.58229000
6.25610352,-72.77363000
6.28662109,-76.28278000
6.31713867,-81.74782000
6.34765625,-82.69851000
6.37817383,-84.59570000
6.40869141,-92.78030000
6.43920898,-84.73003000
6.46972656,-80.57831000
6.50024414,-80.48929000
6.53076172,-82.90592000
6.56127930,-86.35275000
6.59179688,-89.75885000
6.62231445,-98.08102000
6.65283203,-94.98997000
6.68334961,-91.17226000
6.71386719,-88.82536000
6.74438477,-86.11665000
6.77490234,-85.78351000
6.80541992,-85.78485000
6.83593750,-84.43389000
6.86645508,-84.68087000
6.89697266,-87.63329000
6.92749023,-86.38503000
6.95800781,-82.73935000
6.98852539,-83.51727000
7.01904297,-92.13406000
7.04956055,-86.65543000
7.08007813,-81.20637000
7.11059570,-80.17326000
7.14111328,-81.24606000
7.17163086,-82.82314000
7.20214844,-82.41364000
7.23266602,-81.50464000
7.26318359,-82.38522000
7.29370117,-86.27572000
7.32421875,-93.58513000
7.35473633,-83.50905000
7.38525391,-79.06283000
7.41577148,-76.61945000
7.44628906,-75.19769000
7.47680664,-75.02380000
7.50732422,-76.06705000
7.53784180,-78.41905000
7.56835938,-83.25166000
7.59887695,-94.26874000
7.62939453,-89.41337000
7.65991211,-87.01668000
7.69042969,-85.17005000
7.72094727,-81.99241000
7.75146484,-79.73313000
7.78198242,-78.50105000
7.81250000,-78.30576000
7.84301758,-79.24617000
7.87353516,-81.60904000
7.90405273,-86.91479000
7.93457031,-89.51506000
7.96508789,-83.05893000
7.99560547,-79.89308000
8.02612305,-78.67469000
8.05664063,-78.57416000
8.08715820,-78.81161000
8.11767578,-79.74709000
8.14819336,-81.89217000
8.17871094,-83.39096000
8.20922852,-84.69666000
8.23974609,-86.36738000
8.27026367,-81.69940000
8.30078125,-78.48093000
8.33129883,-77.87276000
8.36181641,-78.90216000
8.39233398,-80.67427000
8.42285156,-82.42216000
8.45336914,-84.12474000
8.48388672,-87.78615000
8.51440430,-89.67757000
8.54492188,-86.71989000
8.57543945,-87.62059000
8.60595703,-86.83714000
8.63647461,-83.25294000
8.66699219,-81.33743000
8.69750977,-81.19297000
8.72802734,-83.25264000
8.75854492,-88.53240000
8.78906250,-116.23020000
8.81958008,-89.24828000
8.85009766,-83.24048000
8.88061523,-80.06799000
8.91113281,-78.74367000
8.94165039,-79.08602000
8.97216797,-80.94375000
9.00268555,-83.40855000
9.03320313,-86.03024000
9.06372070,-92.79150000
9.09423828,-95.55595000
9.12475586,-89.02127000
9.15527344,-89.39212000
9.18579102,-95.58081000
9.21630859,-105.84790000
9.24682617,-100.88790000
9.27734375,-103.28310000
9.30786133,-94.40762000
9.33837891,-90.31480000
9.36889648,-89.03624000
9.39941406,-87.96474000
9.42993164,-87.51077000
9.46044922,-88.62319000
9.49096680,-90.16618000
9.52148438,-89.41036000
9.55200195,-86.38386000
9.58251953,-84.26807000
9.61303711,-85.13199000
9.64355469,-90.81541000
9.67407227,-91.53530000
9.70458984,-85.39403000
9.73510742,-83.61477000
9.76562500,-84.80440000
9.79614258,-88.17082000
9.82666016,-87.70331000
9.85717773,-85.34183000
9.88769531,-83.61093000
9.91821289,-82.90680000
9.94873047,-86.00017000
9.97924805,-102.03650000
10.00976563,-88.08440000
10.04028320,-84.20322000
10.07080078,-83.74847000
10.10131836,-83.07162000
10.13183594,-81.48857000
10.16235352,-81.32829000
10.19287109,-83.57513000
10.22338867,-88.01364000
10.25390625,-91.57333000
10.28442383,-90.30793000
10.31494141,-87.21878000
10.34545898,-86.37343000
10.37597656,-90.58709000
10.40649414,-102.35120000
10.43701172,-91.86017000
10.46752930,-91.11386000
10.49804688,-91.45751000
10.52856445,-87.93143000
10.55908203,-84.54030000
10.58959961,-84.73227000
10.62011719,-89.91862000
10.65063477,-100.53010000
10.68115234,-91.14566000
10.71166992,-91.06300000
10.74218750,-96.43228000
10.77270508,-99.37473000
10.80322266,-91.72560000
10.83374023,-87.95262000
10.86425781,-87.76875000
10.89477539,-90.56380000
10.92529297,-92.05863000
10.95581055,-87.42738000
10.98632813,-83.15441000
11.01684570,-80.63185000
11.04736328,-79.74621000
11.07788086,-79.72865000
11.10839844,-79.82431000
11.13891602,-81.54939000
11.16943359,-89.07292000
11.19995117,-94.57534000
11.23046875,-88.16072000
11.26098633,-94.35605000
11.29150391,-94.20300000
11.32202148,-86.38441000
11.35253906,-82.96130000
11.38305664,-80.79001000
11.41357422,-79.75771000
11.44409180,-80.43060000
11.47460938,-83.57272000
11.50512695,-84.39823000
11.53564453,-82.76196000
11.56616211,-85.03140000
11.59667969,-92.72762000
11.62719727,-95.98540000
11.65771484,-88.89641000
11.68823242,-84.38569000
11.71875000,-82.91721000
11.74926758,-87.21190000
11.77978516,-94.29251000
11.81030273,-82.19765000
11.84082031,-80.53964000
11.87133789,-81.05531000
11.90185547,-77.90643000
11.93237305,-75.27442000
11.96289063,-75.55012000
11.99340820,-79.61781000
12.02392578,-93.85433000
12.05444336,-88.12807000
12.08496094,-88.59296000
12.11547852,-96.05022000
12.14599609,-83.27674000
12.17651367,-81.35171000
12.20703125,-82.73024000
12.23754883,-85.12633000
12.26806641,-90.70055000
12.29858398,-90.62570000
12.32910156,-84.29308000
12.35961914,-82.47692000
12.39013672,-83.35811000
12.42065430,-87.31325000
12.45117188,-93.50618000
12.48168945,-91.05476000
12.51220703,-85.44324000
12.54272461,-83.51257000
12.57324219,-86.73367000
12.60375977,-95.33842000
12.63427734,-91.84101000
12.66479492,-89.01210000
12.69531250,-84.74747000
12.72583008,-83.10273000
12.75634766,-84.17255000
12.78686523,-85.04422000
12.81738281,-83.89382000
12.84790039,-81.84488000
12.87841797,-81.08596000
12.90893555,-82.55111000
12.93945313,-83.54104000
12.96997070,-82.54184000
13.00048828,-83.06785000
13.03100586,-84.99984000
13.06152344,-82.47052000
13.09204102,-80.16486000
13.12255859,-81.46806000
13.15307617,-84.71751000
13.18359375,-86.77887000
13.21411133,-88.79501000
13.24462891,-83.67287000
13.27514648,-80.33573000
13.30566406,-79.18259000
13.33618164,-79.85316000
13.36669922,-81.14465000
13.39721680,-80.66197000
13.42773438,-79.66584000
13.45825195,-84.07625000
13.48876953,-79.69346000
13.51928711,-69.28084000
13.54980469,-65.63407000
13.58032227,-65.74037000
13.61083984,-68.82419000
13.64135742,-72.62427000
13.67187500,-73.44160000
13.70239258,-73.55357000
13.73291016,-73.61736000
13.76342773,-73.61906000
13.79394531,-73.63250000
13.82446289,-74.45422000
13.85498047,-77.26182000
13.88549805,-81.65543000
13.91601563,-84.42897000
13.94653320,-86.10558000
13.97705078,-87.11659000
14.00756836,-86.50466000
14.03808594,-85.10093000
14.06860352,-83.27323000
14.09912109,-82.29977000
14.12963867,-83.92767000
14.16015625,-90.83051000
14.19067383,-99.90864000
14.22119141,-98.10088000
14.25170898,-93.88452000
14.28222656,-87.08027000
14.31274414,-88.93500000
14.34326172,-87.38702000
14.37377930,-81.02693000
14.40429688,-79.09204000
14.43481445,-79.93796000
14.46533203,-83.12415000
14.49584961,-88.96247000
14.52636719,-95.23838000
14.55688477,-105.71020000
14.58740234,-88.85194000
14.61791992,-80.28847000
14.64843750,-76.98590000
14.67895508,-76.75468000
14.70947266,-79.00302000
14.73999023,-83.29811000
14.77050781,-84.58719000
14.80102539,-80.16527000
14.83154297,-77.92874000
14.86206055,-78.58356000
14.89257813,-79.68253000
14.92309570,-78.03082000
14.95361328,-77.18291000
14.98413086,-79.32655000
15.01464844,-87.69766000
15.04516602,-91.28233000
15.07568359,-84.59461000
15.10620117,-86.59013000
15.13671875,-92.55029000
15.16723633,-86.24986000
15.19775391,-81.18231000
15.22827148,-79.75913000
15.25878906,-82.25177000
15.28930664,-93.94878000
15.31982422,-88.62483000
15.35034180,-83.94164000
15.38085938,-85.57777000
15.41137695,-94.45303000
15.44189453,-85.68313000
15.47241211,-81.76376000
15.50292969,-83.33432000
15.53344727,-91.42815000
15.56396484,-87.90323000
15.59448242,-85.93839000
15.62500000,-90.42632000
15.65551758,-88.91972000
15.68603516,-84.93555000
15.71655273,-82.50816000
15.74707031,-81.43493000
15.77758789,-82.43787000
15.80810547,-84.91306000
15.83862305,-86.74384000
15.86914063,-86.86639000
15.89965820,-87.34433000
15.93017578,-89.47069000
15.96069336,-92.22485000
15.99121094,-93.40697000
16.02172852,-90.39450000
16.05224609,-85.87206000
16.08276367,-83.85560000
16.11328125,-83.59485000
16.14379883,-84.55711000
16.17431641,-87.24590000
16.20483398,-91.86036000
16.23535156,-93.08328000
16.26586914,-91.66184000
16.29638672,-93.64877000
16.32690430,-95.76143000
16.35742188,-95.21019000
16.38793945,-95.38718000
16.41845703,-94.57099000
16.44897461,-95.26970000
16.47949219,-104.12140000
16.51000977,-96.26557000
16.54052734,-90.08828000
16.57104492,-88.70896000
16.60156250,-92.32816000
16.63208008,-97.96785000
16.66259766,-89.54251000
16.69311523,-88.49761000
16.72363281,-91.41083000
16.75415039,-92.23143000
16.78466797,-90.60462000
16.81518555,-91.26955000
16.84570313,-91.57199000
16.87622070,-89.43872000
16.90673828,-87.38194000
16.93725586,-86.75202000
16.96777344,-87.37260000
16.99829102,-88.60434000
17.02880859,-89.68196000
17.05932617,-90.34055000
17.08984375,-92.80529000
17.12036133,-96.01959000
17.15087891,-92.38575000
17.18139648,-89.07299000
17.21191406,-87.31981000
17.24243164,-86.65866000
17.27294922,-86.21410000
17.30346680,-85.70204000
17.33398438,-86.38912000
17.36450195,-88.47539000
17.39501953,-89.66092000
17.42553711,-89.60214000
17.45605469,-89.76486000
17.48657227,-89.19450000
17.51708984,-88.62251000
17.54760742,-89.30808000
17.57812500,-91.90620000
17.60864258,-95.39842000
17.63916016,-94.02523000
17.66967773,-85.29847000
17.70019531,-80.29848000
17.73071289,-79.42834000
17.76123047,-80.88847000
17.79174805,-78.54216000
17.82226563,-76.62868000
17.85278320,-78.12392000
17.88330078,-83.04755000
17.91381836,-89.60675000
17.94433594,-90.92311000
17.97485352,-88.91725000
18.00537109,-87.44041000
18.03588867,-88.95413000
18.06640625,-93.29498000
18.09692383,-93.88732000
18.12744141,-92.69016000
18.15795898,-92.49634000
18.18847656,-93.50969000
18.21899414,-97.60410000
18.24951172,-104.58520000
18.28002930,-99.08883000
18.31054688,-98.43446000
18.34106445,-97.20073000
18.37158203,-91.98485000
18.40209961,-89.44141000
18.43261719,-89.82321000
18.46313477,-93.04785000
18.49365234,-99.90467000
18.52416992,-112.31620000
18.55468750,-103.85710000
18.58520508,-99.01031000
18.61572266,-97.95241000
18.64624023,-98.52251000
18.67675781,-97.80152000
18.70727539,-97.98492000
18.73779297,-97.99780000
18.76831055,-96.56373000
18.79882813,-96.18115000
18.82934570,-95.87047000
18.85986328,-95.26736000
18.89038086,-95.23182000
18.92089844,-94.54956000
18.95141602,-93.34473000
18.98193359,-93.18221000
19.01245117,-94.37028000
19.04296875,-98.89802000
19.07348633,-106.99110000
19.10400391,-97.09369000
19.13452148,-94.59591000
19.16503906,-94.63139000
19.19555664,-95.44504000
19.22607422,-96.15021000
19.25659180,-94.24142000
19.28710938,-91.47299000
19.31762695,-91.35178000
19.34814453,-95.27589000
19.37866211,-104.64890000
19.40917969,-102.38260000
19.43969727,-104.14220000
19.47021484,-103.50260000
19.50073242,-100.29240000
19.53125000,-103.52720000
19.56176758,-94.95877000
19.59228516,-91.35227000
19.62280273,-93.58771000
19.65332031,-102.50620000
19.68383789,-100.96030000
19.71435547,-101.35170000
19.74487305,-96.92056000
19.77539063,-92.74665000
19.80590820,-90.86623000
19.83642578,-91.20273000
19.86694336,-95.28000000
19.89746094,-106.50540000
19.92797852,-104.30210000
19.95849609,-94.98763000
19.98901367,-91.44692000
20.01953125,-92.07103000
20.05004883,-95.84081000
20.08056641,-100.61120000
20.11108398,-101.95850000
20.14160156,-99.32852000
20.17211914,-96.65857000
20.20263672,-94.84837000
20.23315430,-93.09779000
20.26367188,-91.09784000
20.29418945,-89.42505000
20.32470703,-88.98926000
20.35522461,-90.36923000
20.38574219,-94.29025000
20.41625977,-99.86633000
20.44677734,-94.47845000
20.47729492,-90.97027000
20.50781250,-90.00249000
20.53833008,-90.13541000
20.56884766,-91.02075000
20.59936523,-92.32515000
20.62988281,-92.48096000
20.66040039,-91.18691000
20.69091797,-90.93193000
20.72143555,-93.27056000
20.75195313,-99.97506000
20.78247070,-110.74150000
20.81298828,-97.15117000
20.84350586,-95.26968000
20.87402344,-100.01830000
20.90454102,-109.69190000
20.93505859,-101.12480000
20.96557617,-95.98019000
20.99609375,-93.81080000
21.02661133,-96.38352000
21.05712891,-103.25000000
21.08764648,-101.96250000
21.11816406,-103.49590000
21.14868164,-117.00870000
21.17919922,-97.78542000
21.20971680,-92.86034000
21.24023438,-92.06174000
21.27075195,-95.07626000
21.30126953,-103.85870000
21.33178711,-123.90880000
21.36230469,-113.92710000
21.39282227,-107.69640000
21.42333984,-111.95710000
21.45385742,-98.85083000
21.48437500,-94.50100000
21.51489258,-95.33130000
21.54541016,-104.20170000
21.57592773,-97.39970000
21.60644531,-91.34282000
21.63696289,-90.55901000
21.66748047,-93.22107000
21.69799805,-97.52177000
21.72851563,-99.15531000
21.75903320,-96.57760000
21.78955078,-92.76704000
21.82006836,-90.64137000
21.85058594,-90.75123000
21.88110352,-94.12415000
21.91162109,-102.80850000
21.94213867,-102.00170000
21.97265625,-99.85928000
22.00317383,-103.82510000
22.03369141,-106.92310000
22.06420898,-97.23428000
22.09472656,-93.15974000
22.12524414,-92.06803000
22.15576172,-93.20146000
22.18627930,-95.94435000
22.21679688,-101.47630000
22.24731445,-112.46230000
22.27783203,-98.79918000
22.30834961,-93.94740000
22.33886719,-91.72156000
22.36938477,-91.34805000
22.39990234,-92.63457000
22.43041992,-95.54119000
22.46093750,-99.39917000
22.49145508,-103.44090000
22.52197266,-113.69610000
22.55249023,-96.39489000
22.58300781,-91.92558000
22.61352539,-90.80954000
22.64404297,-91.11157000
22.67456055,-92.18403000
22.70507813,-93.75183000
22.73559570,-94.29018000
22.76611328,-94.06892000
22.79663086,-97.61272000
22.82714844,-104.23170000
22.85766602,-94.52686000
22.88818359,-93.84182000
22.91870117,-95.01630000
22.94921875,-92.19949000
22.97973633,-90.61316000
23.01025391,-90.83572000
23.04077148,-93.25206000
23.07128906,-98.76286000
23.10180664,-102.86650000
23.13232422,-105.71160000
23.16284180,-108.93470000
23.19335938,-96.42837000
23.22387695,-93.12370000
23.25439453,-94.15041000
23.28491211,-102.15150000
23.31542969,-101.21860000
23.34594727,-94.30215000
23.37646484,-93.99152000
23.40698242,-97.56993000
23.43750000,-103.45980000
23.46801758,-103.30430000
23.49853516,-101.25620000
23.52905273,-102.73880000
23.55957031,-105.06080000
23.59008789,-99.59321000
23.62060547,-97.02298000
23.65112305,-97.80517000
23.68164063,-99.42567000
23.71215820,-95.37376000
23.74267578,-92.24937000
23.77319336,-92.14278000
23.80371094,-95.93423000
23.83422852,-108.37290000
23.86474609,-99.59945000
23.89526367,-96.75751000
23.92578125,-97.04678000
23.95629883,-99.53249000
23.98681641,-107.43790000
24.01733398,-110.99840000
24.04785156,-103.61280000
24.07836914,-97.53311000
24.10888672,-94.04149000
24.13940430,-94.32290000
24.16992188,-99.69197000
24.20043945,-104.80890000
24.23095703,-105.69270000
24.26147461,-107.90600000
24.29199219,-97.26250000
24.32250977,-94.25301000
24.35302734,-94.37150000
24.38354492,-98.11360000
24.41406250,-121.79750000
24.44458008,-96.44927000
24.47509766,-92.75133000
24.50561523,-93.41103000
24.53613281,-95.66148000
24.56665039,-96.36832000
24.59716797,-97.32604000
24.62768555,-99.37260000
24.65820313,-101.77000000
24.68872070,-103.93800000
24.71923828,-102.34320000
24.74975586,-99.44566000
24.78027344,-98.73064000
24.81079102,-97.57995000
24.84130859,-93.36066000
24.87182617,-90.93533000
24.90234375,-90.83928000
24.93286133,-92.69063000
24.96337891,-96.47286000
24.99389648,-97.35841000
25.02441406,-94.85002000
25.05493164,-93.16657000
25.08544922,-91.70707000
25.11596680,-91.10164000
25.14648438,-91.74439000
25.17700195,-93.71567000
25.20751953,-97.61569000
25.23803711,-101.25100000
25.26855469,-99.08081000
25.29907227,-100.35890000
25.32958984,-111.84750000
25.36010742,-107.80890000
25.39062500,-107.22810000
25.42114258,-107.28790000
25.45166016,-101.05730000
25.48217773,-97.42188000
25.51269531,-95.67391000
25.54321289,-96.01337000
25.57373047,-98.62746000
25.60424805,-98.77748000
25.63476563,-93.02486000
25.66528320,-90.50881000
25.69580078,-92.11748000
25.72631836,-97.44533000
25.75683594,-96.64806000
25.78735352,-96.38826000
25.81787109,-102.12220000
25.84838867,-103.98440000
25.87890625,-99.38910000
25.90942383,-98.28442000
25.93994141,-99.22865000
25.97045898,-100.19590000
26.00097656,-96.74600000
26.03149414,-94.39587000
26.06201172,-93.74913000
26.09252930,-94.42376000
26.12304688,-96.57260000
26.15356445,-98.40636000
26.18408203,-97.91464000
26.21459961,-97.26068000
26.24511719,-96.98346000
26.27563477,-96.22337000
26.30615234,-96.66114000
26.33666992,-98.11294000
26.36718750,-99.40852000
26.39770508,-100.29090000
26.42822266,-101.13030000
26.45874023,-103.58960000
26.48925781,-106.62830000
26.51977539,-104.39040000
26.55029297,-96.88973000
26.58081055,-93.01576000
26.61132813,-92.73155000
26.64184570,-95.60565000
26.67236328,-100.92350000
26.70288086,-104.16800000
26.73339844,-103.24900000
26.76391602,-103.72900000
26.79443359,-103.92270000
26.82495117,-102.17880000
26.85546875,-100.97540000
26.88598633,-102.09750000
26.91650391,-106.40900000
26.94702148,-108.97920000
26.97753906,-103.55710000
27.00805664,-98.43633000
27.03857422,-96.30283000
27.06909180,-95.63629000
27.09960938,-94.90559000
27.13012695,-95.31773000
27.16064453,-99.92584000
27.19116211,-106.28480000
27.22167969,-97.48189000
27.25219727,-96.19808000
27.28271484,-96.36060000
27.31323242,-96.23520000
27.34375000,-97.38799000
27.37426758,-99.29448000
27.40478516,-100.43990000
27.43530273,-100.17420000
27.46582031,-100.33230000
27.49633789,-100.27530000
27.52685547,-96.26312000
27.55737305,-94.85954000
27.58789063,-99.07637000
27.61840820,-102.83360000
27.64892578,-99.11105000
27.67944336,-99.60851000
27.70996094,-99.34477000
27.74047852,-100.40720000
27.77099609,-108.89160000
27.80151367,-103.46930000
27.83203125,-96.29360000
27.86254883,-94.57523000
27.89306641,-95.47265000
27.92358398,-98.88521000
27.95410156,-105.70280000
27.98461914,-107.88490000
28.01513672,-105.30580000
28.04565430,-103.38200000
28.07617188,-98.22479000
28.10668945,-95.41476000
28.13720703,-95.43926000
28.16772461,-97.64441000
28.19824219,-98.22878000
28.22875977,-96.75299000
28.25927734,-96.83751000
28.28979492,-95.86768000
28.32031250,-94.74342000
28.35083008,-95.60248000
28.38134766,-97.84758000
28.41186523,-100.57990000
28.44238281,-100.65260000
28.47290039,-97.60513000
28.50341797,-96.34381000
28.53393555,-97.30986000
28.56445313,-104.90050000
28.59497070,-99.03049000
28.62548828,-91.81731000
28.65600586,-90.80673000
28.68652344,-93.43094000
28.71704102,-97.85653000
28.74755859,-98.16655000
28.77807617,-97.91983000
28.80859375,-98.94229000
28.83911133,-96.16241000
28.86962891,-93.52843000
28.90014648,-93.04733000
28.93066406,-94.83208000
28.96118164,-99.06760000
28.99169922,-102.79870000
29.02221680,-98.88416000
29.05273438,-95.38583000
29.08325195,-95.31111000
29.11376953,-98.72205000
29.14428711,-100.69030000
29.17480469,-97.81707000
29.20532227,-95.07114000
29.23583984,-94.95347000
29.26635742,-98.22315000
29.29687500,-100.68900000
29.32739258,-97.18436000
29.35791016,-95.06638000
29.38842773,-95.12314000
29.41894531,-97.99875000
29.44946289,-103.90430000
29.47998047,-105.24250000
29.51049805,-101.32150000
29.54101563,-97.51076000
29.57153320,-96.37083000
29.60205078,-97.97079000
29.63256836,-99.77135000
29.66308594,-99.56497000
29.69360352,-98.94479000
29.72412109,-99.45676000
29.75463867,-100.50790000
29.78515625,-97.92752000
29.81567383,-97.62730000
29.84619141,-104.31500000
29.87670898,-105.24180000
29.90722656,-97.42551000
29.93774414,-95.77097000
29.96826172,-95.78069000
29.99877930,-95.14045000
30.02929688,-94.09241000
30.05981445,-94.08571000
30.09033203,-94.64424000
30.12084961,-93.87347000
30.15136719,-92.24794000
30.18188477,-91.34377000
30.21240234,-91.69461000
30.24291992,-93.91872000
30.27343750,-99.21315000
30.30395508,-97.98134000
30.33447266,-93.44029000
30.36499023,-92.72107000
30.39550781,-93.62537000
30.42602539,-94.06854000
30.45654297,-96.00479000
30.48706055,-96.83865000
30.51757813,-94.25122000
30.54809570,-95.63964000
30.57861328,-100.58150000
30.60913086,-96.46988000
30.63964844,-95.11977000
30.67016602,-99.31390000
30.70068359,-110.65490000
30.73120117,-100.34390000
30.76171875,-96.69605000
30.79223633,-93.87844000
30.82275391,-93.22623000
30.85327148,-95.83671000
30.88378906,-99.70865000
30.91430664,-97.47113000
30.94482422,-95.42575000
30.97534180,-95.68089000
31.00585938,-98.95313000
31.03637695,-103.86880000
31.06689453,-99.41205000
31.09741211,-97.76009000
31.12792969,-97.38747000
31.15844727,-95.17259000
31.18896484,-93.64302000
31.21948242,-93.98796000
31.25000000,-96.28506000
31.28051758,-100.37020000
31.31103516,-101.96150000
31.34155273,-97.48940000
31.37207031,-94.82367000
31.40258789,-95.78754000
31.43310547,-102.83090000
31.46362305,-109.91140000
31.49414063,-101.73810000
31.52465820,-100.57760000
31.55517578,-96.37477000
31.58569336,-93.03902000
31.61621094,-91.95586000
31.64672852,-91.13887000
31.67724609,-89.12067000
31.70776367,-87.79717000
31.73828125,-88.43813000
31.76879883,-91.12311000
31.79931641,-93.84858000
31.82983398,-95.31122000
31.86035156,-99.68536000
31.89086914,-106.96390000
31.92138672,-99.53006000
31.95190430,-94.54156000
31.98242188,-92.39374000
32.01293945,-92.67296000
32.04345703,-93.80412000
32.07397461,-93.17326000
32.10449219,-91.59273000
32.13500977,-91.27641000
32.16552734,-92.76054000
32.19604492,-96.14412000
32.22656250,-105.16300000
32.25708008,-103.16310000
32.28759766,-95.78186000
32.31811523,-95.66629000
32.34863281,-99.60175000
32.37915039,-95.23044000
32.40966797,-93.13583000
32.44018555,-95.06723000
32.47070313,-95.37492000
32.50122070,-91.65056000
32.53173828,-89.88429000
32.56225586,-90.33316000
32.59277344,-92.60128000
32.62329102,-95.89261000
32.65380859,-97.11578000
32.68432617,-97.29291000
32.71484375,-100.87230000
32.74536133,-114.39860000
32.77587891,-104.96340000
32.80639648,-102.16280000
32.83691406,-103.62460000
32.86743164,-106.74950000
32.89794922,-104.44320000
32.92846680,-101.17930000
32.95898438,-100.96570000
32.98950195,-103.70930000
33.02001953,-111.21380000
33.05053711,-113.21300000
33.08105469,-104.71380000
33.11157227,-100.31640000
33.14208984,-99.39506000
33.17260742,-103.78320000
33.20312500,-107.30960000
33.23364258,-99.93390000
33.26416016,-97.32143000
33.29467773,-95.71809000
33.32519531,-94.27026000
33.35571289,-93.88539000
33.38623047,-94.79287000
33.41674805,-96.37418000
33.44726563,-98.42854000
33.47778320,-101.24310000
33.50830078,-103.43320000
33.53881836,-103.45050000
33.56933594,-100.20800000
33.59985352,-95.62959000
33.63037109,-93.83981000
33.66088867,-95.62850000
33.69140625,-103.85040000
33.72192383,-100.13510000
33.75244141,-93.73463000
33.78295898,-93.15708000
33.81347656,-98.26041000
33.84399414,-102.07070000
33.87451172,-94.59003000
33.90502930,-93.31592000
33.93554688,-95.54539000
33.96606445,-98.79162000
33.99658203,-97.12718000
34.02709961,-94.88937000
34.05761719,-93.94821000
34.08813477,-94.00581000
34.11865234,-94.66533000
34.14916992,-96.11224000
34.17968750,-96.07552000
34.21020508,-94.60463000
34.24072266,-96.25393000
34.27124023,-104.36970000
34.30175781,-103.72560000
34.33227539,-99.72073000
34.36279297,-102.23260000
34.39331055,-108.23490000
34.42382813,-102.76610000
34.45434570,-97.45162000
34.48486328,-94.06470000
34.51538086,-92.88234000
34.54589844,-94.38406000
34.57641602,-99.04523000
34.60693359,-106.12450000
34.63745117,-107.65840000
34.66796875,-101.43680000
34.69848633,-97.97352000
34.72900391,-97.65446000
34.75952148,-99.52309000
34.79003906,-101.95670000
34.82055664,-101.48860000
34.85107422,-97.82532000
34.88159180,-95.14311000
34.91210938,-94.94528000
34.94262695,-97.74299000
34.97314453,-104.29850000
35.00366211,-105.51430000
35.03417969,-102.33830000
35.06469727,-101.82320000
35.09521484,-102.51210000
35.12573242,-104.06800000
35.15625000,-100.11660000
35.18676758,-96.34578000
35.21728516,-95.40611000
35.24780273,-95.68550000
35.27832031,-96.25029000
35.30883789,-98.42891000
35.33935547,-103.43000000
35.36987305,-110.59380000
35.40039063,-121.32260000
35.43090820,-115.55920000
35.46142578,-105.55330000
35.49194336,-100.91920000
35.52246094,-99.12376000
35.55297852,-99.16096000
35.58349609,-99.89027000
35.61401367,-99.02422000
35.64453125,-96.43916000
35.67504883,-94.84044000
35.70556641,-95.90630000
35.73608398,-98.54896000
35.76660156,-95.28915000
35.79711914,-92.46392000
35.82763672,-92.45235000
35.85815430,-94.61201000
35.88867188,-98.10559000
35.91918945,-103.06350000
35.94970703,-109.91990000
35.98022461,-113.86880000
36.01074219,-109.34050000
36.04125977,-107.72980000
36.07177734,-108.12530000
36.10229492,-106.61050000
36.13281250,-104.03400000
36.16333008,-104.38850000
36.19384766,-104.13770000
36.22436523,-100.50790000
36.25488281,-97.20831000
36.28540039,-96.38850000
36.31591797,-97.28947000
36.34643555,-97.17592000
36.37695313,-98.13998000
36.40747070,-102.83770000
36.43798828,-104.59950000
36.46850586,-102.82460000
36.49902344,-102.68420000
36.52954102,-102.33100000
36.56005859,-102.80430000
36.59057617,-108.60400000
36.62109375,-110.46500000
36.65161133,-100.24650000
36.68212891,-97.11880000
36.71264648,-97.50122000
36.74316406,-102.30560000
36.77368164,-117.43740000
36.80419922,-105.71940000
36.83471680,-103.73390000
36.86523438,-103.53870000
36.89575195,-101.27020000
36.92626953,-99.11018000
36.95678711,-99.24439000
36.98730469,-102.52070000
37.01782227,-107.99150000
37.04833984,-103.96480000
37.07885742,-99.29501000
37.10937500,-96.90462000
37.13989258,-96.35841000
37.17041016,-96.73779000
37.20092773,-97.61469000
37.23144531,-100.61930000
37.26196289,-106.10340000
37.29248047,-97.10914000
37.32299805,-93.27562000
37.35351563,-94.05550000
37.38403320,-99.56964000
37.41455078,-107.78490000
37.44506836,-106.07830000
37.47558594,-110.21290000
37.50610352,-102.44980000
37.53662109,-97.36375000
37.56713867,-96.35654000
37.59765625,-98.64780000
37.62817383,-104.51100000
37.65869141,-114.65170000
37.68920898,-107.16480000
37.71972656,-97.27649000
37.75024414,-93.43066000
37.78076172,-94.22601000
37.81127930,-102.80160000
37.84179688,-100.83990000
37.87231445,-94.41731000
37.90283203,-93.84627000
37.93334961,-96.35909000
37.96386719,-102.53110000
37.99438477,-110.13880000
38.02490234,-105.78560000
38.05541992,-110.84140000
38.08593750,-107.39950000
38.11645508,-100.49820000
38.14697266,-100.22740000
38.17749023,-105.46240000
38.20800781,-117.42540000
38.23852539,-107.10260000
38.26904297,-104.32520000
38.29956055,-100.98900000
38.33007813,-100.65740000
38.36059570,-110.08070000
38.39111328,-103.41130000
38.42163086,-97.49200000
38.45214844,-98.76205000
38.48266602,-100.84200000
38.51318359,-92.27988000
38.54370117,-88.33087000
38.57421875,-87.73773000
38.60473633,-89.52298000
38.63525391,-93.33251000
38.66577148,-103.04330000
38.69628906,-99.23112000
38.72680664,-93.18272000
38.75732422,-91.88976000
38.78784180,-92.81618000
38.81835938,-95.91071000
38.84887695,-102.38100000
38.87939453,-108.87020000
38.90991211,-100.61380000
38.94042969,-96.04285000
38.97094727,-93.42375000
39.00146484,-92.35796000
39.03198242,-91.92361000
39.06250000,-90.91374000
39.09301758,-90.67153000
39.12353516,-92.64713000
39.15405273,-96.57055000
39.18457031,-98.44550000
39.21508789,-96.02303000
39.24560547,-93.30437000
39.27612305,-91.23376000
39.30664063,-89.69038000
39.33715820,-89.20142000
39.36767578,-90.07702000
39.39819336,-90.64172000
39.42871094,-89.28509000
39.45922852,-87.98382000
39.48974609,-87.25507000
39.52026367,-86.87530000
39.55078125,-87.56531000
39.58129883,-89.52592000
39.61181641,-90.65017000
39.64233398,-90.49899000
39.67285156,-90.47406000
39.70336914,-90.51086000
39.73388672,-91.04875000
39.76440430,-93.20959000
39.79492188,-98.49204000
39.82543945,-108.95290000
39.85595703,-104.36600000
39.88647461,-97.92237000
39.91699219,-93.22587000
39.94750977,-91.21696000
39.97802734,-92.09360000
40.00854492,-95.01929000
40.03906250,-97.61238000
40.06958008,-98.69521000
40.10009766,-100.76930000
40.13061523,-103.98070000
40.16113281,-103.15470000
40.19165039,-101.29170000
40.22216797,-94.92493000
40.25268555,-91.10966000
40.28320313,-90.64618000
40.31372070,-92.17355000
40.34423828,-93.18279000
40.37475586,-94.04273000
40.40527344,-96.10969000
40.43579102,-93.92206000
40.46630859,-91.36855000
40.49682617,-91.48248000
40.52734375,-93.24854000
40.55786133,-94.75592000
40.58837891,-94.47579000
40.61889648,-93.26318000
40.64941406,-93.03136000
40.67993164,-94.68560000
40.71044922,-96.38072000
40.74096680,-93.86708000
40.77148438,-91.56601000
40.80200195,-91.24995000
40.83251953,-92.18779000
40.86303711,-94.85103000
40.89355469,-104.13220000
40.92407227,-100.35490000
40.95458984,-96.13022000
40.98510742,-97.97336000
41.01562500,-98.67268000
41.04614258,-96.29073000
41.07666016,-96.92628000
41.10717773,-99.55991000
41.13769531,-98.26145000
41.16821289,-95.83205000
41.19873047,-93.72817000
41.22924805,-94.67801000
41.25976563,-95.71227000
41.29028320,-92.03947000
41.32080078,-90.73040000
41.35131836,-92.58679000
41.38183594,-95.99667000
41.41235352,-102.08240000
41.44287109,-104.23220000
41.47338867,-94.86833000
41.50390625,-93.36938000
41.53442383,-92.85353000
41.56494141,-91.43243000
41.59545898,-89.88354000
41.62597656,-88.64922000
41.65649414,-87.72622000
41.68701172,-87.10138000
41.71752930,-86.94576000
41.74804688,-87.67708000
41.77856445,-89.82006000
41.80908203,-91.15114000
41.83959961,-89.24698000
41.87011719,-88.33031000
41.90063477,-89.40414000
41.93115234,-92.53930000
41.96166992,-98.05249000
41.99218750,-97.95891000
42.02270508,-92.07205000
42.05322266,-88.11896000
42.08374023,-86.60061000
42.11425781,-87.96844000
42.14477539,-93.07918000
42.17529297,-104.93830000
42.20581055,-90.76675000
42.23632813,-85.52347000
42.26684570,-84.15796000
42.29736328,-85.61965000
42.32788086,-90.04727000
42.35839844,-97.86431000
42.38891602,-95.21285000
42.41943359,-91.72398000
42.44995117,-90.40177000
42.48046875,-90.72837000
42.51098633,-95.21770000
42.54150391,-104.20110000
42.57202148,-91.04916000
42.60253906,-88.75769000
42.63305664,-91.12558000
42.66357422,-97.55344000
42.69409180,-97.20512000
42.72460938,-91.99655000
42.75512695,-90.58880000
42.78564453,-93.46271000
42.81616211,-100.64680000
42.84667969,-97.01047000
42.87719727,-93.34256000
42.90771484,-92.29274000
42.93823242,-94.02035000
42.96875000,-100.78480000
42.99926758,-95.79662000
43.02978516,-89.71425000
43.06030273,-88.01662000
43.09082031,-88.47726000
43.12133789,-88.77412000
43.15185547,-89.00719000
43.18237305,-90.04345000
43.21289063,-89.60708000
43.24340820,-89.27880000
43.27392578,-91.52477000
43.30444336,-96.31011000
43.33496094,-100.52430000
43.36547852,-99.91576000
43.39599609,-97.96620000
43.42651367,-96.87309000
43.45703125,-94.24858000
43.48754883,-89.92299000
43.51806641,-87.38393000
43.54858398,-88.07579000
43.57910156,-93.38876000
43.60961914,-103.95790000
43.64013672,-99.52750000
43.67065430,-102.92910000
43.70117188,-100.00500000
43.73168945,-95.79250000
43.76220703,-93.60829000
43.79272461,-92.06702000
43.82324219,-92.09503000
43.85375977,-94.21732000
43.88427734,-97.31144000
43.91479492,-98.21343000
43.94531250,-99.46236000
43.97583008,-106.58940000
44.00634766,-106.79960000
44.03686523,-100.75050000
44.06738281,-96.84392000
44.09790039,-93.19512000
44.12841797,-91.38078000
44.15893555,-91.56952000
44.18945313,-93.31992000
44.21997070,-94.55735000
44.25048828,-93.83949000
44.28100586,-93.78758000
44.31152344,-95.56436000
44.34204102,-97.17332000
44.37255859,-96.40530000
44.40307617,-98.02723000
44.43359375,-104.58380000
44.46411133,-107.80990000
44.49462891,-107.41460000
44.52514648,-105.38990000
44.55566406,-97.37815000
44.58618164,-92.55695000
44.61669922,-90.75105000
44.64721680,-91.08702000
44.67773438,-93.23102000
44.70825195,-96.04827000
44.73876953,-98.01270000
44.76928711,-100.96130000
44.79980469,-105.99710000
44.83032227,-107.01960000
44.86083984,-99.62650000
44.89135742,-94.66737000
44.92187500,-93.04104000
44.95239258,-94.27748000
44.98291016,-96.28255000
45.01342773,-96.16158000
45.04394531,-94.91032000
45.07446289,-94.08678000
45.10498047,-95.39694000
45.13549805,-101.61800000
45.16601563,-107.85210000
45.19653320,-100.86830000
45.22705078,-100.72500000
45.25756836,-104.70770000
45.28808594,-119.10650000
45.31860352,-110.29310000
45.34912109,-107.64440000
45.37963867,-108.65450000
45.41015625,-100.97620000
45.44067383,-95.84531000
45.47119141,-94.17581000
45.50170898,-95.07576000
45.53222656,-94.68369000
45.56274414,-91.74442000
45.59326172,-91.43746000
45.62377930,-94.75781000
45.65429688,-101.15660000
45.68481445,-105.42350000
45.71533203,-104.06260000
45.74584961,-102.66240000
45.77636719,-103.68110000
45.80688477,-107.28980000
45.83740234,-114.02260000
45.86791992,-100.62610000
45.89843750,-94.66711000
45.92895508,-92.16031000
45.95947266,-91.14865000
45.98999023,-91.35796000
46.02050781,-93.96967000
46.05102539,-99.09006000
46.08154297,-95.62443000
46.11206055,-91.80309000
46.14257813,-90.72708000
46.17309570,-91.83608000
46.20361328,-94.50329000
46.23413086,-97.26772000
46.26464844,-99.50893000
46.29516602,-100.36330000
46.32568359,-104.18450000
46.35620117,-111.44750000
46.38671875,-100.90400000
46.41723633,-97.39246000
46.44775391,-96.63410000
46.47827148,-99.16228000
46.50878906,-102.75050000
46.53930664,-96.24281000
46.56982422,-93.84222000
46.60034180,-95.90874000
46.63085938,-105.91830000
46.66137695,-100.84240000
46.69189453,-93.81085000
46.72241211,-92.20584000
46.75292969,-94.27690000
46.78344727,-100.91040000
46.81396484,-106.51640000
46.84448242,-100.33380000
46.87500000,-97.57158000
46.90551758,-96.05061000
46.93603516,-95.97511000
46.96655273,-97.66928000
46.99707031,-98.63365000
47.02758789,-97.13861000
47.05810547,-97.22177000
47.08862305,-101.49230000
47.11914063,-115.32750000
47.14965820,-100.42400000
47.18017578,-98.39935000
47.21069336,-103.49000000
47.24121094,-109.50820000
47.27172852,-99.52648000
47.30224609,-98.51094000
47.33276367,-98.31422000
47.36328125,-97.11829000
47.39379883,-100.96450000
47.42431641,-104.23310000
47.45483398,-96.12874000
47.48535156,-93.89657000
47.51586914,-92.72168000
47.54638672,-91.83059000
47.57690430,-92.12548000
47.60742188,-93.02690000
47.63793945,-93.80020000
47.66845703,-95.25951000
47.69897461,-98.83713000
47.72949219,-108.08580000
47.76000977,-105.73130000
47.79052734,-101.30950000
47.82104492,-100.21620000
47.85156250,-97.69051000
47.88208008,-96.93753000
47.91259766,-100.43430000
47.94311523,-106.16420000
47.97363281,-97.22076000
48.00415039,-94.43198000
48.03466797,-95.44597000
48.06518555,-97.90759000
48.09570313,-97.33780000
48.12622070,-95.62020000
48.15673828,-95.96495000
48.18725586,-101.04680000
48.21777344,-108.61240000
48.24829102,-96.62232000
48.27880859,-95.30759000
48.30932617,-97.92199000
48.33984375,-97.45160000
48.37036133,-95.20651000
48.40087891,-95.28142000
48.43139648,-96.41082000
48.46191406,-95.19548000
48.49243164,-92.97485000
48.52294922,-92.52719000
48.55346680,-94.57721000
48.58398438,-98.55164000
48.61450195,-98.12537000
48.64501953,-95.20896000
48.67553711,-94.18739000
48.70605469,-95.29845000
48.73657227,-98.60764000
48.76708984,-101.91490000
48.79760742,-98.14800000
48.82812500,-93.87138000
48.85864258,-91.61358000
48.88916016,-91.47027000
48.91967773,-93.43999000
48.95019531,-96.03638000
48.98071289,-95.13704000
49.01123047,-93.63110000
49.04174805,-94.56826000
49.07226563,-99.18123000
49.10278320,-109.56500000
49.13330078,-101.82720000
49.16381836,-97.24510000
49.19433594,-95.40091000
49.22485352,-94.89364000
49.25537109,-94.22761000
49.28588867,-92.98824000
49.31640625,-92.19090000
49.34692383,-91.99789000
49.37744141,-91.99337000
49.40795898,-91.94004000
49.43847656,-92.65182000
49.46899414,-96.20200000
49.49951172,-107.15140000
49.53002930,-98.45294000
49.56054688,-94.45756000
49.59106445,-93.31206000
49.62158203,-92.82274000
49.65209961,-93.02608000
49.68261719,-94.90482000
49.71313477,-99.13995000
49.74365234,-107.11770000
49.77416992,-112.21100000
49.80468750,-101.08990000
49.83520508,-97.47361000
49.86572266,-95.80365000
49.89624023,-94.58896000
49.92675781,-94.53732000
49.95727539,-96.72340000
49.98779297,-99.84879000
50.01831055,-100.57730000
