Frequency,Channel A
(MHz),(dBu)

0.00000000,-25.94881000
0.03051758,-26.38199000
0.06103516,-31.82543000
0.09155273,-42.22881000
0.12207031,-57.19996000
0.15258789,-60.15253000
0.18310547,-58.03764000
0.21362305,-60.14067000
0.24414063,-67.25881000
0.27465820,-77.35017000
0.30517578,-67.45467000
0.33569336,-64.01151000
0.36621094,-63.11664000
0.39672852,-63.17833000
0.42724609,-60.34856000
0.45776367,-59.41745000
0.48828125,-60.49332000
0.51879883,-62.02113000
0.54931641,-66.47501000
0.57983398,-70.82513000
0.61035156,-62.45055000
0.64086914,-60.25422000
0.67138672,-61.03157000
0.70190430,-63.70413000
0.73242188,-67.22377000
0.76293945,-66.68428000
0.79345703,-63.90348000
0.82397461,-63.58256000
0.85449219,-66.05411000
0.88500977,-69.77907000
0.91552734,-75.36596000
0.94604492,-73.74451000
0.97656250,-69.46073000
1.00708008,-68.60070000
1.03759766,-68.29042000
1.06811523,-69.92612000
1.09863281,-67.95683000
1.12915039,-66.25150000
1.15966797,-70.08979000
1.19018555,-86.77128000
1.22070313,-73.13307000
1.25122070,-71.69463000
1.28173828,-73.83678000
1.31225586,-71.04813000
1.34277344,-68.40298000
1.37329102,-69.87486000
1.40380859,-77.12587000
1.43432617,-81.81612000
1.46484375,-70.50610000
1.49536133,-66.68504000
1.52587891,-66.61597000
1.55639648,-71.21741000
1.58691406,-73.36290000
1.61743164,-67.71567000
1.64794922,-67.44775000
1.67846680,-70.55978000
1.70898438,-76.25072000
1.73950195,-88.28305000
1.77001953,-75.01703000
1.80053711,-73.26069000
1.83105469,-73.40237000
1.86157227,-71.69670000
1.89208984,-71.90103000
1.92260742,-75.37205000
1.95312500,-92.73450000
1.98364258,-75.54684000
2.01416016,-70.53386000
2.04467773,-70.49625000
2.07519531,-73.72283000
2.10571289,-74.07189000
2.13623047,-71.34649000
2.16674805,-73.15894000
2.19726563,-77.28300000
2.22778320,-72.91396000
2.25830078,-72.58763000
2.28881836,-74.82516000
2.31933594,-74.77461000
2.34985352,-76.47210000
2.38037109,-77.00463000
2.41088867,-72.49646000
2.44140625,-73.12856000
2.47192383,-77.80875000
2.50244141,-75.91872000
2.53295898,-75.15355000
2.56347656,-72.86935000
2.59399414,-71.46977000
2.62451172,-71.87789000
2.65502930,-74.14947000
2.68554688,-76.30737000
2.71606445,-69.83272000
2.74658203,-68.40667000
2.77709961,-72.12321000
2.80761719,-74.34342000
2.83813477,-71.91440000
2.86865234,-75.22872000
2.89916992,-94.78148000
2.92968750,-78.56350000
2.96020508,-74.18665000
2.99072266,-72.71732000
3.02124023,-73.73009000
3.05175781,-76.66982000
3.08227539,-79.36830000
3.11279297,-83.32516000
3.14331055,-85.16928000
3.17382813,-75.57728000
3.20434570,-71.07999000
3.23486328,-70.89444000
3.26538086,-73.48734000
3.29589844,-71.41355000
3.32641602,-70.38020000
3.35693359,-74.18706000
3.38745117,-81.11296000
3.41796875,-77.04022000
3.44848633,-76.93411000
3.47900391,-78.95971000
3.50952148,-77.71841000
3.54003906,-76.96296000
3.57055664,-72.35358000
3.60107422,-69.42508000
3.63159180,-70.10603000
3.66210938,-72.68642000
3.69262695,-71.24976000
3.72314453,-71.71722000
3.75366211,-79.45061000
3.78417969,-71.89371000
3.81469727,-69.05915000
3.84521484,-72.09473000
3.87573242,-77.19257000
3.90625000,-72.80065000
3.93676758,-70.34439000
3.96728516,-70.65657000
3.99780273,-74.76170000
4.02832031,-86.01483000
4.05883789,-77.45940000
4.08935547,-73.24561000
4.11987305,-70.91000000
4.15039063,-69.27055000
4.18090820,-69.06473000
4.21142578,-70.72316000
4.24194336,-74.64276000
4.27246094,-81.93230000
4.30297852,-83.23061000
4.33349609,-82.23315000
4.36401367,-76.60266000
4.39453125,-72.49725000
4.42504883,-71.19994000
4.45556641,-70.92420000
4.48608398,-71.97677000
4.51660156,-75.73202000
4.54711914,-82.96867000
4.57763672,-86.79928000
4.60815430,-74.02833000
4.63867188,-68.98905000
4.66918945,-68.32991000
4.69970703,-70.94540000
4.73022461,-71.71828000
4.76074219,-70.86612000
4.79125977,-73.88455000
4.82177734,-82.41589000
4.85229492,-78.84835000
4.88281250,-74.50013000
4.91333008,-73.06906000
4.94384766,-74.21382000
4.97436523,-73.18826000
5.00488281,-70.56131000
5.03540039,-70.85137000
5.06591797,-73.26934000
5.09643555,-75.34277000
5.12695313,-74.66315000
5.15747070,-72.82165000
5.18798828,-72.69519000
5.21850586,-72.40270000
5.24902344,-71.14537000
5.27954102,-71.31671000
5.31005859,-72.36195000
5.34057617,-72.00224000
5.37109375,-71.71559000
5.40161133,-73.31667000
5.43212891,-76.39951000
5.46264648,-78.82297000
5.49316406,-78.08929000
5.52368164,-72.77240000
5.55419922,-69.38175000
5.58471680,-68.20306000
5.61523438,-67.60833000
5.64575195,-67.98802000
5.67626953,-71.08570000
5.70678711,-75.57013000
5.73730469,-78.84177000
5.76782227,-85.20824000
5.79833984,-72.39372000
5.82885742,-68.68799000
5.85937500,-66.85088000
5.88989258,-66.30698000
5.92041016,-67.68527000
5.95092773,-69.77683000
5.98144531,-73.29679000
6.01196289,-83.40721000
6.04248047,-79.62708000
6.07299805,-73.44855000
6.10351563,-70.10432000
6.13403320,-68.83651000
6.16455078,-67.88310000
6.19506836,-67.76969000
6.22558594,-69.76292000
6.25610352,-72.55635000
6.28662109,-73.97374000
6.31713867,-74.03252000
6.34765625,-73.19095000
6.37817383,-71.73268000
6.40869141,-69.54593000
6.43920898,-68.90702000
6.46972656,-70.66785000
6.50024414,-74.52836000
6.53076172,-78.39079000
6.56127930,-78.45100000
6.59179688,-76.34934000
6.62231445,-74.73459000
6.65283203,-74.52989000
6.68334961,-74.64329000
6.71386719,-75.24467000
6.74438477,-78.21570000
6.77490234,-80.18385000
6.80541992,-78.97918000
6.83593750,-76.88985000
6.86645508,-74.04167000
6.89697266,-73.68777000
6.92749023,-75.35942000
6.95800781,-77.13696000
6.98852539,-79.45445000
7.01904297,-81.52965000
7.04956055,-82.77088000
7.08007813,-86.70090000
7.11059570,-90.25468000
7.14111328,-89.44831000
7.17163086,-83.14915000
7.20214844,-79.63364000
7.23266602,-78.76109000
7.26318359,-77.29071000
7.29370117,-75.34621000
7.32421875,-75.51679000
7.35473633,-79.25130000
7.38525391,-90.54555000
7.41577148,-96.27239000
7.44628906,-97.46254000
7.47680664,-84.72076000
7.50732422,-81.35711000
7.53784180,-83.41325000
7.56835938,-87.96066000
7.59887695,-90.44133000
7.62939453,-92.52827000
7.65991211,-86.20029000
7.69042969,-83.62662000
7.72094727,-83.45937000
7.75146484,-83.56441000
7.78198242,-82.94936000
7.81250000,-82.79912000
7.84301758,-84.73152000
7.87353516,-87.71504000
7.90405273,-86.91040000
7.93457031,-87.72823000
7.96508789,-90.33196000
7.99560547,-88.48312000
8.02612305,-86.97523000
8.05664063,-85.64284000
8.08715820,-85.15530000
8.11767578,-85.15839000
8.14819336,-85.73253000
8.17871094,-84.89778000
8.20922852,-82.32070000
8.23974609,-81.75516000
8.27026367,-82.85825000
8.30078125,-83.46597000
8.33129883,-82.63365000
8.36181641,-82.88885000
8.39233398,-84.97429000
8.42285156,-86.32416000
8.45336914,-89.71616000
8.48388672,-100.80630000
8.51440430,-88.55307000
8.54492188,-84.04295000
8.57543945,-82.12442000
8.60595703,-84.00804000
8.63647461,-86.89201000
8.66699219,-81.93576000
8.69750977,-79.97957000
8.72802734,-80.60529000
8.75854492,-81.95029000
8.78906250,-82.44065000
8.81958008,-82.18230000
8.85009766,-82.24963000
8.88061523,-83.20617000
8.91113281,-84.70525000
8.94165039,-85.53400000
8.97216797,-87.83305000
9.00268555,-109.45150000
9.03320313,-85.96558000
9.06372070,-80.78816000
9.09423828,-80.08457000
9.12475586,-81.47613000
9.15527344,-82.28809000
9.18579102,-81.03214000
9.21630859,-79.72659000
9.24682617,-80.16846000
9.27734375,-82.36441000
9.30786133,-84.39323000
9.33837891,-84.25903000
9.36889648,-83.32504000
9.39941406,-82.96208000
9.42993164,-82.88597000
9.46044922,-83.32595000
9.49096680,-87.47296000
9.52148438,-95.40340000
9.55200195,-82.34176000
9.58251953,-78.54199000
9.61303711,-77.99291000
9.64355469,-79.51312000
9.67407227,-82.19751000
9.70458984,-84.77122000
9.73510742,-86.08597000
9.76562500,-85.63327000
9.79614258,-82.61690000
9.82666016,-80.27352000
9.85717773,-80.55301000
9.88769531,-81.34713000
9.91821289,-81.68771000
9.94873047,-85.27498000
9.97924805,-91.76668000
10.00976563,-90.04327000
10.04028320,-87.51591000
10.07080078,-86.21917000
10.10131836,-85.57578000
10.13183594,-84.51308000
10.16235352,-85.03659000
10.19287109,-86.56273000
10.22338867,-86.47408000
10.25390625,-84.61288000
10.28442383,-81.85629000
10.31494141,-80.77507000
10.34545898,-82.61916000
10.37597656,-88.32664000
10.40649414,-98.86626000
10.43701172,-85.09476000
10.46752930,-80.92358000
10.49804688,-79.96548000
10.52856445,-81.62503000
10.55908203,-86.52437000
10.58959961,-90.68260000
10.62011719,-86.02264000
10.65063477,-82.09538000
10.68115234,-79.99667000
10.71166992,-79.46470000
10.74218750,-79.28230000
10.77270508,-79.11308000
10.80322266,-79.48969000
10.83374023,-80.16641000
10.86425781,-80.67120000
10.89477539,-81.02574000
10.92529297,-81.53024000
10.95581055,-82.61876000
10.98632813,-84.58788000
11.01684570,-84.84389000
11.04736328,-81.96559000
11.07788086,-79.46237000
11.10839844,-77.77374000
11.13891602,-77.79687000
11.16943359,-80.92303000
11.19995117,-89.26968000
11.23046875,-96.81965000
11.26098633,-88.22742000
11.29150391,-82.79929000
11.32202148,-83.52401000
11.35253906,-86.07231000
11.38305664,-80.46614000
11.41357422,-79.92599000
11.44409180,-85.27968000
11.47460938,-91.67754000
11.50512695,-84.57119000
11.53564453,-83.05271000
11.56616211,-82.69630000
11.59667969,-81.02105000
11.62719727,-80.66333000
11.65771484,-82.51537000
11.68823242,-80.42410000
11.71875000,-76.87911000
11.74926758,-76.31859000
11.77978516,-78.85690000
11.81030273,-80.98148000
11.84082031,-78.63311000
11.87133789,-78.05488000
11.90185547,-79.85072000
11.93237305,-82.84511000
11.96289063,-85.44638000
11.99340820,-84.50360000
12.02392578,-81.74786000
12.05444336,-82.34822000
12.08496094,-84.05551000
12.11547852,-80.69940000
12.14599609,-79.29733000
12.17651367,-80.32941000
12.20703125,-81.79694000
12.23754883,-84.57471000
12.26806641,-91.24950000
12.29858398,-97.08417000
12.32910156,-97.07419000
12.35961914,-93.07735000
12.39013672,-85.14225000
12.42065430,-79.63913000
12.45117188,-77.75197000
12.48168945,-80.14296000
12.51220703,-91.34245000
12.54272461,-88.39235000
12.57324219,-82.94754000
12.60375977,-79.78313000
12.63427734,-76.83321000
12.66479492,-76.41525000
12.69531250,-80.71658000
12.72583008,-90.67868000
12.75634766,-78.22447000
12.78686523,-76.09175000
12.81738281,-77.89345000
12.84790039,-78.10978000
12.87841797,-76.44232000
12.90893555,-77.78399000
12.93945313,-82.62566000
12.96997070,-85.73117000
13.00048828,-79.04530000
13.03100586,-74.26253000
13.06152344,-72.37379000
13.09204102,-73.14012000
13.12255859,-76.72274000
13.15307617,-84.29710000
13.18359375,-97.72411000
13.21411133,-85.81857000
13.24462891,-82.55654000
13.27514648,-83.27075000
13.30566406,-87.94259000
13.33618164,-93.12547000
13.36669922,-88.79707000
13.39721680,-85.97742000
13.42773438,-83.87814000
13.45825195,-75.97340000
13.48876953,-69.29922000
13.51928711,-65.26961000
13.54980469,-63.76860000
13.58032227,-64.87355000
13.61083984,-68.16618000
13.64135742,-71.09363000
13.67187500,-72.88209000
13.70239258,-76.58139000
13.73291016,-82.99183000
13.76342773,-85.64655000
13.79394531,-83.15436000
13.82446289,-82.43417000
13.85498047,-82.81705000
13.88549805,-84.42188000
13.91601563,-88.67238000
13.94653320,-83.20683000
13.97705078,-78.92502000
14.00756836,-78.61018000
14.03808594,-81.71901000
14.06860352,-88.08690000
14.09912109,-85.32360000
14.12963867,-81.54723000
14.16015625,-81.49275000
14.19067383,-84.78039000
14.22119141,-91.18476000
14.25170898,-98.92300000
14.28222656,-109.51370000
14.31274414,-92.84489000
14.34326172,-83.17742000
14.37377930,-79.36209000
14.40429688,-78.99537000
14.43481445,-79.15794000
14.46533203,-79.69536000
14.49584961,-85.41945000
14.52636719,-87.79877000
14.55688477,-84.70161000
14.58740234,-94.59949000
14.61791992,-92.57571000
14.64843750,-102.38250000
14.67895508,-87.99898000
14.70947266,-86.13732000
14.73999023,-98.94586000
14.77050781,-84.95686000
14.80102539,-82.86606000
14.83154297,-82.46599000
14.86206055,-77.70637000
14.89257813,-74.04071000
14.92309570,-73.16022000
14.95361328,-75.06033000
14.98413086,-77.55639000
15.01464844,-76.78972000
15.04516602,-77.93575000
15.07568359,-84.53075000
15.10620117,-86.08542000
15.13671875,-85.15656000
15.16723633,-92.51982000
15.19775391,-92.36259000
15.22827148,-82.74072000
15.25878906,-80.95042000
15.28930664,-84.40170000
15.31982422,-78.92159000
15.35034180,-77.16322000
15.38085938,-82.21104000
15.41137695,-92.51870000
15.44189453,-83.74182000
15.47241211,-85.89992000
15.50292969,-97.92266000
15.53344727,-88.69899000
15.56396484,-86.67535000
15.59448242,-87.85194000
15.62500000,-85.09108000
15.65551758,-82.68970000
15.68603516,-85.33653000
15.71655273,-84.14137000
15.74707031,-79.76476000
15.77758789,-80.84537000
15.80810547,-85.97352000
15.83862305,-88.37886000
15.86914063,-87.58865000
15.89965820,-83.71782000
15.93017578,-84.06447000
15.96069336,-85.71484000
15.99121094,-83.53088000
16.02172852,-83.91933000
16.05224609,-88.00671000
16.08276367,-97.48605000
16.11328125,-95.03166000
16.14379883,-85.18258000
16.17431641,-81.59760000
16.20483398,-80.43385000
16.23535156,-79.92858000
16.26586914,-80.11169000
16.29638672,-81.40730000
16.32690430,-83.91196000
16.35742188,-86.49489000
16.38793945,-88.44453000
16.41845703,-95.51271000
16.44897461,-102.79400000
16.47949219,-102.42600000
16.51000977,-94.76555000
16.54052734,-89.84775000
16.57104492,-93.28183000
16.60156250,-97.27380000
16.63208008,-87.21684000
16.66259766,-84.17148000
16.69311523,-83.42956000
16.72363281,-84.01783000
16.75415039,-86.34724000
16.78466797,-88.69056000
16.81518555,-86.28355000
16.84570313,-84.49406000
16.87622070,-86.57751000
16.90673828,-97.59582000
16.93725586,-90.55474000
16.96777344,-88.80618000
16.99829102,-86.11190000
17.02880859,-82.78870000
17.05932617,-82.31262000
17.08984375,-83.28294000
17.12036133,-85.31525000
17.15087891,-89.75738000
17.18139648,-95.44731000
17.21191406,-94.50919000
17.24243164,-93.12679000
17.27294922,-91.42029000
17.30346680,-93.20953000
17.33398438,-105.46550000
17.36450195,-88.91936000
17.39501953,-86.15342000
17.42553711,-89.52341000
17.45605469,-93.60210000
17.48657227,-86.60699000
17.51708984,-84.79588000
17.54760742,-85.66136000
17.57812500,-86.21512000
17.60864258,-85.86389000
17.63916016,-84.73807000
17.66967773,-81.73523000
17.70019531,-79.87885000
17.73071289,-81.11795000
17.76123047,-85.72315000
17.79174805,-86.42123000
17.82226563,-85.43382000
17.85278320,-85.94006000
17.88330078,-85.90231000
17.91381836,-88.37364000
17.94433594,-97.08858000
17.97485352,-91.27578000
18.00537109,-87.38336000
18.03588867,-88.46323000
18.06640625,-93.19122000
18.09692383,-102.63030000
18.12744141,-103.58010000
18.15795898,-92.07484000
18.18847656,-87.21997000
18.21899414,-86.00218000
18.24951172,-88.41862000
18.28002930,-95.06078000
18.31054688,-96.25698000
18.34106445,-97.09836000
18.37158203,-102.81440000
18.40209961,-91.50364000
18.43261719,-88.27498000
18.46313477,-88.51868000
18.49365234,-90.63527000
18.52416992,-92.73644000
18.55468750,-94.36118000
18.58520508,-99.28426000
18.61572266,-95.91879000
18.64624023,-92.32150000
18.67675781,-93.65605000
18.70727539,-99.68275000
18.73779297,-112.16710000
18.76831055,-98.80659000
18.79882813,-92.62031000
18.82934570,-90.02689000
18.85986328,-90.66461000
18.89038086,-97.14119000
18.92089844,-97.11770000
18.95141602,-90.37675000
18.98193359,-89.89285000
19.01245117,-92.36722000
19.04296875,-95.73539000
19.07348633,-104.86430000
19.10400391,-99.76227000
19.13452148,-95.45149000
19.16503906,-98.21629000
19.19555664,-109.91750000
19.22607422,-105.00810000
19.25659180,-98.31025000
19.28710938,-98.04978000
19.31762695,-100.21650000
19.34814453,-101.65140000
19.37866211,-111.42490000
19.40917969,-103.73240000
19.43969727,-97.26731000
19.47021484,-97.24525000
19.50073242,-103.82080000
19.53125000,-100.67920000
19.56176758,-94.17303000
19.59228516,-91.65063000
19.62280273,-91.89246000
19.65332031,-96.15532000
19.68383789,-96.45072000
19.71435547,-88.26215000
19.74487305,-85.45119000
19.77539063,-87.27551000
19.80590820,-95.51219000
19.83642578,-95.04034000
19.86694336,-93.09078000
19.89746094,-92.65420000
19.92797852,-88.80534000
19.95849609,-86.64397000
19.98901367,-86.89789000
20.01953125,-89.26459000
20.05004883,-93.00599000
20.08056641,-94.53543000
20.11108398,-93.61729000
20.14160156,-94.15634000
20.17211914,-93.22096000
20.20263672,-91.85668000
20.23315430,-93.28145000
20.26367188,-99.43432000
20.29418945,-93.00186000
20.32470703,-87.11499000
20.35522461,-85.51492000
20.38574219,-86.92954000
20.41625977,-91.14651000
20.44677734,-92.99468000
20.47729492,-92.41875000
20.50781250,-96.56290000
20.53833008,-95.76740000
20.56884766,-92.66484000
20.59936523,-94.68105000
20.62988281,-95.35496000
20.66040039,-90.70689000
20.69091797,-89.33740000
20.72143555,-91.43672000
20.75195313,-98.49452000
20.78247070,-104.35450000
20.81298828,-95.95593000
20.84350586,-91.16738000
20.87402344,-88.13338000
20.90454102,-87.67403000
20.93505859,-89.35422000
20.96557617,-91.98848000
20.99609375,-94.40185000
21.02661133,-101.20340000
21.05712891,-99.24576000
21.08764648,-91.80682000
21.11816406,-92.63076000
21.14868164,-98.46709000
21.17919922,-95.74027000
21.20971680,-91.38153000
21.24023438,-88.32628000
21.27075195,-87.70051000
21.30126953,-90.63740000
21.33178711,-95.27777000
21.36230469,-90.61028000
21.39282227,-91.02782000
21.42333984,-102.40830000
21.45385742,-90.38795000
21.48437500,-86.68250000
21.51489258,-87.73029000
21.54541016,-91.07401000
21.57592773,-92.76985000
21.60644531,-96.57181000
21.63696289,-101.49980000
21.66748047,-93.21120000
21.69799805,-89.47366000
21.72851563,-88.00699000
21.75903320,-89.15269000
21.78955078,-92.57735000
21.82006836,-97.75558000
21.85058594,-97.15332000
21.88110352,-89.68110000
21.91162109,-87.75188000
21.94213867,-89.48476000
21.97265625,-89.61727000
22.00317383,-87.45396000
22.03369141,-88.37463000
22.06420898,-91.49152000
22.09472656,-89.67926000
22.12524414,-88.65837000
22.15576172,-91.96164000
22.18627930,-106.67350000
22.21679688,-95.26318000
22.24731445,-90.21465000
22.27783203,-90.36058000
22.30834961,-92.40218000
22.33886719,-89.28308000
22.36938477,-87.25560000
22.39990234,-89.09769000
22.43041992,-97.18398000
22.46093750,-99.00354000
22.49145508,-93.97755000
22.52197266,-97.02089000
22.55249023,-105.84280000
22.58300781,-96.52785000
22.61352539,-94.59598000
22.64404297,-96.89510000
22.67456055,-105.91680000
22.70507813,-96.97057000
22.73559570,-91.50788000
22.76611328,-90.97171000
22.79663086,-94.03976000
22.82714844,-95.96402000
22.85766602,-95.66680000
22.88818359,-95.82687000
22.91870117,-91.93721000
22.94921875,-90.85493000
22.97973633,-92.95659000
23.01025391,-93.90016000
23.04077148,-90.59147000
23.07128906,-88.51937000
23.10180664,-89.85576000
23.13232422,-95.20690000
23.16284180,-94.63168000
23.19335938,-92.64828000
23.22387695,-95.44087000
23.25439453,-106.23940000
23.28491211,-102.00200000
23.31542969,-94.07240000
23.34594727,-91.09445000
23.37646484,-90.69144000
23.40698242,-92.25314000
23.43750000,-93.52325000
23.46801758,-93.08831000
23.49853516,-92.51662000
23.52905273,-92.55921000
23.55957031,-94.96953000
23.59008789,-99.82115000
23.62060547,-97.99725000
23.65112305,-92.02782000
23.68164063,-88.49561000
23.71215820,-86.99855000
23.74267578,-86.91034000
23.77319336,-87.89474000
23.80371094,-89.53859000
23.83422852,-92.06653000
23.86474609,-94.89549000
23.89526367,-94.28510000
23.92578125,-94.38704000
23.95629883,-100.62550000
23.98681641,-104.31000000
24.01733398,-95.49867000
24.04785156,-96.27277000
24.07836914,-103.96400000
24.10888672,-95.52411000
24.13940430,-91.81261000
24.16992188,-92.69024000
24.20043945,-93.33925000
24.23095703,-90.48352000
24.26147461,-90.80033000
24.29199219,-95.67337000
24.32250977,-99.58731000
24.35302734,-99.73407000
24.38354492,-97.85056000
24.41406250,-92.96529000
24.44458008,-91.71707000
24.47509766,-93.98691000
24.50561523,-100.84780000
24.53613281,-108.08900000
24.56665039,-116.03570000
24.59716797,-98.24853000
24.62768555,-91.70620000
24.65820313,-90.65324000
24.68872070,-91.86157000
24.71923828,-91.63253000
24.74975586,-92.04269000
24.78027344,-92.60612000
24.81079102,-92.58358000
24.84130859,-94.08276000
24.87182617,-94.52977000
24.90234375,-96.71710000
24.93286133,-97.78998000
24.96337891,-92.73547000
24.99389648,-92.23018000
25.02441406,-91.22047000
25.05493164,-89.54530000
25.08544922,-92.87830000
25.11596680,-100.63900000
25.14648438,-91.39456000
25.17700195,-90.18703000
25.20751953,-93.86993000
25.23803711,-103.30200000
25.26855469,-96.28388000
25.29907227,-94.36052000
25.32958984,-91.09886000
25.36010742,-87.49172000
25.39062500,-87.29301000
25.42114258,-90.37574000
25.45166016,-96.34274000
25.48217773,-103.62580000
25.51269531,-95.05754000
25.54321289,-91.21715000
25.57373047,-91.83516000
25.60424805,-94.83859000
25.63476563,-95.28227000
25.66528320,-95.53206000
25.69580078,-98.55441000
25.72631836,-102.52870000
25.75683594,-96.19235000
25.78735352,-93.99944000
25.81787109,-97.97607000
25.84838867,-115.15850000
25.87890625,-103.85810000
25.90942383,-102.91900000
25.93994141,-94.05026000
25.97045898,-92.30087000
26.00097656,-96.10436000
26.03149414,-95.18573000
26.06201172,-91.67267000
26.09252930,-92.88774000
26.12304688,-99.11111000
26.15356445,-115.99960000
26.18408203,-104.56960000
26.21459961,-97.97034000
26.24511719,-96.33542000
26.27563477,-94.63563000
26.30615234,-89.81358000
26.33666992,-87.32543000
26.36718750,-87.15173000
26.39770508,-88.19988000
26.42822266,-90.06931000
26.45874023,-92.24175000
26.48925781,-93.32576000
26.51977539,-92.76153000
26.55029297,-90.89420000
26.58081055,-92.28623000
26.61132813,-103.82730000
26.64184570,-99.14246000
26.67236328,-96.34377000
26.70288086,-99.45191000
26.73339844,-106.24720000
26.76391602,-101.56600000
26.79443359,-96.82936000
26.82495117,-100.70930000
26.85546875,-95.78763000
26.88598633,-92.59718000
26.91650391,-95.44064000
26.94702148,-96.95055000
26.97753906,-93.57646000
27.00805664,-94.04007000
27.03857422,-97.60418000
27.06909180,-99.77520000
27.09960938,-97.42346000
27.13012695,-96.65031000
27.16064453,-98.85231000
27.19116211,-104.93960000
27.22167969,-104.27180000
27.25219727,-95.67416000
27.28271484,-93.60289000
27.31323242,-94.97654000
27.34375000,-94.81703000
27.37426758,-95.01714000
27.40478516,-98.25996000
27.43530273,-100.04900000
27.46582031,-96.38119000
27.49633789,-94.82636000
27.52685547,-98.09711000
27.55737305,-109.13860000
27.58789063,-111.54960000
27.61840820,-99.04236000
27.64892578,-92.99136000
27.67944336,-90.69675000
27.70996094,-89.99174000
27.74047852,-89.23504000
27.77099609,-88.19725000
27.80151367,-87.78903000
27.83203125,-89.47842000
27.86254883,-95.62501000
27.89306641,-100.02950000
27.92358398,-95.20354000
27.95410156,-97.24895000
27.98461914,-103.56060000
28.01513672,-107.26170000
28.04565430,-102.80550000
28.07617188,-98.72497000
28.10668945,-97.12573000
28.13720703,-95.26993000
28.16772461,-94.41914000
28.19824219,-94.86820000
28.22875977,-95.87521000
28.25927734,-98.77151000
28.28979492,-102.40470000
28.32031250,-100.10930000
28.35083008,-101.11930000
28.38134766,-108.05670000
28.41186523,-105.36400000
28.44238281,-103.14970000
28.47290039,-108.36420000
28.50341797,-104.91630000
28.53393555,-97.67409000
28.56445313,-96.34605000
28.59497070,-93.95346000
28.62548828,-90.35758000
28.65600586,-91.09481000
28.68652344,-100.12660000
28.71704102,-102.50410000
28.74755859,-100.83500000
28.77807617,-117.11170000
28.80859375,-104.14830000
28.83911133,-112.38290000
28.86962891,-106.28080000
28.90014648,-109.68680000
28.93066406,-95.14545000
28.96118164,-92.39807000
28.99169922,-95.94443000
29.02221680,-100.24500000
29.05273438,-94.96360000
29.08325195,-93.24876000
29.11376953,-93.59264000
29.14428711,-97.44930000
29.17480469,-103.73960000
29.20532227,-99.06462000
29.23583984,-98.32281000
29.26635742,-98.75729000
29.29687500,-98.24093000
29.32739258,-98.90602000
29.35791016,-105.68730000
29.38842773,-96.54660000
29.41894531,-91.08432000
29.44946289,-91.06894000
29.47998047,-96.87944000
29.51049805,-93.19290000
29.54101563,-88.74316000
29.57153320,-89.25323000
29.60205078,-93.56448000
29.63256836,-99.99837000
29.66308594,-99.66309000
29.69360352,-95.59760000
29.72412109,-94.27539000
29.75463867,-95.76417000
29.78515625,-95.81909000
29.81567383,-93.15202000
29.84619141,-91.90253000
29.87670898,-92.64232000
29.90722656,-93.84094000
29.93774414,-91.59799000
29.96826172,-89.13612000
29.99877930,-88.97406000
30.02929688,-91.89824000
30.05981445,-99.26960000
30.09033203,-98.86078000
30.12084961,-99.66381000
30.15136719,-106.95960000
30.18188477,-95.66288000
30.21240234,-92.56283000
30.24291992,-93.45534000
30.27343750,-95.32012000
30.30395508,-94.80054000
30.33447266,-93.37632000
30.36499023,-91.29753000
30.39550781,-90.53322000
30.42602539,-90.47420000
30.45654297,-90.64902000
30.48706055,-92.32596000
30.51757813,-98.15049000
30.54809570,-113.31680000
30.57861328,-102.60410000
30.60913086,-98.36928000
30.63964844,-95.97314000
30.67016602,-99.61312000
30.70068359,-115.97110000
30.73120117,-125.60480000
30.76171875,-103.76600000
30.79223633,-96.98070000
30.82275391,-96.02589000
30.85327148,-99.50440000
30.88378906,-104.06910000
30.91430664,-95.93321000
30.94482422,-93.94717000
30.97534180,-96.55745000
31.00585938,-102.80880000
31.03637695,-108.39870000
31.06689453,-103.29800000
31.09741211,-102.04380000
31.12792969,-109.96530000
31.15844727,-100.59110000
31.18896484,-97.88056000
31.21948242,-102.42280000
31.25000000,-103.12100000
31.28051758,-103.62770000
31.31103516,-113.05840000
31.34155273,-104.44110000
31.37207031,-110.33160000
31.40258789,-95.99809000
31.43310547,-91.84193000
31.46362305,-91.88489000
31.49414063,-94.71726000
31.52465820,-99.07327000
31.55517578,-100.21040000
31.58569336,-96.12570000
31.61621094,-93.25656000
31.64672852,-94.10277000
31.67724609,-98.88566000
31.70776367,-98.76640000
31.73828125,-94.86472000
31.76879883,-91.15016000
31.79931641,-88.96552000
31.82983398,-88.85269000
31.86035156,-90.78377000
31.89086914,-93.70627000
31.92138672,-94.46051000
31.95190430,-92.77200000
31.98242188,-91.75919000
32.01293945,-94.48127000
32.04345703,-104.11230000
32.07397461,-99.77184000
32.10449219,-101.62670000
32.13500977,-99.41998000
32.16552734,-93.32681000
32.19604492,-91.83339000
32.22656250,-93.70277000
32.25708008,-102.32250000
32.28759766,-97.43102000
32.31811523,-93.06551000
32.34863281,-92.78381000
32.37915039,-92.48077000
32.40966797,-93.60480000
32.44018555,-94.09688000
32.47070313,-91.85993000
32.50122070,-93.05222000
32.53173828,-95.78312000
32.56225586,-97.75723000
32.59277344,-111.87220000
32.62329102,-95.36084000
32.65380859,-94.36276000
32.68432617,-103.68440000
32.71484375,-102.54600000
32.74536133,-97.32871000
32.77587891,-97.55875000
32.80639648,-103.87420000
32.83691406,-102.51130000
32.86743164,-98.72466000
32.89794922,-106.51030000
32.92846680,-101.69300000
32.95898438,-93.89161000
32.98950195,-90.87752000
33.02001953,-89.77309000
33.05053711,-90.59043000
33.08105469,-94.22685000
33.11157227,-101.63420000
33.14208984,-99.31243000
33.17260742,-96.16080000
33.20312500,-96.72943000
33.23364258,-99.62943000
33.26416016,-100.51670000
33.29467773,-98.47984000
33.32519531,-97.92940000
33.35571289,-101.30130000
33.38623047,-112.86270000
33.41674805,-97.69260000
33.44726563,-94.87331000
33.47778320,-100.19800000
33.50830078,-105.09970000
33.53881836,-96.78631000
33.56933594,-97.40506000
33.59985352,-100.27570000
33.63037109,-107.38210000
33.66088867,-109.27900000
33.69140625,-106.96770000
33.72192383,-105.83550000
33.75244141,-100.90330000
33.78295898,-103.50110000
33.81347656,-123.22690000
33.84399414,-105.87470000
33.87451172,-101.78650000
33.90502930,-96.30006000
33.93554688,-93.29995000
33.96606445,-94.41362000
33.99658203,-101.14430000
34.02709961,-102.86780000
34.05761719,-100.00890000
34.08813477,-101.25890000
34.11865234,-100.70400000
34.14916992,-97.55372000
34.17968750,-97.43092000
34.21020508,-101.61900000
34.24072266,-111.81010000
34.27124023,-103.51360000
34.30175781,-102.01370000
34.33227539,-118.78080000
34.36279297,-101.14720000
34.39331055,-95.79747000
34.42382813,-92.33432000
34.45434570,-89.94151000
34.48486328,-88.94058000
34.51538086,-88.36785000
34.54589844,-87.47692000
34.57641602,-86.90210000
34.60693359,-87.89031000
34.63745117,-91.68060000
34.66796875,-101.67740000
34.69848633,-106.77850000
34.72900391,-99.86747000
34.75952148,-94.27041000
34.79003906,-90.70929000
34.82055664,-91.28899000
34.85107422,-96.78387000
34.88159180,-102.82400000
34.91210938,-101.22940000
34.94262695,-102.15340000
34.97314453,-98.01640000
35.00366211,-95.63411000
35.03417969,-96.40118000
35.06469727,-98.48293000
35.09521484,-98.14217000
35.12573242,-99.26935000
35.15625000,-103.74910000
35.18676758,-102.57470000
35.21728516,-96.96066000
35.24780273,-92.97618000
35.27832031,-92.91533000
35.30883789,-97.40340000
35.33935547,-105.08150000
35.36987305,-106.59370000
35.40039063,-98.17733000
35.43090820,-96.39127000
35.46142578,-103.22830000
35.49194336,-100.74660000
35.52246094,-96.93884000
35.55297852,-101.43500000
35.58349609,-104.64790000
35.61401367,-100.02450000
35.64453125,-100.17150000
35.67504883,-103.13730000
35.70556641,-110.52450000
35.73608398,-97.29664000
35.76660156,-94.30981000
35.79711914,-93.82813000
35.82763672,-94.07053000
35.85815430,-96.90582000
35.88867188,-96.77289000
35.91918945,-93.98324000
35.94970703,-94.61761000
35.98022461,-96.98700000
36.01074219,-98.88403000
36.04125977,-99.14703000
36.07177734,-97.61519000
36.10229492,-99.95826000
36.13281250,-130.51840000
36.16333008,-99.82584000
36.19384766,-95.73877000
36.22436523,-94.71066000
36.25488281,-94.44302000
36.28540039,-94.67957000
36.31591797,-95.65543000
36.34643555,-97.73773000
36.37695313,-102.34410000
36.40747070,-109.85820000
36.43798828,-102.00200000
36.46850586,-98.57335000
36.49902344,-103.17800000
36.52954102,-103.50180000
36.56005859,-94.48304000
36.59057617,-92.44018000
36.62109375,-92.62214000
36.65161133,-93.31574000
36.68212891,-93.96629000
36.71264648,-92.92996000
36.74316406,-92.73232000
36.77368164,-97.21546000
36.80419922,-102.30610000
36.83471680,-95.83051000
36.86523438,-94.43420000
36.89575195,-94.08013000
36.92626953,-92.52942000
36.95678711,-91.27951000
36.98730469,-92.04683000
37.01782227,-94.73386000
37.04833984,-97.24454000
37.07885742,-97.31792000
37.10937500,-97.02156000
37.13989258,-99.05241000
37.17041016,-101.97730000
37.20092773,-101.14120000
37.23144531,-102.45130000
37.26196289,-109.55740000
37.29248047,-103.42940000
37.32299805,-97.56883000
37.35351563,-95.72312000
37.38403320,-97.32407000
37.41455078,-101.49230000
37.44506836,-98.40550000
37.47558594,-95.00629000
37.50610352,-92.31124000
37.53662109,-91.16710000
37.56713867,-94.17606000
37.59765625,-109.94190000
37.62817383,-100.53000000
37.65869141,-97.90325000
37.68920898,-96.41714000
37.71972656,-93.55920000
37.75024414,-91.76347000
37.78076172,-91.60324000
37.81127930,-93.30169000
37.84179688,-96.74292000
37.87231445,-102.50740000
37.90283203,-113.27980000
37.93334961,-97.54548000
37.96386719,-94.46936000
37.99438477,-95.86255000
38.02490234,-100.14160000
38.05541992,-104.30340000
38.08593750,-106.16490000
38.11645508,-106.28150000
38.14697266,-103.35390000
38.17749023,-98.10455000
38.20800781,-93.92032000
38.23852539,-92.13947000
38.26904297,-92.71036000
38.29956055,-94.63265000
38.33007813,-96.49345000
38.36059570,-99.70544000
38.39111328,-98.91852000
38.42163086,-94.40079000
38.45214844,-93.02291000
38.48266602,-93.64868000
38.51318359,-94.71272000
38.54370117,-95.09396000
38.57421875,-95.47084000
38.60473633,-97.10074000
38.63525391,-100.41480000
38.66577148,-113.41860000
38.69628906,-98.88266000
38.72680664,-92.27550000
38.75732422,-91.11980000
38.78784180,-94.93278000
38.81835938,-124.17470000
38.84887695,-95.19200000
38.87939453,-92.39792000
38.90991211,-93.14849000
38.94042969,-94.14242000
38.97094727,-95.09144000
39.00146484,-97.68260000
39.03198242,-99.83833000
39.06250000,-101.77130000
39.09301758,-105.37550000
39.12353516,-101.41980000
39.15405273,-96.71653000
39.18457031,-93.07044000
39.21508789,-91.65001000
39.24560547,-91.80428000
39.27612305,-92.51480000
39.30664063,-93.02873000
39.33715820,-92.99170000
39.36767578,-93.43677000
39.39819336,-96.86135000
39.42871094,-108.25370000
39.45922852,-95.92033000
39.48974609,-92.39270000
39.52026367,-93.31593000
39.55078125,-96.56927000
39.58129883,-98.55051000
39.61181641,-97.52605000
39.64233398,-96.03802000
39.67285156,-98.14914000
39.70336914,-104.62450000
39.73388672,-100.83660000
39.76440430,-102.27070000
39.79492188,-101.35000000
39.82543945,-94.56642000
39.85595703,-93.19485000
39.88647461,-95.44540000
39.91699219,-100.06470000
39.94750977,-105.10250000
39.97802734,-102.73010000
40.00854492,-101.39380000
40.03906250,-103.26430000
40.06958008,-98.09088000
40.10009766,-92.66403000
40.13061523,-90.38108000
40.16113281,-91.42147000
40.19165039,-95.11841000
40.22216797,-97.63725000
40.25268555,-97.11627000
40.28320313,-93.84594000
40.31372070,-92.76512000
40.34423828,-96.82428000
40.37475586,-100.61420000
40.40527344,-91.91956000
40.43579102,-89.37794000
40.46630859,-89.90530000
40.49682617,-91.69069000
40.52734375,-93.02184000
40.55786133,-96.30662000
40.58837891,-107.51670000
40.61889648,-96.00954000
40.64941406,-93.56319000
40.67993164,-96.49387000
40.71044922,-103.33000000
40.74096680,-104.62110000
40.77148438,-98.98094000
40.80200195,-93.07693000
40.83251953,-89.77744000
40.86303711,-89.91795000
40.89355469,-94.90144000
40.92407227,-94.74892000
40.95458984,-91.68343000
40.98510742,-95.62343000
41.01562500,-104.01360000
41.04614258,-96.94656000
41.07666016,-93.60623000
41.10717773,-90.72995000
41.13769531,-90.32401000
41.16821289,-91.10619000
41.19873047,-90.15211000
41.22924805,-89.20158000
41.25976563,-90.56094000
41.29028320,-96.49445000
41.32080078,-109.00570000
41.35131836,-95.29663000
41.38183594,-92.26888000
41.41235352,-91.67198000
41.44287109,-92.77470000
41.47338867,-94.96605000
41.50390625,-96.05216000
41.53442383,-97.09279000
41.56494141,-95.35266000
41.59545898,-89.08652000
41.62597656,-85.53580000
41.65649414,-84.86980000
41.68701172,-86.98595000
41.71752930,-92.05532000
41.74804688,-97.96619000
41.77856445,-94.15300000
41.80908203,-89.08103000
41.83959961,-86.01945000
41.87011719,-84.88289000
41.90063477,-85.71229000
41.93115234,-88.34753000
41.96166992,-92.48086000
41.99218750,-98.09746000
42.02270508,-100.44700000
42.05322266,-100.03210000
42.08374023,-103.19050000
42.11425781,-109.09520000
42.14477539,-110.13210000
42.17529297,-104.47730000
42.20581055,-97.15387000
42.23632813,-90.12399000
42.26684570,-85.99619000
42.29736328,-84.97493000
42.32788086,-86.15523000
42.35839844,-87.37640000
42.38891602,-87.82837000
42.41943359,-88.94326000
42.44995117,-91.80426000
42.48046875,-97.42818000
42.51098633,-106.50180000
42.54150391,-105.25280000
42.57202148,-97.11806000
42.60253906,-93.51447000
42.63305664,-93.42263000
42.66357422,-96.07245000
42.69409180,-97.46164000
42.72460938,-96.37566000
42.75512695,-97.01008000
42.78564453,-101.31950000
42.81616211,-107.00060000
42.84667969,-93.18859000
42.87719727,-86.65183000
42.90771484,-83.04236000
42.93823242,-82.17439000
42.96875000,-84.49973000
42.99926758,-90.74811000
43.02978516,-91.80328000
43.06030273,-88.37677000
43.09082031,-87.74405000
43.12133789,-88.55093000
43.15185547,-89.56382000
43.18237305,-89.91338000
43.21289063,-90.19646000
43.24340820,-91.65161000
43.27392578,-94.70886000
43.30444336,-94.23066000
43.33496094,-90.52436000
43.36547852,-88.84612000
43.39599609,-89.02663000
43.42651367,-90.78345000
43.45703125,-95.44839000
43.48754883,-108.48330000
43.51806641,-94.06096000
43.54858398,-89.54086000
43.57910156,-88.56259000
43.60961914,-90.28039000
43.64013672,-95.77930000
43.67065430,-103.56710000
43.70117188,-97.14023000
43.73168945,-96.09153000
43.76220703,-97.00610000
43.79272461,-101.25170000
43.82324219,-104.95030000
43.85375977,-94.10954000
43.88427734,-90.15057000
43.91479492,-88.89662000
43.94531250,-89.84002000
43.97583008,-92.97683000
44.00634766,-95.77171000
44.03686523,-95.48471000
44.06738281,-97.33971000
44.09790039,-96.70846000
44.12841797,-92.34747000
44.15893555,-91.00072000
44.18945313,-92.30443000
44.21997070,-97.48188000
44.25048828,-112.56020000
44.28100586,-96.29409000
44.31152344,-93.55186000
44.34204102,-90.84511000
44.37255859,-88.54968000
44.40307617,-89.07525000
44.43359375,-91.38145000
44.46411133,-92.52502000
44.49462891,-91.05709000
44.52514648,-88.02303000
44.55566406,-86.55082000
44.58618164,-86.84684000
44.61669922,-88.30769000
44.64721680,-90.81454000
44.67773438,-94.07853000
44.70825195,-95.65250000
44.73876953,-94.46548000
44.76928711,-92.90567000
44.79980469,-92.06142000
44.83032227,-92.43674000
44.86083984,-93.67073000
44.89135742,-94.25345000
44.92187500,-93.78609000
44.95239258,-93.83527000
44.98291016,-95.82664000
45.01342773,-101.18500000
45.04394531,-111.95690000
45.07446289,-101.36010000
45.10498047,-95.84400000
45.13549805,-93.26126000
45.16601563,-92.93735000
45.19653320,-94.50922000
45.22705078,-97.48048000
45.25756836,-99.85335000
45.28808594,-99.52118000
45.31860352,-98.83491000
45.34912109,-100.16740000
45.37963867,-102.14600000
45.41015625,-99.72963000
45.44067383,-96.25581000
45.47119141,-94.12935000
45.50170898,-93.70847000
45.53222656,-95.38026000
45.56274414,-99.25337000
45.59326172,-97.62820000
45.62377930,-94.17775000
45.65429688,-93.54107000
45.68481445,-95.62249000
45.71533203,-103.54280000
45.74584961,-102.08630000
45.77636719,-93.30235000
45.80688477,-90.73561000
45.83740234,-91.40350000
45.86791992,-94.28867000
45.89843750,-93.61756000
45.92895508,-91.06805000
45.95947266,-91.45229000
45.98999023,-94.68064000
46.02050781,-98.15086000
46.05102539,-96.66846000
46.08154297,-93.14278000
46.11206055,-91.86890000
46.14257813,-94.05196000
46.17309570,-99.15472000
46.20361328,-101.27230000
46.23413086,-99.26288000
46.26464844,-94.44267000
46.29516602,-92.47609000
46.32568359,-92.90460000
46.35620117,-94.12556000
46.38671875,-96.13997000
46.41723633,-101.18290000
46.44775391,-131.99320000
46.47827148,-102.62910000
46.50878906,-99.35628000
46.53930664,-97.55730000
46.56982422,-96.96318000
46.60034180,-99.87720000
46.63085938,-106.15200000
46.66137695,-105.04870000
46.69189453,-107.22050000
46.72241211,-107.53720000
46.75292969,-100.15120000
46.78344727,-102.54700000
46.81396484,-102.20380000
46.84448242,-93.45466000
46.87500000,-91.73663000
46.90551758,-93.04701000
46.93603516,-93.49080000
46.96655273,-93.76889000
46.99707031,-99.25117000
47.02758789,-104.82150000
47.05810547,-94.22523000
47.08862305,-92.99347000
47.11914063,-95.63180000
47.14965820,-99.40694000
47.18017578,-98.81593000
47.21069336,-94.70859000
47.24121094,-91.62537000
47.27172852,-90.56438000
47.30224609,-91.19775000
47.33276367,-91.97572000
47.36328125,-91.83412000
47.39379883,-92.25969000
47.42431641,-94.38725000
47.45483398,-99.27171000
47.48535156,-97.09515000
47.51586914,-91.38510000
47.54638672,-88.88180000
47.57690430,-88.77079000
47.60742188,-90.51678000
47.63793945,-92.78810000
47.66845703,-93.20572000
47.69897461,-92.02951000
47.72949219,-91.95399000
47.76000977,-94.44602000
47.79052734,-98.78902000
47.82104492,-99.37140000
47.85156250,-97.87004000
47.88208008,-97.67526000
47.91259766,-98.17436000
47.94311523,-97.31760000
47.97363281,-95.90263000
48.00415039,-95.22655000
48.03466797,-94.14134000
48.06518555,-92.72027000
48.09570313,-93.40517000
48.12622070,-98.76747000
48.15673828,-103.10220000
48.18725586,-97.39914000
48.21777344,-96.13968000
48.24829102,-95.84740000
48.27880859,-100.16130000
48.30932617,-104.96000000
48.33984375,-98.37799000
48.37036133,-101.78800000
48.40087891,-101.20060000
48.43139648,-95.19991000
48.46191406,-93.06247000
48.49243164,-93.34933000
48.52294922,-96.54770000
48.55346680,-103.18880000
48.58398438,-105.69950000
48.61450195,-99.93739000
48.64501953,-97.02129000
48.67553711,-98.59651000
48.70605469,-108.42090000
48.73657227,-109.88540000
48.76708984,-107.79550000
48.79760742,-111.97730000
48.82812500,-113.33860000
48.85864258,-106.53930000
48.88916016,-102.76720000
48.91967773,-109.35200000
48.95019531,-105.21390000
48.98071289,-100.45530000
49.01123047,-101.29540000
49.04174805,-102.81910000
49.07226563,-106.79980000
49.10278320,-105.03560000
49.13330078,-95.42233000
49.16381836,-92.16383000
49.19433594,-91.83442000
49.22485352,-93.33168000
49.25537109,-97.49948000
49.28588867,-104.80360000
49.31640625,-103.53030000
49.34692383,-109.00130000
49.37744141,-108.00850000
49.40795898,-98.92741000
49.43847656,-95.05867000
49.46899414,-92.45152000
49.49951172,-91.00867000
49.53002930,-91.56651000
49.56054688,-95.66822000
49.59106445,-110.55080000
49.62158203,-98.38806000
49.65209961,-94.03531000
49.68261719,-92.57582000
49.71313477,-92.72647000
49.74365234,-94.69193000
49.77416992,-98.37439000
49.80468750,-101.18300000
49.83520508,-100.67400000
49.86572266,-105.40160000
49.89624023,-103.65350000
49.92675781,-93.13985000
49.95727539,-89.84564000
49.98779297,-90.35636000
50.01831055,-95.06680000
