Frequency,Channel A
(MHz),(dBu)

0.00000000,-24.37585000
0.03051758,-24.80208000
0.06103516,-30.23875000
0.09155273,-40.93068000
0.12207031,-60.05365000
0.15258789,-56.91051000
0.18310547,-58.01998000
0.21362305,-57.08712000
0.24414063,-57.90594000
0.27465820,-60.58862000
0.30517578,-62.19478000
0.33569336,-63.82648000
0.36621094,-68.02168000
0.39672852,-68.15114000
0.42724609,-63.22784000
0.45776367,-59.73853000
0.48828125,-57.40995000
0.51879883,-56.25267000
0.54931641,-56.83090000
0.57983398,-59.33071000
0.61035156,-61.39413000
0.64086914,-60.30981000
0.67138672,-59.75510000
0.70190430,-60.82150000
0.73242188,-62.97979000
0.76293945,-67.94090000
0.79345703,-68.44414000
0.82397461,-62.20711000
0.85449219,-61.45722000
0.88500977,-64.87571000
0.91552734,-73.05553000
0.94604492,-82.03841000
0.97656250,-73.15354000
1.00708008,-73.91461000
1.03759766,-73.20174000
1.06811523,-67.26870000
1.09863281,-64.41639000
1.12915039,-64.28966000
1.15966797,-67.05569000
1.19018555,-72.54762000
1.22070313,-72.80120000
1.25122070,-71.50485000
1.28173828,-72.91574000
1.31225586,-73.46693000
1.34277344,-70.11021000
1.37329102,-68.34836000
1.40380859,-72.49557000
1.43432617,-81.52010000
1.46484375,-70.81384000
1.49536133,-70.44933000
1.52587891,-68.41698000
1.55639648,-66.21754000
1.58691406,-67.08490000
1.61743164,-70.87195000
1.64794922,-74.45435000
1.67846680,-77.59915000
1.70898438,-81.86227000
1.73950195,-78.40511000
1.77001953,-82.22905000
1.80053711,-86.55006000
1.83105469,-78.51514000
1.86157227,-76.87402000
1.89208984,-90.52853000
1.92260742,-77.19182000
1.95312500,-75.56418000
1.98364258,-79.01361000
2.01416016,-73.79739000
2.04467773,-76.36474000
2.07519531,-86.32035000
2.10571289,-73.53019000
2.13623047,-71.92523000
2.16674805,-71.85373000
2.19726563,-72.01606000
2.22778320,-72.29446000
2.25830078,-73.96456000
2.28881836,-78.96799000
2.31933594,-79.03568000
2.34985352,-83.34960000
2.38037109,-87.07776000
2.41088867,-81.20704000
2.44140625,-81.47412000
2.47192383,-77.57293000
2.50244141,-80.74271000
2.53295898,-81.69759000
2.56347656,-73.55238000
2.59399414,-73.75835000
2.62451172,-74.57442000
2.65502930,-73.97220000
2.68554688,-77.06917000
2.71606445,-76.52039000
2.74658203,-82.46139000
2.77709961,-80.80326000
2.80761719,-75.68517000
2.83813477,-79.53531000
2.86865234,-89.09180000
2.89916992,-86.10133000
2.92968750,-86.23155000
2.96020508,-82.30843000
2.99072266,-81.96728000
3.02124023,-78.00111000
3.05175781,-81.45107000
3.08227539,-78.84627000
3.11279297,-70.55299000
3.14331055,-70.13062000
3.17382813,-74.01334000
3.20434570,-77.36260000
3.23486328,-75.23641000
3.26538086,-72.69039000
3.29589844,-73.45046000
3.32641602,-78.98925000
3.35693359,-76.78189000
3.38745117,-74.62437000
3.41796875,-77.04852000
3.44848633,-85.08758000
3.47900391,-82.71597000
3.50952148,-77.34521000
3.54003906,-82.31779000
3.57055664,-85.94947000
3.60107422,-83.98921000
3.63159180,-98.67741000
3.66210938,-80.46947000
3.69262695,-74.87756000
3.72314453,-74.78996000
3.75366211,-81.61129000
3.78417969,-79.45924000
3.81469727,-79.94571000
3.84521484,-82.45265000
3.87573242,-77.13187000
3.90625000,-78.52735000
3.93676758,-95.14810000
3.96728516,-83.67197000
3.99780273,-84.80698000
4.02832031,-83.40191000
4.05883789,-80.95177000
4.08935547,-86.52126000
4.11987305,-86.21629000
4.15039063,-79.11721000
4.18090820,-80.36520000
4.21142578,-96.54248000
4.24194336,-79.84089000
4.27246094,-77.01877000
4.30297852,-76.18890000
4.33349609,-80.49153000
4.36401367,-77.55521000
4.39453125,-74.11230000
4.42504883,-76.58234000
4.45556641,-94.02072000
4.48608398,-78.06229000
4.51660156,-75.27290000
4.54711914,-80.80338000
4.57763672,-77.06761000
4.60815430,-73.69646000
4.63867188,-74.58195000
4.66918945,-80.12781000
4.69970703,-82.91666000
4.73022461,-78.75555000
4.76074219,-78.97078000
4.79125977,-82.47121000
4.82177734,-89.88494000
4.85229492,-82.03500000
4.88281250,-82.92802000
4.91333008,-80.47218000
4.94384766,-83.89840000
4.97436523,-84.41844000
5.00488281,-85.23959000
5.03540039,-87.05703000
5.06591797,-77.80286000
5.09643555,-76.75874000
5.12695313,-80.57452000
5.15747070,-91.35602000
5.18798828,-86.61240000
5.21850586,-90.28106000
5.24902344,-94.67607000
5.27954102,-95.85295000
5.31005859,-83.93157000
5.34057617,-83.16049000
5.37109375,-85.57403000
5.40161133,-82.43448000
5.43212891,-79.16490000
5.46264648,-76.54198000
5.49316406,-77.40927000
5.52368164,-76.65255000
5.55419922,-73.90897000
5.58471680,-76.23887000
5.61523438,-78.08810000
5.64575195,-75.57155000
5.67626953,-74.08217000
5.70678711,-75.00739000
5.73730469,-78.43863000
5.76782227,-85.14163000
5.79833984,-74.67155000
5.82885742,-72.05067000
5.85937500,-74.87074000
5.88989258,-75.69762000
5.92041016,-76.15179000
5.95092773,-74.59217000
5.98144531,-77.60886000
6.01196289,-86.98724000
6.04248047,-79.22627000
6.07299805,-78.41887000
6.10351563,-77.34979000
6.13403320,-73.41193000
6.16455078,-71.79341000
6.19506836,-76.25989000
6.22558594,-89.43533000
6.25610352,-80.52434000
6.28662109,-75.33146000
6.31713867,-75.74299000
6.34765625,-82.41250000
6.37817383,-94.63284000
6.40869141,-80.40894000
6.43920898,-80.01181000
6.46972656,-93.56752000
6.50024414,-86.39943000
6.53076172,-90.81511000
6.56127930,-87.12180000
6.59179688,-82.59064000
6.62231445,-80.25813000
6.65283203,-80.60223000
6.68334961,-80.54352000
6.71386719,-78.76311000
6.74438477,-78.72174000
6.77490234,-81.11866000
6.80541992,-89.32126000
6.83593750,-93.41732000
6.86645508,-89.75608000
6.89697266,-94.77867000
6.92749023,-89.35802000
6.95800781,-82.00843000
6.98852539,-81.53938000
7.01904297,-83.81619000
7.04956055,-83.74246000
7.08007813,-81.97711000
7.11059570,-83.56744000
7.14111328,-93.49171000
7.17163086,-97.24751000
7.20214844,-94.11711000
7.23266602,-92.19112000
7.26318359,-86.78574000
7.29370117,-83.75396000
7.32421875,-85.99030000
7.35473633,-88.92766000
7.38525391,-85.81889000
7.41577148,-85.68885000
7.44628906,-85.18828000
7.47680664,-82.37865000
7.50732422,-80.07271000
7.53784180,-79.24187000
7.56835938,-80.38201000
7.59887695,-83.27396000
7.62939453,-83.95656000
7.65991211,-81.71092000
7.69042969,-81.17671000
7.72094727,-82.30438000
7.75146484,-82.94977000
7.78198242,-84.03858000
7.81250000,-86.21303000
7.84301758,-84.20969000
7.87353516,-81.96315000
7.90405273,-83.47955000
7.93457031,-88.54521000
7.96508789,-96.26619000
7.99560547,-96.39250000
8.02612305,-89.32586000
8.05664063,-85.45440000
8.08715820,-84.36974000
8.11767578,-88.03935000
8.14819336,-88.31981000
8.17871094,-81.81718000
8.20922852,-79.50321000
8.23974609,-80.08523000
8.27026367,-83.80746000
8.30078125,-92.97591000
8.33129883,-90.37605000
8.36181641,-89.83659000
8.39233398,-105.22220000
8.42285156,-91.96152000
8.45336914,-90.67294000
8.48388672,-92.18222000
8.51440430,-94.20297000
8.54492188,-99.13911000
8.57543945,-94.51802000
8.60595703,-85.05095000
8.63647461,-81.18558000
8.66699219,-81.00815000
8.69750977,-82.93706000
8.72802734,-85.41707000
8.75854492,-88.29123000
8.78906250,-91.25579000
8.81958008,-92.36537000
8.85009766,-98.13084000
8.88061523,-93.33150000
8.91113281,-92.27291000
8.94165039,-95.80779000
8.97216797,-99.03033000
9.00268555,-102.08370000
9.03320313,-97.48680000
9.06372070,-87.43488000
9.09423828,-85.91911000
9.12475586,-89.16477000
9.15527344,-94.02534000
9.18579102,-97.85190000
9.21630859,-93.72578000
9.24682617,-90.21798000
9.27734375,-87.60448000
9.30786133,-86.26486000
9.33837891,-87.02753000
9.36889648,-90.26593000
9.39941406,-93.68488000
9.42993164,-92.10132000
9.46044922,-87.77849000
9.49096680,-83.90878000
9.52148438,-81.03062000
9.55200195,-79.60250000
9.58251953,-80.19073000
9.61303711,-83.37592000
9.64355469,-88.53947000
9.67407227,-92.53517000
9.70458984,-92.44262000
9.73510742,-89.14217000
9.76562500,-88.74923000
9.79614258,-88.85323000
9.82666016,-87.41789000
9.85717773,-86.16183000
9.88769531,-84.61035000
9.91821289,-81.37656000
9.94873047,-78.79932000
9.97924805,-77.30536000
10.00976563,-76.71583000
10.04028320,-77.57303000
10.07080078,-80.77290000
10.10131836,-85.27399000
10.13183594,-84.95912000
10.16235352,-85.58458000
10.19287109,-91.18590000
10.22338867,-97.18750000
10.25390625,-89.58823000
10.28442383,-92.01707000
10.31494141,-96.40634000
10.34545898,-90.32121000
10.37597656,-88.05493000
10.40649414,-84.36693000
10.43701172,-81.17456000
10.46752930,-79.47718000
10.49804688,-79.32710000
10.52856445,-80.97469000
10.55908203,-85.52457000
10.58959961,-101.54200000
10.62011719,-89.78095000
10.65063477,-84.43153000
10.68115234,-82.23037000
10.71166992,-81.00273000
10.74218750,-81.61131000
10.77270508,-83.83292000
10.80322266,-87.39481000
10.83374023,-91.99036000
10.86425781,-82.01418000
10.89477539,-80.66125000
10.92529297,-85.08366000
10.95581055,-90.30242000
10.98632813,-94.31618000
11.01684570,-103.36750000
11.04736328,-91.12998000
11.07788086,-87.13434000
11.10839844,-84.23819000
11.13891602,-82.32904000
11.16943359,-81.41710000
11.19995117,-80.32332000
11.23046875,-78.57785000
11.26098633,-78.13181000
11.29150391,-81.37766000
11.32202148,-90.05441000
11.35253906,-86.59576000
11.38305664,-88.96445000
11.41357422,-88.35441000
11.44409180,-82.69514000
11.47460938,-81.00402000
11.50512695,-81.18043000
11.53564453,-83.56030000
11.56616211,-85.95129000
11.59667969,-81.06001000
11.62719727,-79.22617000
11.65771484,-81.02296000
11.68823242,-85.84237000
11.71875000,-94.44808000
11.74926758,-108.59330000
11.77978516,-96.71220000
11.81030273,-88.29305000
11.84082031,-83.79906000
11.87133789,-80.91115000
11.90185547,-79.07581000
11.93237305,-78.48349000
11.96289063,-80.02240000
11.99340820,-84.63851000
12.02392578,-85.79240000
12.05444336,-82.19180000
12.08496094,-82.59270000
12.11547852,-86.18079000
12.14599609,-84.84267000
12.17651367,-82.26979000
12.20703125,-80.78022000
12.23754883,-79.40007000
12.26806641,-78.15800000
12.29858398,-77.37690000
12.32910156,-78.53222000
12.35961914,-83.79937000
12.39013672,-89.30428000
12.42065430,-80.79735000
12.45117188,-77.69654000
12.48168945,-77.41124000
12.51220703,-79.39483000
12.54272461,-83.05775000
12.57324219,-85.41711000
12.60375977,-83.97264000
12.63427734,-81.41155000
12.66479492,-79.74137000
12.69531250,-78.32520000
12.72583008,-77.48990000
12.75634766,-80.47046000
12.78686523,-100.38910000
12.81738281,-81.00014000
12.84790039,-77.37527000
12.87841797,-77.44099000
12.90893555,-79.99964000
12.93945313,-84.25427000
12.96997070,-88.22595000
13.00048828,-86.51221000
13.03100586,-82.18707000
13.06152344,-81.11530000
13.09204102,-86.51805000
13.12255859,-95.04353000
13.15307617,-89.43707000
13.18359375,-103.36850000
13.21411133,-86.14529000
13.24462891,-83.56903000
13.27514648,-83.67525000
13.30566406,-82.69128000
13.33618164,-80.12753000
13.36669922,-79.08714000
13.39721680,-79.33035000
13.42773438,-81.96571000
13.45825195,-86.61301000
13.48876953,-73.33160000
13.51928711,-67.08995000
13.54980469,-64.56010000
13.58032227,-64.61317000
13.61083984,-66.48264000
13.64135742,-69.29912000
13.67187500,-72.34787000
13.70239258,-74.66776000
13.73291016,-75.23459000
13.76342773,-74.12022000
13.79394531,-73.24660000
13.82446289,-74.24992000
13.85498047,-77.20419000
13.88549805,-81.24263000
13.91601563,-78.70694000
13.94653320,-74.19902000
13.97705078,-72.93453000
14.00756836,-75.31409000
14.03808594,-81.94835000
14.06860352,-82.33981000
14.09912109,-80.49945000
14.12963867,-81.89995000
14.16015625,-80.47295000
14.19067383,-77.59193000
14.22119141,-76.74439000
14.25170898,-77.30949000
14.28222656,-78.53363000
14.31274414,-80.75680000
14.34326172,-82.30132000
14.37377930,-80.09593000
14.40429688,-76.67067000
14.43481445,-74.43654000
14.46533203,-74.14836000
14.49584961,-76.32972000
14.52636719,-81.07649000
14.55688477,-81.61225000
14.58740234,-77.83485000
14.61791992,-74.62312000
14.64843750,-72.33437000
14.67895508,-71.88355000
14.70947266,-73.45648000
14.73999023,-76.19946000
14.77050781,-78.91233000
14.80102539,-83.25080000
14.83154297,-110.93900000
14.86206055,-83.78622000
14.89257813,-79.55757000
14.92309570,-78.44453000
14.95361328,-77.86287000
14.98413086,-77.90508000
15.01464844,-79.70995000
15.04516602,-79.90869000
15.07568359,-78.02609000
15.10620117,-77.46822000
15.13671875,-76.96525000
15.16723633,-75.85232000
15.19775391,-75.55284000
15.22827148,-76.16615000
15.25878906,-76.72112000
15.28930664,-77.31773000
15.31982422,-78.90238000
15.35034180,-81.86868000
15.38085938,-80.04930000
15.41137695,-78.35954000
15.44189453,-79.48909000
15.47241211,-80.97533000
15.50292969,-80.38155000
15.53344727,-79.03028000
15.56396484,-79.10278000
15.59448242,-82.30065000
15.62500000,-89.92949000
15.65551758,-84.25644000
15.68603516,-79.62546000
15.71655273,-77.70877000
15.74707031,-77.54912000
15.77758789,-79.45340000
15.80810547,-82.55527000
15.83862305,-81.46862000
15.86914063,-80.08804000
15.89965820,-81.49414000
15.93017578,-82.92294000
15.96069336,-79.85974000
15.99121094,-78.69301000
16.02172852,-80.31398000
16.05224609,-83.82797000
16.08276367,-89.06556000
16.11328125,-92.43053000
16.14379883,-85.68013000
16.17431641,-82.80190000
16.20483398,-83.09365000
16.23535156,-85.21622000
16.26586914,-87.96254000
16.29638672,-89.58640000
16.32690430,-89.07623000
16.35742188,-92.36312000
16.38793945,-105.18750000
16.41845703,-90.74663000
16.44897461,-89.17083000
16.47949219,-87.17167000
16.51000977,-86.99981000
16.54052734,-89.90543000
16.57104492,-92.78471000
16.60156250,-96.14265000
16.63208008,-95.34073000
16.66259766,-92.99738000
16.69311523,-95.88347000
16.72363281,-114.96790000
16.75415039,-96.11790000
16.78466797,-92.61440000
16.81518555,-91.37108000
16.84570313,-91.40515000
16.87622070,-94.25993000
16.90673828,-99.15371000
16.93725586,-99.95610000
16.96777344,-98.34525000
16.99829102,-96.07756000
17.02880859,-93.78112000
17.05932617,-90.09525000
17.08984375,-87.39678000
17.12036133,-87.72211000
17.15087891,-91.74631000
17.18139648,-96.84307000
17.21191406,-99.34440000
17.24243164,-103.60670000
17.27294922,-104.41220000
17.30346680,-102.14580000
17.33398438,-106.50980000
17.36450195,-108.16780000
17.39501953,-101.75600000
17.42553711,-94.60495000
17.45605469,-94.44881000
17.48657227,-101.24280000
17.51708984,-95.58911000
17.54760742,-94.92248000
17.57812500,-105.80800000
17.60864258,-97.36561000
17.63916016,-100.40200000
17.66967773,-88.27805000
17.70019531,-81.89484000
17.73071289,-78.32828000
17.76123047,-75.11245000
17.79174805,-72.66663000
17.82226563,-72.32966000
17.85278320,-74.91528000
17.88330078,-80.73218000
17.91381836,-87.24191000
17.94433594,-87.77207000
17.97485352,-86.23213000
18.00537109,-87.89619000
18.03588867,-93.06361000
18.06640625,-98.29099000
18.09692383,-99.17078000
18.12744141,-99.49741000
18.15795898,-102.35480000
18.18847656,-94.44032000
18.21899414,-91.19556000
18.24951172,-92.04105000
18.28002930,-95.03444000
18.31054688,-98.40997000
18.34106445,-95.55241000
18.37158203,-89.04419000
18.40209961,-85.93921000
18.43261719,-85.76507000
18.46313477,-87.36569000
18.49365234,-90.20464000
18.52416992,-96.08556000
18.55468750,-113.56230000
18.58520508,-105.27210000
18.61572266,-98.82471000
18.64624023,-93.11377000
18.67675781,-91.06989000
18.70727539,-90.53011000
18.73779297,-89.81447000
18.76831055,-88.87005000
18.79882813,-88.81046000
18.82934570,-89.44462000
18.85986328,-89.58922000
18.89038086,-90.12741000
18.92089844,-92.07169000
18.95141602,-93.05464000
18.98193359,-93.08127000
19.01245117,-94.10835000
19.04296875,-94.66080000
19.07348633,-93.56922000
19.10400391,-92.65125000
19.13452148,-94.08356000
19.16503906,-97.99732000
19.19555664,-102.03640000
19.22607422,-100.76620000
19.25659180,-100.91460000
19.28710938,-104.09950000
19.31762695,-104.09830000
19.34814453,-99.39644000
19.37866211,-97.37589000
19.40917969,-101.38930000
19.43969727,-130.16470000
19.47021484,-110.16290000
19.50073242,-100.70810000
19.53125000,-96.24612000
19.56176758,-97.71455000
19.59228516,-106.35580000
19.62280273,-100.32320000
19.65332031,-99.51595000
19.68383789,-100.21580000
19.71435547,-92.13640000
19.74487305,-88.63605000
19.77539063,-87.03793000
19.80590820,-87.50289000
19.83642578,-91.33360000
19.86694336,-95.40795000
19.89746094,-97.59454000
19.92797852,-109.54760000
19.95849609,-100.77860000
19.98901367,-92.38033000
20.01953125,-89.21808000
20.05004883,-89.05391000
20.08056641,-90.43296000
20.11108398,-93.33591000
20.14160156,-98.69218000
20.17211914,-103.32500000
20.20263672,-95.36761000
20.23315430,-92.72240000
20.26367188,-94.37669000
20.29418945,-98.42004000
20.32470703,-97.94873000
20.35522461,-94.85992000
20.38574219,-93.88752000
20.41625977,-98.68631000
20.44677734,-105.60170000
20.47729492,-94.24455000
20.50781250,-92.75233000
20.53833008,-94.77124000
20.56884766,-96.08939000
20.59936523,-92.57961000
20.62988281,-90.09724000
20.66040039,-90.72311000
20.69091797,-93.72964000
20.72143555,-99.65695000
20.75195313,-108.97570000
20.78247070,-96.41470000
20.81298828,-96.43454000
20.84350586,-104.18780000
20.87402344,-99.42369000
20.90454102,-95.80646000
20.93505859,-94.42271000
20.96557617,-93.39101000
20.99609375,-93.75766000
21.02661133,-96.30322000
21.05712891,-101.36620000
21.08764648,-102.71450000
21.11816406,-97.24445000
21.14868164,-93.64462000
21.17919922,-93.76154000
21.20971680,-94.75452000
21.24023438,-92.81071000
21.27075195,-91.03369000
21.30126953,-91.78994000
21.33178711,-95.57971000
21.36230469,-99.59048000
21.39282227,-98.23078000
21.42333984,-97.77667000
21.45385742,-97.50244000
21.48437500,-96.07745000
21.51489258,-93.89763000
21.54541016,-93.16491000
21.57592773,-95.26421000
21.60644531,-93.22262000
21.63696289,-94.41291000
21.66748047,-109.27780000
21.69799805,-101.74060000
21.72851563,-102.13120000
21.75903320,-100.72350000
21.78955078,-104.30520000
21.82006836,-101.86140000
21.85058594,-93.36641000
21.88110352,-92.04608000
21.91162109,-92.29364000
21.94213867,-94.86794000
21.97265625,-99.60272000
22.00317383,-93.12874000
22.03369141,-93.62031000
22.06420898,-97.56309000
22.09472656,-99.98323000
22.12524414,-102.48360000
22.15576172,-106.10390000
22.18627930,-103.48000000
22.21679688,-94.16389000
22.24731445,-92.51007000
22.27783203,-95.40587000
22.30834961,-106.92130000
22.33886719,-108.93720000
22.36938477,-101.38140000
22.39990234,-92.09275000
22.43041992,-88.22519000
22.46093750,-88.21631000
22.49145508,-91.21965000
22.52197266,-95.53796000
22.55249023,-97.29767000
22.58300781,-96.70063000
22.61352539,-97.23376000
22.64404297,-94.27306000
22.67456055,-91.50707000
22.70507813,-91.80962000
22.73559570,-94.08931000
22.76611328,-96.63056000
22.79663086,-99.64730000
22.82714844,-104.31540000
22.85766602,-109.78160000
22.88818359,-104.42530000
22.91870117,-97.79704000
22.94921875,-94.83764000
22.97973633,-94.24679000
23.01025391,-93.97533000
23.04077148,-94.52676000
23.07128906,-96.17455000
23.10180664,-99.25152000
23.13232422,-99.25381000
23.16284180,-97.25440000
23.19335938,-100.08700000
23.22387695,-100.21700000
23.25439453,-98.79872000
23.28491211,-94.57968000
23.31542969,-93.44474000
23.34594727,-96.04079000
23.37646484,-96.92816000
23.40698242,-98.93508000
23.43750000,-122.78670000
23.46801758,-100.34470000
23.49853516,-98.29192000
23.52905273,-99.84184000
23.55957031,-100.41950000
23.59008789,-102.13670000
23.62060547,-99.71687000
23.65112305,-97.69899000
23.68164063,-98.64987000
23.71215820,-93.87982000
23.74267578,-91.37345000
23.77319336,-92.67323000
23.80371094,-96.70692000
23.83422852,-102.78180000
23.86474609,-103.36530000
23.89526367,-96.91945000
23.92578125,-92.65060000
23.95629883,-90.46803000
23.98681641,-91.93352000
24.01733398,-99.74068000
24.04785156,-103.42840000
24.07836914,-96.18893000
24.10888672,-92.35373000
24.13940430,-90.56279000
24.16992188,-90.61156000
24.20043945,-92.64309000
24.23095703,-96.26858000
24.26147461,-97.68220000
24.29199219,-99.30573000
24.32250977,-108.10040000
24.35302734,-104.57290000
24.38354492,-98.76352000
24.41406250,-99.11926000
24.44458008,-99.62177000
24.47509766,-96.78834000
24.50561523,-93.75685000
24.53613281,-92.88669000
24.56665039,-94.57710000
24.59716797,-99.10394000
24.62768555,-103.98220000
24.65820313,-98.47737000
24.68872070,-95.48326000
24.71923828,-96.25100000
24.74975586,-100.17920000
24.78027344,-104.58820000
24.81079102,-102.18970000
24.84130859,-96.92147000
24.87182617,-94.61224000
24.90234375,-95.41536000
24.93286133,-97.24899000
24.96337891,-97.93143000
24.99389648,-95.99815000
25.02441406,-94.92054000
25.05493164,-101.51460000
25.08544922,-106.14360000
25.11596680,-101.37550000
25.14648438,-97.48801000
25.17700195,-95.73535000
25.20751953,-99.03835000
25.23803711,-99.48360000
25.26855469,-104.18200000
25.29907227,-102.94560000
25.32958984,-96.77414000
25.36010742,-104.21210000
25.39062500,-101.79830000
25.42114258,-99.68276000
25.45166016,-102.67850000
25.48217773,-98.46091000
25.51269531,-97.56844000
25.54321289,-97.87195000
25.57373047,-103.34990000
25.60424805,-97.33171000
25.63476563,-97.98936000
25.66528320,-106.84430000
25.69580078,-120.38060000
25.72631836,-104.04870000
25.75683594,-98.98061000
25.78735352,-104.03450000
25.81787109,-100.72620000
25.84838867,-93.48260000
25.87890625,-91.83313000
25.90942383,-92.08981000
25.93994141,-91.75760000
25.97045898,-91.01857000
26.00097656,-91.95023000
26.03149414,-94.41177000
26.06201172,-96.47229000
26.09252930,-100.70700000
26.12304688,-99.18375000
26.15356445,-91.92010000
26.18408203,-88.83956000
26.21459961,-88.83920000
26.24511719,-90.31374000
26.27563477,-92.13864000
26.30615234,-95.62630000
26.33666992,-104.30270000
26.36718750,-98.73684000
26.39770508,-94.50974000
26.42822266,-95.72270000
26.45874023,-102.98250000
26.48925781,-103.57950000
26.51977539,-95.26807000
26.55029297,-91.01205000
26.58081055,-89.23293000
26.61132813,-89.30537000
26.64184570,-90.40619000
26.67236328,-92.05848000
26.70288086,-94.44589000
26.73339844,-98.42056000
26.76391602,-112.00040000
26.79443359,-98.15891000
26.82495117,-91.89735000
26.85546875,-90.34766000
26.88598633,-91.10406000
26.91650391,-92.79207000
26.94702148,-95.18352000
26.97753906,-99.22495000
27.00805664,-104.67510000
27.03857422,-105.37790000
27.06909180,-100.79240000
27.09960938,-98.59222000
27.13012695,-95.87470000
27.16064453,-93.09380000
27.19116211,-92.68535000
27.22167969,-94.55904000
27.25219727,-98.70438000
27.28271484,-105.55980000
27.31323242,-99.11082000
27.34375000,-94.71951000
27.37426758,-94.42769000
27.40478516,-96.50298000
27.43530273,-98.31322000
27.46582031,-97.92839000
27.49633789,-98.64897000
27.52685547,-110.27280000
27.55737305,-99.97777000
27.58789063,-95.67662000
27.61840820,-98.53118000
27.64892578,-112.87690000
27.67944336,-105.30690000
27.70996094,-103.82990000
27.74047852,-103.30130000
27.77099609,-100.12020000
27.80151367,-97.83325000
27.83203125,-97.66257000
27.86254883,-99.00524000
27.89306641,-98.24863000
27.92358398,-96.67080000
27.95410156,-98.14685000
27.98461914,-103.32910000
28.01513672,-105.53950000
28.04565430,-100.03400000
28.07617188,-95.78557000
28.10668945,-93.86333000
28.13720703,-94.10763000
28.16772461,-95.64579000
28.19824219,-96.37761000
28.22875977,-95.47549000
28.25927734,-95.96474000
28.28979492,-101.94920000
28.32031250,-104.86570000
28.35083008,-98.12856000
28.38134766,-97.04817000
28.41186523,-98.09185000
28.44238281,-100.86410000
28.47290039,-100.68070000
28.50341797,-95.01450000
28.53393555,-91.84747000
28.56445313,-90.90761000
28.59497070,-91.56093000
28.62548828,-93.88200000
28.65600586,-99.62843000
28.68652344,-99.81429000
28.71704102,-93.50532000
28.74755859,-91.21944000
28.77807617,-90.35136000
28.80859375,-89.24272000
28.83911133,-87.75264000
28.86962891,-86.64073000
28.90014648,-86.59337000
28.93066406,-87.72334000
28.96118164,-89.21787000
28.99169922,-91.06050000
29.02221680,-96.03572000
29.05273438,-98.09496000
29.08325195,-92.14487000
29.11376953,-91.06178000
29.14428711,-93.16085000
29.17480469,-97.57137000
29.20532227,-96.57565000
29.23583984,-90.87879000
29.26635742,-87.70997000
29.29687500,-86.74495000
29.32739258,-87.52651000
29.35791016,-90.02587000
29.38842773,-95.11385000
29.41894531,-97.93982000
29.44946289,-93.09838000
29.47998047,-91.37602000
29.51049805,-91.08110000
29.54101563,-90.42336000
29.57153320,-89.38826000
29.60205078,-88.12430000
29.63256836,-88.31125000
29.66308594,-91.42091000
29.69360352,-96.98665000
29.72412109,-97.87987000
29.75463867,-92.51704000
29.78515625,-88.94374000
29.81567383,-88.56430000
29.84619141,-91.26702000
29.87670898,-97.61700000
29.90722656,-114.90200000
29.93774414,-102.13960000
29.96826172,-98.85416000
29.99877930,-99.57432000
30.02929688,-102.46170000
30.05981445,-106.12670000
30.09033203,-104.92480000
30.12084961,-99.94865000
30.15136719,-97.26024000
30.18188477,-98.08008000
30.21240234,-104.04800000
30.24291992,-107.60640000
30.27343750,-101.15490000
30.30395508,-98.07787000
30.33447266,-95.06188000
30.36499023,-93.03956000
30.39550781,-94.07712000
30.42602539,-101.70090000
30.45654297,-101.79440000
30.48706055,-92.47467000
30.51757813,-89.40810000
30.54809570,-89.19002000
30.57861328,-91.28922000
30.60913086,-93.92413000
30.63964844,-92.72628000
30.67016602,-90.48277000
30.70068359,-90.01289000
30.73120117,-92.49428000
30.76171875,-96.94048000
30.79223633,-93.11407000
30.82275391,-90.40684000
30.85327148,-90.31950000
30.88378906,-92.73492000
30.91430664,-101.12900000
30.94482422,-97.39616000
30.97534180,-91.37651000
31.00585938,-91.49459000
31.03637695,-99.81757000
31.06689453,-97.24212000
31.09741211,-90.68208000
31.12792969,-90.92514000
31.15844727,-96.92326000
31.18896484,-96.56719000
31.21948242,-89.49995000
31.25000000,-86.85439000
31.28051758,-86.52263000
31.31103516,-87.96761000
31.34155273,-90.86729000
31.37207031,-94.21834000
31.40258789,-96.31660000
31.43310547,-97.31324000
31.46362305,-98.01607000
31.49414063,-95.86018000
31.52465820,-93.45023000
31.55517578,-93.79063000
31.58569336,-96.73547000
31.61621094,-102.53180000
31.64672852,-103.92160000
31.67724609,-101.73410000
31.70776367,-96.63635000
31.73828125,-90.93113000
31.76879883,-88.77858000
31.79931641,-89.19313000
31.82983398,-90.94631000
31.86035156,-92.76752000
31.89086914,-93.69613000
31.92138672,-92.43086000
31.95190430,-90.44279000
31.98242188,-89.33223000
32.01293945,-89.20261000
32.04345703,-89.81281000
32.07397461,-90.31557000
32.10449219,-90.61509000
32.13500977,-92.65919000
32.16552734,-99.24646000
32.19604492,-117.19910000
32.22656250,-103.27480000
32.25708008,-104.02710000
32.28759766,-104.35750000
32.31811523,-101.98750000
32.34863281,-100.70660000
32.37915039,-105.76930000
32.40966797,-100.40960000
32.44018555,-93.99806000
32.47070313,-91.86008000
32.50122070,-91.00571000
32.53173828,-90.15466000
32.56225586,-89.56580000
32.59277344,-89.27575000
32.62329102,-89.08433000
32.65380859,-89.86371000
32.68432617,-92.23714000
32.71484375,-94.13955000
32.74536133,-92.38663000
32.77587891,-90.04027000
32.80639648,-88.71199000
32.83691406,-89.00711000
32.86743164,-92.01577000
32.89794922,-96.55586000
32.92846680,-91.39612000
32.95898438,-88.92434000
32.98950195,-90.38895000
33.02001953,-94.96255000
33.05053711,-98.27561000
33.08105469,-96.36193000
33.11157227,-95.26480000
33.14208984,-96.22966000
33.17260742,-94.05183000
33.20312500,-90.94463000
33.23364258,-88.80607000
33.26416016,-87.16125000
33.29467773,-86.59034000
33.32519531,-87.96692000
33.35571289,-91.32205000
33.38623047,-92.28987000
33.41674805,-90.54905000
33.44726563,-90.19756000
33.47778320,-90.11037000
33.50830078,-89.53553000
33.53881836,-90.25627000
33.56933594,-93.37437000
33.59985352,-95.65717000
33.63037109,-94.13353000
33.66088867,-94.61646000
33.69140625,-98.77650000
33.72192383,-105.92110000
33.75244141,-100.51050000
33.78295898,-98.44627000
33.81347656,-100.81460000
33.84399414,-104.00800000
33.87451172,-95.69527000
33.90502930,-89.34216000
33.93554688,-85.46181000
33.96606445,-83.87827000
33.99658203,-84.69069000
34.02709961,-87.88034000
34.05761719,-92.34399000
34.08813477,-94.32866000
34.11865234,-94.49208000
34.14916992,-95.91758000
34.17968750,-97.08717000
34.21020508,-97.32388000
34.24072266,-100.17020000
34.27124023,-103.57910000
34.30175781,-98.25713000
34.33227539,-94.45206000
34.36279297,-90.87991000
34.39331055,-87.54028000
34.42382813,-86.03880000
34.45434570,-86.54255000
34.48486328,-88.42606000
34.51538086,-90.74831000
34.54589844,-93.10074000
34.57641602,-96.34711000
34.60693359,-100.56490000
34.63745117,-100.37760000
34.66796875,-96.88099000
34.69848633,-94.94820000
34.72900391,-95.49201000
34.75952148,-96.27392000
34.79003906,-94.01184000
34.82055664,-92.36569000
34.85107422,-92.40005000
34.88159180,-93.53204000
34.91210938,-95.83261000
34.94262695,-101.71090000
34.97314453,-103.26490000
35.00366211,-95.81696000
35.03417969,-94.86564000
35.06469727,-96.93993000
35.09521484,-94.43958000
35.12573242,-91.81998000
35.15625000,-91.66685000
35.18676758,-91.64200000
35.21728516,-89.75754000
35.24780273,-87.77633000
35.27832031,-86.82108000
35.30883789,-87.01643000
35.33935547,-88.06996000
35.36987305,-89.37290000
35.40039063,-90.86140000
35.43090820,-93.37776000
35.46142578,-97.26701000
35.49194336,-99.16657000
35.52246094,-96.30982000
35.55297852,-92.98006000
35.58349609,-90.73005000
35.61401367,-90.59119000
35.64453125,-94.23941000
35.67504883,-103.94030000
35.70556641,-92.48573000
35.73608398,-88.12061000
35.76660156,-87.04296000
35.79711914,-87.98034000
35.82763672,-90.40422000
35.85815430,-94.13368000
35.88867188,-99.89047000
35.91918945,-101.78430000
35.94970703,-94.70864000
35.98022461,-91.75416000
36.01074219,-92.06460000
36.04125977,-94.78850000
36.07177734,-98.49277000
36.10229492,-102.21590000
36.13281250,-109.80090000
36.16333008,-99.73378000
36.19384766,-93.55937000
36.22436523,-91.48923000
36.25488281,-91.91661000
36.28540039,-94.21725000
36.31591797,-98.29050000
36.34643555,-103.48030000
36.37695313,-101.04130000
36.40747070,-98.23624000
36.43798828,-98.09776000
36.46850586,-98.62305000
36.49902344,-96.78212000
36.52954102,-94.23760000
36.56005859,-93.22900000
36.59057617,-93.55923000
36.62109375,-93.98236000
36.65161133,-93.25351000
36.68212891,-93.46307000
36.71264648,-98.08884000
36.74316406,-99.17148000
36.77368164,-94.74984000
36.80419922,-94.54324000
36.83471680,-95.74943000
36.86523438,-94.90005000
36.89575195,-93.07135000
36.92626953,-92.85760000
36.95678711,-93.41286000
36.98730469,-94.28783000
37.01782227,-96.42172000
37.04833984,-99.31625000
37.07885742,-98.58835000
37.10937500,-96.14910000
37.13989258,-94.61954000
37.17041016,-93.29219000
37.20092773,-91.90184000
37.23144531,-90.73933000
37.26196289,-90.35214000
37.29248047,-91.83554000
37.32299805,-97.17998000
37.35351563,-107.45170000
37.38403320,-98.55829000
37.41455078,-96.09657000
37.44506836,-95.08240000
37.47558594,-93.76067000
37.50610352,-93.05078000
37.53662109,-94.28226000
37.56713867,-98.11655000
37.59765625,-102.31530000
37.62817383,-96.91949000
37.65869141,-92.19932000
37.68920898,-89.89724000
37.71972656,-89.18720000
37.75024414,-89.62285000
37.78076172,-91.27480000
37.81127930,-94.98656000
37.84179688,-103.81180000
37.87231445,-99.54670000
37.90283203,-93.45338000
37.93334961,-91.60501000
37.96386719,-92.55523000
37.99438477,-96.35770000
38.02490234,-99.80441000
38.05541992,-96.45528000
38.08593750,-94.41693000
38.11645508,-93.43533000
38.14697266,-92.85377000
38.17749023,-94.57880000
38.20800781,-102.45100000
38.23852539,-102.86170000
38.26904297,-95.62146000
38.29956055,-92.60186000
38.33007813,-90.71532000
38.36059570,-90.28235000
38.39111328,-91.02667000
38.42163086,-92.93433000
38.45214844,-98.06049000
38.48266602,-123.96670000
38.51318359,-99.14029000
38.54370117,-95.93387000
38.57421875,-96.83791000
38.60473633,-97.29752000
38.63525391,-93.99934000
38.66577148,-93.33475000
38.69628906,-97.42809000
38.72680664,-106.48230000
38.75732422,-97.43084000
38.78784180,-95.18333000
38.81835938,-96.81720000
38.84887695,-102.10590000
38.87939453,-108.74850000
38.90991211,-106.61750000
38.94042969,-103.20500000
38.97094727,-98.43541000
39.00146484,-95.80199000
39.03198242,-95.01570000
39.06250000,-94.90395000
39.09301758,-94.35526000
39.12353516,-93.45256000
39.15405273,-93.67382000
39.18457031,-96.90575000
39.21508789,-109.32230000
39.24560547,-101.95910000
39.27612305,-97.18314000
39.30664063,-96.49791000
39.33715820,-96.81950000
39.36767578,-96.91784000
39.39819336,-96.23831000
39.42871094,-94.79122000
39.45922852,-94.93946000
39.48974609,-100.38320000
39.52026367,-96.77733000
39.55078125,-91.62498000
39.58129883,-91.89980000
39.61181641,-95.24800000
39.64233398,-97.29915000
39.67285156,-97.21375000
39.70336914,-95.36563000
39.73388672,-94.20001000
39.76440430,-94.71069000
39.79492188,-94.20566000
39.82543945,-93.36369000
39.85595703,-94.88345000
39.88647461,-95.23437000
39.91699219,-93.71848000
39.94750977,-96.66320000
39.97802734,-108.13070000
40.00854492,-99.66153000
40.03906250,-98.24821000
40.06958008,-97.94316000
40.10009766,-98.15256000
40.13061523,-101.18740000
40.16113281,-104.32310000
40.19165039,-105.58700000
40.22216797,-104.66720000
40.25268555,-96.36145000
40.28320313,-92.32639000
40.31372070,-91.18964000
40.34423828,-91.09931000
40.37475586,-91.39731000
40.40527344,-92.10827000
40.43579102,-92.60792000
40.46630859,-92.60185000
40.49682617,-92.26286000
40.52734375,-93.95936000
40.55786133,-102.92260000
40.58837891,-98.62051000
40.61889648,-91.18033000
40.64941406,-89.02843000
40.67993164,-89.87254000
40.71044922,-93.63923000
40.74096680,-99.62749000
40.77148438,-100.13240000
40.80200195,-95.11653000
40.83251953,-93.47949000
40.86303711,-97.71439000
40.89355469,-102.14480000
40.92407227,-99.24844000
40.95458984,-105.77620000
40.98510742,-101.86010000
41.01562500,-95.33167000
41.04614258,-93.74763000
41.07666016,-96.66859000
41.10717773,-100.21070000
41.13769531,-97.12533000
41.16821289,-95.71313000
41.19873047,-93.76171000
41.22924805,-91.39306000
41.25976563,-90.02438000
41.29028320,-88.87701000
41.32080078,-87.90516000
41.35131836,-89.40242000
41.38183594,-93.72326000
41.41235352,-93.14783000
41.44287109,-91.02524000
41.47338867,-90.45632000
41.50390625,-90.33784000
41.53442383,-89.31649000
41.56494141,-88.31970000
41.59545898,-88.25977000
41.62597656,-87.71820000
41.65649414,-85.73142000
41.68701172,-84.04278000
41.71752930,-83.39611000
41.74804688,-82.99363000
41.77856445,-82.67317000
41.80908203,-83.23325000
41.83959961,-84.85086000
41.87011719,-87.67242000
41.90063477,-94.42043000
41.93115234,-96.10011000
41.96166992,-88.71826000
41.99218750,-87.30902000
42.02270508,-89.18333000
42.05322266,-92.67035000
42.08374023,-91.42847000
42.11425781,-88.11728000
42.14477539,-85.81763000
42.17529297,-85.10429000
42.20581055,-86.12189000
42.23632813,-86.33659000
42.26684570,-84.17099000
42.29736328,-83.54472000
42.32788086,-85.76957000
42.35839844,-90.78568000
42.38891602,-94.76028000
42.41943359,-94.18936000
42.44995117,-95.12504000
42.48046875,-93.22388000
42.51098633,-91.86157000
42.54150391,-92.53111000
42.57202148,-93.09422000
42.60253906,-95.67303000
42.63305664,-105.60020000
42.66357422,-95.01645000
42.69409180,-93.02215000
42.72460938,-98.01874000
42.75512695,-91.29662000
42.78564453,-86.50177000
42.81616211,-84.80934000
42.84667969,-84.47582000
42.87719727,-85.36401000
42.90771484,-87.20544000
42.93823242,-88.06011000
42.96875000,-87.55363000
42.99926758,-87.52435000
43.02978516,-87.75555000
43.06030273,-87.45027000
43.09082031,-87.44238000
43.12133789,-89.06493000
43.15185547,-91.57127000
43.18237305,-90.91014000
43.21289063,-89.34842000
43.24340820,-88.99301000
43.27392578,-89.32007000
43.30444336,-90.22874000
43.33496094,-92.67289000
43.36547852,-97.79242000
43.39599609,-107.84160000
43.42651367,-110.82750000
43.45703125,-104.98040000
43.48754883,-101.18630000
43.51806641,-100.07220000
43.54858398,-99.21957000
43.57910156,-95.06950000
43.60961914,-89.47470000
43.64013672,-86.34888000
43.67065430,-86.49937000
43.70117188,-89.64931000
43.73168945,-92.99358000
43.76220703,-94.58691000
43.79272461,-99.40054000
43.82324219,-109.52230000
43.85375977,-109.61430000
43.88427734,-100.63520000
43.91479492,-96.11457000
43.94531250,-93.58754000
43.97583008,-92.09514000
44.00634766,-92.52614000
44.03686523,-95.70560000
44.06738281,-96.50174000
44.09790039,-92.03696000
44.12841797,-90.02711000
44.15893555,-90.65276000
44.18945313,-93.31598000
44.21997070,-96.01521000
44.25048828,-95.94582000
44.28100586,-94.78929000
44.31152344,-95.04033000
44.34204102,-96.49056000
44.37255859,-97.46095000
44.40307617,-97.47601000
44.43359375,-97.19489000
44.46411133,-97.21274000
44.49462891,-98.64934000
44.52514648,-104.21980000
44.55566406,-114.66130000
44.58618164,-103.62810000
44.61669922,-102.98780000
44.64721680,-107.01270000
44.67773438,-103.02590000
44.70825195,-98.04605000
44.73876953,-97.62589000
44.76928711,-98.54283000
44.79980469,-98.27625000
44.83032227,-99.22825000
44.86083984,-102.80630000
44.89135742,-111.69170000
44.92187500,-107.18310000
44.95239258,-103.56170000
44.98291016,-105.05730000
45.01342773,-106.01130000
45.04394531,-100.80740000
45.07446289,-94.84335000
45.10498047,-92.69924000
45.13549805,-94.87518000
45.16601563,-101.19680000
45.19653320,-104.36180000
45.22705078,-108.40420000
45.25756836,-103.57750000
45.28808594,-101.68290000
45.31860352,-104.08260000
45.34912109,-104.89740000
45.37963867,-99.93687000
45.41015625,-96.38193000
45.44067383,-95.59142000
45.47119141,-98.15486000
45.50170898,-107.21860000
45.53222656,-105.74260000
45.56274414,-100.08230000
45.59326172,-99.12570000
45.62377930,-99.21790000
45.65429688,-97.19979000
45.68481445,-93.75729000
45.71533203,-92.29873000
45.74584961,-94.82632000
45.77636719,-100.08190000
45.80688477,-94.44490000
45.83740234,-92.29729000
45.86791992,-93.22659000
45.89843750,-96.00023000
45.92895508,-99.43483000
45.95947266,-100.33400000
45.98999023,-97.60683000
46.02050781,-93.98900000
46.05102539,-91.03725000
46.08154297,-89.76801000
46.11206055,-90.39051000
46.14257813,-91.92584000
46.17309570,-93.85289000
46.20361328,-97.66840000
46.23413086,-102.56420000
46.26464844,-110.71500000
46.29516602,-99.45953000
46.32568359,-92.56042000
46.35620117,-90.84892000
46.38671875,-92.56239000
46.41723633,-96.90377000
46.44775391,-102.52210000
46.47827148,-103.37530000
46.50878906,-99.76590000
46.53930664,-97.53685000
46.56982422,-95.57236000
46.60034180,-95.49633000
46.63085938,-97.92413000
46.66137695,-100.54090000
46.69189453,-98.49140000
46.72241211,-95.05704000
46.75292969,-94.26027000
46.78344727,-98.09638000
46.81396484,-101.74920000
46.84448242,-95.40952000
46.87500000,-94.42509000
46.90551758,-94.99745000
46.93603516,-92.77940000
46.96655273,-90.07283000
46.99707031,-88.76717000
47.02758789,-89.53754000
47.05810547,-93.15483000
47.08862305,-98.27136000
47.11914063,-97.17813000
47.14965820,-98.03825000
47.18017578,-102.82290000
47.21069336,-106.11050000
47.24121094,-102.07770000
47.27172852,-98.63816000
47.30224609,-98.10373000
47.33276367,-100.71850000
47.36328125,-119.88490000
47.39379883,-99.52637000
47.42431641,-95.39525000
47.45483398,-96.27331000
47.48535156,-96.27803000
47.51586914,-92.55603000
47.54638672,-90.21281000
47.57690430,-90.82977000
47.60742188,-95.82104000
47.63793945,-129.21800000
47.66845703,-96.54614000
47.69897461,-92.09358000
47.72949219,-90.94984000
47.76000977,-91.36774000
47.79052734,-92.35353000
47.82104492,-94.72008000
47.85156250,-101.30870000
47.88208008,-120.65800000
47.91259766,-106.19970000
47.94311523,-101.96810000
47.97363281,-96.12705000
48.00415039,-93.17067000
48.03466797,-92.52692000
48.06518555,-94.07017000
48.09570313,-95.10616000
48.12622070,-94.09683000
48.15673828,-95.03799000
48.18725586,-97.83643000
48.21777344,-101.50620000
48.24829102,-106.17180000
48.27880859,-105.01960000
48.30932617,-98.58033000
48.33984375,-93.03490000
48.37036133,-89.58551000
48.40087891,-88.03191000
48.43139648,-87.74452000
48.46191406,-87.83388000
48.49243164,-87.81392000
48.52294922,-88.11784000
48.55346680,-89.41936000
48.58398438,-91.89274000
48.61450195,-94.99614000
48.64501953,-96.28082000
48.67553711,-94.16945000
48.70605469,-93.15591000
48.73657227,-94.67867000
48.76708984,-97.82137000
48.79760742,-98.04141000
48.82812500,-95.21780000
48.85864258,-94.00714000
48.88916016,-96.57294000
48.91967773,-106.50350000
48.95019531,-111.67660000
48.98071289,-111.61710000
49.01123047,-98.23544000
49.04174805,-97.13890000
49.07226563,-106.48860000
49.10278320,-95.87254000
49.13330078,-92.40533000
49.16381836,-94.24351000
49.19433594,-101.62110000
49.22485352,-103.07990000
49.25537109,-95.28171000
49.28588867,-92.32754000
49.31640625,-92.42062000
49.34692383,-95.15494000
49.37744141,-98.20904000
49.40795898,-97.18793000
49.43847656,-96.41544000
49.46899414,-98.32375000
49.49951172,-103.16640000
49.53002930,-107.68620000
49.56054688,-106.58970000
49.59106445,-101.90780000
49.62158203,-96.02473000
49.65209961,-93.01425000
49.68261719,-93.70332000
49.71313477,-100.22130000
49.74365234,-106.08930000
49.77416992,-95.93228000
49.80468750,-93.57336000
49.83520508,-94.46053000
49.86572266,-98.79948000
49.89624023,-101.43640000
49.92675781,-97.45139000
49.95727539,-97.26630000
49.98779297,-99.59759000
50.01831055,-100.15140000
