Frequency,Channel A
(MHz),(dBu)

0.00000000,-29.12194000
0.03051758,-29.36485000
0.06103516,-34.00244000
0.09155273,-41.80915000
0.12207031,-51.38689000
0.15258789,-56.68625000
0.18310547,-62.72832000
0.21362305,-68.07962000
0.24414063,-57.32490000
0.27465820,-53.76888000
0.30517578,-52.65358000
0.33569336,-53.22716000
0.36621094,-54.99824000
0.39672852,-56.80244000
0.42724609,-57.15935000
0.45776367,-57.50088000
0.48828125,-58.65878000
0.51879883,-59.89572000
0.54931641,-61.14182000
0.57983398,-64.14499000
0.61035156,-73.60828000
0.64086914,-69.86493000
0.67138672,-64.80756000
0.70190430,-64.18986000
0.73242188,-65.04781000
0.76293945,-66.48029000
0.79345703,-64.97559000
0.82397461,-61.29166000
0.85449219,-59.98055000
0.88500977,-61.77387000
0.91552734,-67.29572000
0.94604492,-76.41397000
0.97656250,-74.04464000
1.00708008,-70.11021000
1.03759766,-66.58111000
1.06811523,-63.01435000
1.09863281,-60.42172000
1.12915039,-59.65643000
1.15966797,-60.85995000
1.19018555,-63.07091000
1.22070313,-63.71461000
1.25122070,-63.76258000
1.28173828,-64.60868000
1.31225586,-64.59379000
1.34277344,-64.48349000
1.37329102,-66.24991000
1.40380859,-68.98742000
1.43432617,-68.50684000
1.46484375,-67.14793000
1.49536133,-67.02988000
1.52587891,-67.00195000
1.55639648,-66.50931000
1.58691406,-67.04341000
1.61743164,-68.95689000
1.64794922,-69.22571000
1.67846680,-67.74815000
1.70898438,-67.01779000
1.73950195,-66.24785000
1.77001953,-65.69321000
1.80053711,-65.88285000
1.83105469,-65.32967000
1.86157227,-64.94580000
1.89208984,-66.39432000
1.92260742,-68.24578000
1.95312500,-68.33583000
1.98364258,-68.24204000
2.01416016,-68.25019000
2.04467773,-68.65545000
2.07519531,-69.29192000
2.10571289,-70.18803000
2.13623047,-72.41083000
2.16674805,-70.28836000
2.19726563,-66.13194000
2.22778320,-64.71890000
2.25830078,-66.41513000
2.28881836,-72.20628000
2.31933594,-73.27602000
2.34985352,-68.22392000
2.38037109,-66.63850000
2.41088867,-66.92795000
2.44140625,-68.73778000
2.47192383,-71.08908000
2.50244141,-68.79673000
2.53295898,-66.23668000
2.56347656,-66.07619000
2.59399414,-67.68248000
2.62451172,-70.74956000
2.65502930,-75.13060000
2.68554688,-71.39539000
2.71606445,-68.00967000
2.74658203,-67.69128000
2.77709961,-68.57509000
2.80761719,-68.21637000
2.83813477,-67.36479000
2.86865234,-67.76521000
2.89916992,-69.32613000
2.92968750,-70.61729000
2.96020508,-70.47159000
2.99072266,-68.28706000
3.02124023,-65.92274000
3.05175781,-64.88752000
3.08227539,-64.96377000
3.11279297,-65.43032000
3.14331055,-65.35310000
3.17382813,-64.56345000
3.20434570,-64.37725000
3.23486328,-65.70110000
3.26538086,-67.59708000
3.29589844,-67.14745000
3.32641602,-66.18037000
3.35693359,-65.97099000
3.38745117,-65.02426000
3.41796875,-64.06839000
3.44848633,-64.45000000
3.47900391,-66.06649000
3.50952148,-68.09911000
3.54003906,-68.23136000
3.57055664,-65.45972000
3.60107422,-63.15578000
3.63159180,-62.31040000
3.66210938,-62.82420000
3.69262695,-64.32261000
3.72314453,-65.60033000
3.75366211,-66.42930000
3.78417969,-67.39453000
3.81469727,-65.89304000
3.84521484,-63.56625000
3.87573242,-62.53486000
3.90625000,-62.53364000
3.93676758,-63.28115000
3.96728516,-64.42559000
3.99780273,-65.31544000
4.02832031,-65.59592000
4.05883789,-64.45503000
4.08935547,-62.68726000
4.11987305,-61.72558000
4.15039063,-61.66943000
4.18090820,-62.17517000
4.21142578,-63.05420000
4.24194336,-64.63626000
4.27246094,-67.72189000
4.30297852,-68.29497000
4.33349609,-64.20926000
4.36401367,-62.22591000
4.39453125,-62.17644000
4.42504883,-62.47320000
4.45556641,-62.58280000
4.48608398,-63.93076000
4.51660156,-67.86531000
4.54711914,-72.30905000
4.57763672,-68.30499000
4.60815430,-65.22130000
4.63867188,-64.17530000
4.66918945,-64.57063000
4.69970703,-65.91383000
4.73022461,-67.59370000
4.76074219,-68.57939000
4.79125977,-68.42793000
4.82177734,-68.39306000
4.85229492,-68.52181000
4.88281250,-68.02962000
4.91333008,-67.19901000
4.94384766,-66.46753000
4.97436523,-66.63896000
5.00488281,-68.43536000
5.03540039,-71.05910000
5.06591797,-71.65818000
5.09643555,-70.24745000
5.12695313,-68.33337000
5.15747070,-67.30015000
5.18798828,-67.59732000
5.21850586,-68.18346000
5.24902344,-68.22432000
5.27954102,-69.18059000
5.31005859,-73.04787000
5.34057617,-81.34354000
5.37109375,-75.69767000
5.40161133,-72.51094000
5.43212891,-72.41563000
5.46264648,-74.03840000
5.49316406,-77.34290000
5.52368164,-79.92576000
5.55419922,-77.18195000
5.58471680,-73.43108000
5.61523438,-71.17548000
5.64575195,-71.28734000
5.67626953,-72.90949000
5.70678711,-72.68855000
5.73730469,-70.56828000
5.76782227,-67.53806000
5.79833984,-64.97034000
5.82885742,-63.41184000
5.85937500,-62.39332000
5.88989258,-62.23720000
5.92041016,-63.53945000
5.95092773,-65.64970000
5.98144531,-66.63441000
6.01196289,-65.93902000
6.04248047,-63.94411000
6.07299805,-62.32379000
6.10351563,-61.97452000
6.13403320,-62.38197000
6.16455078,-63.01943000
6.19506836,-64.48267000
6.22558594,-67.07707000
6.25610352,-69.06786000
6.28662109,-68.93362000
6.31713867,-67.01979000
6.34765625,-64.93472000
6.37817383,-64.25090000
6.40869141,-65.05875000
6.43920898,-66.69833000
6.46972656,-68.73909000
6.50024414,-72.35384000
6.53076172,-83.04704000
6.56127930,-78.69841000
6.59179688,-72.55014000
6.62231445,-71.20218000
6.65283203,-70.93970000
6.68334961,-70.93789000
6.71386719,-72.25045000
6.74438477,-75.22917000
6.77490234,-79.41337000
6.80541992,-85.31793000
6.83593750,-82.64999000
6.86645508,-78.20259000
6.89697266,-76.97276000
6.92749023,-77.79601000
6.95800781,-80.07495000
6.98852539,-82.58216000
7.01904297,-84.02646000
7.04956055,-85.95560000
7.08007813,-89.34154000
7.11059570,-88.73367000
7.14111328,-83.02436000
7.17163086,-78.83643000
7.20214844,-76.80143000
7.23266602,-76.54222000
7.26318359,-77.54697000
7.29370117,-79.68388000
7.32421875,-83.28433000
7.35473633,-87.93994000
7.38525391,-93.78690000
7.41577148,-90.26673000
7.44628906,-83.11969000
7.47680664,-79.04443000
7.50732422,-76.44351000
7.53784180,-75.18037000
7.56835938,-75.51822000
7.59887695,-77.54372000
7.62939453,-80.99055000
7.65991211,-84.59984000
7.69042969,-86.95752000
7.72094727,-91.16968000
7.75146484,-89.18011000
7.78198242,-81.38110000
7.81250000,-77.82370000
7.84301758,-76.67886000
7.87353516,-77.17164000
7.90405273,-79.20367000
7.93457031,-81.95403000
7.96508789,-81.94296000
7.99560547,-80.17305000
8.02612305,-78.04247000
8.05664063,-75.78178000
8.08715820,-74.47467000
8.11767578,-74.47296000
8.14819336,-75.74611000
8.17871094,-78.49368000
8.20922852,-82.93413000
8.23974609,-88.62723000
8.27026367,-90.49496000
8.30078125,-83.56477000
8.33129883,-79.87479000
8.36181641,-78.89882000
8.39233398,-79.68465000
8.42285156,-82.18056000
8.45336914,-86.70416000
8.48388672,-89.37130000
8.51440430,-90.58498000
8.54492188,-90.47028000
8.57543945,-85.03979000
8.60595703,-82.41668000
8.63647461,-82.05901000
8.66699219,-83.24155000
8.69750977,-85.63844000
8.72802734,-87.64385000
8.75854492,-87.08752000
8.78906250,-85.28426000
8.81958008,-83.29007000
8.85009766,-81.75239000
8.88061523,-80.80026000
8.91113281,-80.26588000
8.94165039,-80.21855000
8.97216797,-80.63569000
9.00268555,-81.17915000
9.03320313,-81.48093000
9.06372070,-81.59412000
9.09423828,-81.48479000
9.12475586,-80.65151000
9.15527344,-80.23713000
9.18579102,-81.80447000
9.21630859,-83.86757000
9.24682617,-81.60959000
9.27734375,-79.40350000
9.30786133,-79.15849000
9.33837891,-80.89937000
9.36889648,-84.82988000
9.39941406,-89.59805000
9.42993164,-88.30945000
9.46044922,-86.78712000
9.49096680,-88.11014000
9.52148438,-89.97565000
9.55200195,-88.58047000
9.58251953,-85.44681000
9.61303711,-82.84084000
9.64355469,-81.75211000
9.67407227,-81.71858000
9.70458984,-82.43771000
9.73510742,-84.20922000
9.76562500,-88.44799000
9.79614258,-104.42290000
9.82666016,-92.45001000
9.85717773,-89.24637000
9.88769531,-96.18614000
9.91821289,-88.99120000
9.94873047,-81.03446000
9.97924805,-78.40045000
10.00976563,-78.52204000
10.04028320,-80.13278000
10.07080078,-82.09721000
10.10131836,-83.62492000
10.13183594,-83.48946000
10.16235352,-83.65855000
10.19287109,-85.09009000
10.22338867,-83.87804000
10.25390625,-81.23780000
10.28442383,-81.08417000
10.31494141,-85.41206000
10.34545898,-95.11647000
10.37597656,-85.92712000
10.40649414,-86.51013000
10.43701172,-94.15234000
10.46752930,-84.92141000
10.49804688,-80.89217000
10.52856445,-78.10698000
10.55908203,-76.04750000
10.58959961,-75.32629000
10.62011719,-75.13043000
10.65063477,-74.97353000
10.68115234,-75.93055000
10.71166992,-79.15479000
10.74218750,-83.21519000
10.77270508,-81.21558000
10.80322266,-79.51535000
10.83374023,-80.76787000
10.86425781,-84.64767000
10.89477539,-83.02031000
10.92529297,-79.39453000
10.95581055,-79.43207000
10.98632813,-82.98094000
11.01684570,-84.88334000
11.04736328,-84.17518000
11.07788086,-87.16477000
11.10839844,-87.79767000
11.13891602,-84.66422000
11.16943359,-83.78177000
11.19995117,-83.90290000
11.23046875,-83.49128000
11.26098633,-81.84846000
11.29150391,-80.37370000
11.32202148,-79.75786000
11.35253906,-80.02056000
11.38305664,-81.88208000
11.41357422,-85.16246000
11.44409180,-85.47592000
11.47460938,-86.80841000
11.50512695,-96.41583000
11.53564453,-85.04238000
11.56616211,-78.56413000
11.59667969,-75.61087000
11.62719727,-75.84151000
11.65771484,-79.62115000
11.68823242,-81.44843000
11.71875000,-78.03403000
11.74926758,-75.89967000
11.77978516,-74.15380000
11.81030273,-73.43414000
11.84082031,-74.50751000
11.87133789,-77.52418000
11.90185547,-82.62282000
11.93237305,-86.64315000
11.96289063,-83.61472000
11.99340820,-82.44275000
12.02392578,-82.02561000
12.05444336,-79.31144000
12.08496094,-76.95448000
12.11547852,-76.20229000
12.14599609,-76.89507000
12.17651367,-78.35368000
12.20703125,-78.39977000
12.23754883,-77.17632000
12.26806641,-76.58563000
12.29858398,-76.99149000
12.32910156,-79.43684000
12.35961914,-87.03777000
12.39013672,-88.37141000
12.42065430,-81.21381000
12.45117188,-79.45000000
12.48168945,-79.36102000
12.51220703,-79.30616000
12.54272461,-79.74944000
12.57324219,-82.84832000
12.60375977,-96.18398000
12.63427734,-86.91430000
12.66479492,-83.56560000
12.69531250,-84.10486000
12.72583008,-83.95584000
12.75634766,-86.95126000
12.78686523,-102.42710000
12.81738281,-87.83344000
12.84790039,-87.07047000
12.87841797,-91.55570000
12.90893555,-86.59935000
12.93945313,-81.08245000
12.96997070,-77.61174000
13.00048828,-76.06221000
13.03100586,-76.54783000
13.06152344,-79.51657000
13.09204102,-83.17590000
13.12255859,-79.36715000
13.15307617,-77.48007000
13.18359375,-78.94778000
13.21411133,-82.04623000
13.24462891,-83.22398000
13.27514648,-81.18556000
13.30566406,-79.99335000
13.33618164,-81.63995000
13.36669922,-86.72954000
13.39721680,-91.27769000
13.42773438,-86.90030000
13.45825195,-82.29373000
13.48876953,-74.21732000
13.51928711,-68.19887000
13.54980469,-65.64629000
13.58032227,-66.71626000
13.61083984,-72.42516000
13.64135742,-77.46274000
13.67187500,-73.36264000
13.70239258,-73.71104000
13.73291016,-76.50580000
13.76342773,-81.03111000
13.79394531,-86.09955000
13.82446289,-78.87391000
13.85498047,-74.62285000
13.88549805,-73.55598000
13.91601563,-74.82697000
13.94653320,-78.24697000
13.97705078,-83.47147000
14.00756836,-83.10188000
14.03808594,-78.38806000
14.06860352,-74.54921000
14.09912109,-72.12495000
14.12963867,-71.48116000
14.16015625,-72.65993000
14.19067383,-75.82803000
14.22119141,-81.99036000
14.25170898,-86.74519000
14.28222656,-81.77834000
14.31274414,-81.64877000
14.34326172,-83.47435000
14.37377930,-80.49935000
14.40429688,-77.34598000
14.43481445,-75.90892000
14.46533203,-76.56753000
14.49584961,-79.27794000
14.52636719,-82.73948000
14.55688477,-84.75220000
14.58740234,-86.26862000
14.61791992,-87.39658000
14.64843750,-84.22845000
14.67895508,-81.05915000
14.70947266,-79.45592000
14.73999023,-78.96519000
14.77050781,-78.86082000
14.80102539,-79.01915000
14.83154297,-80.16315000
14.86206055,-81.51848000
14.89257813,-81.10188000
14.92309570,-79.77251000
14.95361328,-78.68523000
14.98413086,-78.35738000
15.01464844,-78.78831000
15.04516602,-79.81326000
15.07568359,-81.53894000
15.10620117,-83.57087000
15.13671875,-84.55699000
15.16723633,-84.04413000
15.19775391,-83.11642000
15.22827148,-82.25913000
15.25878906,-81.63162000
15.28930664,-80.38794000
15.31982422,-78.00533000
15.35034180,-76.52095000
15.38085938,-76.46373000
15.41137695,-76.94572000
15.44189453,-78.45446000
15.47241211,-82.68059000
15.50292969,-90.17976000
15.53344727,-90.25771000
15.56396484,-91.39322000
15.59448242,-95.97272000
15.62500000,-86.41692000
15.65551758,-80.79787000
15.68603516,-78.41034000
15.71655273,-78.47836000
15.74707031,-80.51111000
15.77758789,-84.18198000
15.80810547,-88.34441000
15.83862305,-87.61513000
15.86914063,-84.33811000
15.89965820,-81.21865000
15.93017578,-79.18053000
15.96069336,-78.79309000
15.99121094,-79.84774000
16.02172852,-81.70941000
16.05224609,-83.90479000
16.08276367,-86.93108000
16.11328125,-92.85313000
16.14379883,-87.20000000
16.17431641,-81.05549000
16.20483398,-78.32253000
16.23535156,-77.09603000
16.26586914,-76.46086000
16.29638672,-76.29440000
16.32690430,-76.57900000
16.35742188,-77.34583000
16.38793945,-79.41267000
16.41845703,-84.56413000
16.44897461,-92.61201000
16.47949219,-87.64781000
16.51000977,-86.18961000
16.54052734,-86.06617000
16.57104492,-85.41050000
16.60156250,-84.72353000
16.63208008,-83.51530000
16.66259766,-82.40083000
16.69311523,-82.92183000
16.72363281,-86.50307000
16.75415039,-97.87148000
16.78466797,-92.09486000
16.81518555,-86.45511000
16.84570313,-83.77834000
16.87622070,-81.80897000
16.90673828,-80.93036000
16.93725586,-81.77220000
16.96777344,-84.73926000
16.99829102,-90.34180000
17.02880859,-100.41650000
17.05932617,-102.61640000
17.08984375,-94.90108000
17.12036133,-91.50870000
17.15087891,-89.91780000
17.18139648,-88.08932000
17.21191406,-85.36348000
17.24243164,-83.30067000
17.27294922,-83.31090000
17.30346680,-86.04074000
17.33398438,-88.41899000
17.36450195,-83.91278000
17.39501953,-79.09708000
17.42553711,-76.56814000
17.45605469,-76.31428000
17.48657227,-77.85030000
17.51708984,-80.47876000
17.54760742,-83.12186000
17.57812500,-84.21016000
17.60864258,-84.38164000
17.63916016,-86.08070000
17.66967773,-86.78166000
17.70019531,-81.37430000
17.73071289,-78.08801000
17.76123047,-76.61035000
17.79174805,-74.91653000
17.82226563,-73.88598000
17.85278320,-75.02908000
17.88330078,-78.76981000
17.91381836,-85.13017000
17.94433594,-92.78663000
17.97485352,-96.17844000
18.00537109,-96.94336000
18.03588867,-97.32306000
18.06640625,-96.49234000
18.09692383,-94.48134000
18.12744141,-92.47765000
18.15795898,-91.17297000
18.18847656,-90.32475000
18.21899414,-89.20524000
18.24951172,-88.33302000
18.28002930,-89.36554000
18.31054688,-94.23967000
18.34106445,-93.53143000
18.37158203,-87.85930000
18.40209961,-86.97315000
18.43261719,-90.90840000
18.46313477,-96.64841000
18.49365234,-89.92288000
18.52416992,-88.85074000
18.55468750,-92.00381000
18.58520508,-95.06873000
18.61572266,-92.09090000
18.64624023,-90.33835000
18.67675781,-91.01539000
18.70727539,-95.12805000
18.73779297,-107.92350000
18.76831055,-102.97760000
18.79882813,-104.18100000
18.82934570,-102.00110000
18.85986328,-94.57043000
18.89038086,-91.85336000
18.92089844,-91.97308000
18.95141602,-94.02948000
18.98193359,-95.45576000
19.01245117,-95.18016000
19.04296875,-95.06755000
19.07348633,-94.84859000
19.10400391,-93.89924000
19.13452148,-92.87544000
19.16503906,-92.82063000
19.19555664,-93.97998000
19.22607422,-96.12265000
19.25659180,-98.79823000
19.28710938,-101.14860000
19.31762695,-101.32200000
19.34814453,-98.64437000
19.37866211,-96.85179000
19.40917969,-98.92577000
19.43969727,-111.37060000
19.47021484,-102.85640000
19.50073242,-95.32505000
19.53125000,-91.24167000
19.56176758,-89.33176000
19.59228516,-89.07276000
19.62280273,-89.51897000
19.65332031,-89.80953000
19.68383789,-90.45951000
19.71435547,-92.80708000
19.74487305,-96.50221000
19.77539063,-97.42065000
19.80590820,-100.34290000
19.83642578,-101.07250000
19.86694336,-95.37758000
19.89746094,-93.53448000
19.92797852,-94.84018000
19.95849609,-102.09520000
19.98901367,-97.42744000
20.01953125,-92.24914000
20.05004883,-91.86848000
20.08056641,-91.03731000
20.11108398,-88.06245000
20.14160156,-86.73241000
20.17211914,-87.55547000
20.20263672,-89.86539000
20.23315430,-92.66328000
20.26367188,-94.67536000
20.29418945,-92.98439000
20.32470703,-89.48135000
20.35522461,-87.31416000
20.38574219,-86.73689000
20.41625977,-87.48819000
20.44677734,-89.48433000
20.47729492,-93.05752000
20.50781250,-98.26544000
20.53833008,-104.44800000
20.56884766,-114.20400000
20.59936523,-99.03085000
20.62988281,-94.65158000
20.66040039,-91.86473000
20.69091797,-90.31891000
20.72143555,-90.85182000
20.75195313,-92.07879000
20.78247070,-90.47055000
20.81298828,-88.63985000
20.84350586,-88.62947000
20.87402344,-90.49224000
20.90454102,-94.08159000
20.93505859,-98.80641000
20.96557617,-96.78485000
20.99609375,-93.09583000
21.02661133,-92.57888000
21.05712891,-94.14340000
21.08764648,-94.82643000
21.11816406,-92.74861000
21.14868164,-90.07828000
21.17919922,-88.37531000
21.20971680,-88.42666000
21.24023438,-90.41862000
21.27075195,-93.05645000
21.30126953,-94.93748000
21.33178711,-96.96458000
21.36230469,-98.94566000
21.39282227,-105.67800000
21.42333984,-102.54740000
21.45385742,-99.53079000
21.48437500,-98.67657000
21.51489258,-95.82070000
21.54541016,-96.44462000
21.57592773,-99.67465000
21.60644531,-98.84842000
21.63696289,-92.16297000
21.66748047,-87.62389000
21.69799805,-86.51868000
21.72851563,-88.88696000
21.75903320,-96.05750000
21.78955078,-101.18250000
21.82006836,-94.33689000
21.85058594,-92.54669000
21.88110352,-94.00909000
21.91162109,-98.34037000
21.94213867,-96.17447000
21.97265625,-92.97534000
22.00317383,-92.04620000
22.03369141,-91.95886000
22.06420898,-92.37313000
22.09472656,-92.79263000
22.12524414,-92.59528000
22.15576172,-94.44386000
22.18627930,-99.04854000
22.21679688,-93.70642000
22.24731445,-89.59555000
22.27783203,-87.72231000
22.30834961,-87.71202000
22.33886719,-90.18070000
22.36938477,-93.37564000
22.39990234,-92.61463000
22.43041992,-93.16860000
22.46093750,-96.31334000
22.49145508,-99.20979000
22.52197266,-98.18944000
22.55249023,-94.39949000
22.58300781,-91.08779000
22.61352539,-89.80541000
22.64404297,-90.74158000
22.67456055,-93.32083000
22.70507813,-93.64067000
22.73559570,-89.83982000
22.76611328,-87.49229000
22.79663086,-87.40788000
22.82714844,-89.66102000
22.85766602,-94.57302000
22.88818359,-95.35045000
22.91870117,-93.57800000
22.94921875,-95.76186000
22.97973633,-100.60540000
23.01025391,-100.27770000
23.04077148,-99.04242000
23.07128906,-99.29992000
23.10180664,-100.43790000
23.13232422,-103.30650000
23.16284180,-103.11840000
23.19335938,-98.28698000
23.22387695,-96.42372000
23.25439453,-96.45397000
23.28491211,-95.89691000
23.31542969,-95.77126000
23.34594727,-98.63815000
23.37646484,-106.77160000
23.40698242,-109.37910000
23.43750000,-102.15900000
23.46801758,-100.38120000
23.49853516,-99.04446000
23.52905273,-96.96164000
23.55957031,-94.79942000
23.59008789,-93.17742000
23.62060547,-94.07050000
23.65112305,-98.34321000
23.68164063,-98.25474000
23.71215820,-95.99921000
23.74267578,-96.67809000
23.77319336,-97.49071000
23.80371094,-95.36719000
23.83422852,-91.81155000
23.86474609,-88.84332000
23.89526367,-87.02126000
23.92578125,-86.46899000
23.95629883,-87.24138000
23.98681641,-89.30289000
24.01733398,-92.15219000
24.04785156,-93.86922000
24.07836914,-94.14816000
24.10888672,-95.11283000
24.13940430,-97.50022000
24.16992188,-98.28633000
24.20043945,-92.79504000
24.23095703,-89.36219000
24.26147461,-88.95679000
24.29199219,-91.72890000
24.32250977,-99.42268000
24.35302734,-101.59060000
24.38354492,-94.60155000
24.41406250,-92.16724000
24.44458008,-92.79800000
24.47509766,-96.75107000
24.50561523,-101.25180000
24.53613281,-96.72646000
24.56665039,-94.71707000
24.59716797,-94.60110000
24.62768555,-92.64702000
24.65820313,-91.32374000
24.68872070,-92.92296000
24.71923828,-98.81357000
24.74975586,-111.62000000
24.78027344,-97.60794000
24.81079102,-93.68725000
24.84130859,-92.56339000
24.87182617,-92.01759000
24.90234375,-92.55426000
24.93286133,-98.39310000
24.96337891,-101.58370000
24.99389648,-91.35565000
25.02441406,-89.06345000
25.05493164,-89.87805000
25.08544922,-92.43790000
25.11596680,-95.58209000
25.14648438,-98.64616000
25.17700195,-100.79020000
25.20751953,-98.27098000
25.23803711,-95.86420000
25.26855469,-98.02830000
25.29907227,-124.12220000
25.32958984,-97.13116000
25.36010742,-92.16104000
25.39062500,-91.12949000
25.42114258,-93.57255000
25.45166016,-102.24860000
25.48217773,-94.36240000
25.51269531,-89.38683000
25.54321289,-87.85635000
25.57373047,-87.57938000
25.60424805,-88.00435000
25.63476563,-90.11061000
25.66528320,-95.37479000
25.69580078,-100.59590000
25.72631836,-96.40454000
25.75683594,-94.79941000
25.78735352,-95.35526000
25.81787109,-97.38766000
25.84838867,-98.28632000
25.87890625,-97.09659000
25.90942383,-96.61111000
25.93994141,-98.96846000
25.97045898,-106.35800000
26.00097656,-106.68050000
26.03149414,-104.49700000
26.06201172,-100.67360000
26.09252930,-96.35842000
26.12304688,-92.80048000
26.15356445,-90.78635000
26.18408203,-90.70634000
26.21459961,-92.86485000
26.24511719,-98.51836000
26.27563477,-107.87580000
26.30615234,-101.35550000
26.33666992,-101.04390000
26.36718750,-98.97223000
26.39770508,-94.80439000
26.42822266,-93.73740000
26.45874023,-94.47615000
26.48925781,-95.49675000
26.51977539,-97.20052000
26.55029297,-99.01683000
26.58081055,-98.65563000
26.61132813,-95.82561000
26.64184570,-93.73112000
26.67236328,-95.50162000
26.70288086,-101.50280000
26.73339844,-94.13881000
26.76391602,-91.56107000
26.79443359,-92.28524000
26.82495117,-93.55669000
26.85546875,-94.74023000
26.88598633,-93.67455000
26.91650391,-91.16570000
26.94702148,-90.14001000
26.97753906,-90.91058000
27.00805664,-93.87857000
27.03857422,-95.87953000
27.06909180,-91.98468000
27.09960938,-89.62828000
27.13012695,-89.68548000
27.16064453,-92.93341000
27.19116211,-104.38660000
27.22167969,-94.88313000
27.25219727,-91.20474000
27.28271484,-92.47247000
27.31323242,-95.04454000
27.34375000,-95.23353000
27.37426758,-96.50552000
27.40478516,-96.63406000
27.43530273,-96.56792000
27.46582031,-100.91370000
27.49633789,-100.74350000
27.52685547,-96.62210000
27.55737305,-95.82664000
27.58789063,-93.47701000
27.61840820,-92.55608000
27.64892578,-96.18146000
27.67944336,-102.94520000
27.70996094,-97.52212000
27.74047852,-97.49796000
27.77099609,-104.74340000
27.80151367,-103.04440000
27.83203125,-94.48559000
27.86254883,-91.31662000
27.89306641,-91.28056000
27.92358398,-91.31349000
27.95410156,-89.07817000
27.98461914,-88.09040000
28.01513672,-89.15878000
28.04565430,-92.24565000
28.07617188,-99.18021000
28.10668945,-103.79620000
28.13720703,-96.92473000
28.16772461,-94.67307000
28.19824219,-92.22930000
28.22875977,-91.75761000
28.25927734,-94.30589000
28.28979492,-97.80201000
28.32031250,-101.65050000
28.35083008,-105.62610000
28.38134766,-95.11390000
28.41186523,-90.27656000
28.44238281,-88.16932000
28.47290039,-87.77042000
28.50341797,-89.29657000
28.53393555,-93.53912000
28.56445313,-100.16800000
28.59497070,-99.89287000
28.62548828,-98.50330000
28.65600586,-101.65970000
28.68652344,-110.24030000
28.71704102,-97.99821000
28.74755859,-94.04560000
28.77807617,-94.51321000
28.80859375,-98.77414000
28.83911133,-99.24142000
28.86962891,-94.46484000
28.90014648,-92.41766000
28.93066406,-92.45958000
28.96118164,-94.62569000
28.99169922,-101.11750000
29.02221680,-99.50578000
29.05273438,-91.37855000
29.08325195,-88.37783000
29.11376953,-88.37236000
29.14428711,-89.99742000
29.17480469,-91.76838000
29.20532227,-94.96319000
29.23583984,-103.01340000
29.26635742,-107.86670000
29.29687500,-101.93040000
29.32739258,-95.57488000
29.35791016,-92.93591000
29.38842773,-94.36104000
29.41894531,-101.39290000
29.44946289,-104.47150000
29.47998047,-95.96294000
29.51049805,-92.78383000
29.54101563,-91.75136000
29.57153320,-91.60882000
29.60205078,-90.77533000
29.63256836,-90.06781000
29.66308594,-92.06960000
29.69360352,-98.35025000
29.72412109,-97.78436000
29.75463867,-97.18474000
29.78515625,-99.00897000
29.81567383,-96.68522000
29.84619141,-96.18304000
29.87670898,-97.74812000
29.90722656,-101.28380000
29.93774414,-98.89573000
29.96826172,-92.68288000
29.99877930,-90.67933000
30.02929688,-91.35641000
30.05981445,-94.19463000
30.09033203,-100.84710000
30.12084961,-110.99610000
30.15136719,-100.80250000
30.18188477,-98.72197000
30.21240234,-98.02067000
30.24291992,-97.30524000
30.27343750,-96.98820000
30.30395508,-96.23460000
30.33447266,-93.57916000
30.36499023,-91.25069000
30.39550781,-91.51186000
30.42602539,-95.87157000
30.45654297,-104.59070000
30.48706055,-99.08228000
30.51757813,-98.49354000
30.54809570,-101.33930000
30.57861328,-101.37480000
30.60913086,-99.00241000
30.63964844,-99.84332000
30.67016602,-96.36623000
30.70068359,-93.83544000
30.73120117,-94.90666000
30.76171875,-97.91081000
30.79223633,-98.12976000
30.82275391,-94.29023000
30.85327148,-93.42389000
30.88378906,-98.69939000
30.91430664,-108.32560000
30.94482422,-97.95311000
30.97534180,-98.03455000
31.00585938,-104.28250000
31.03637695,-105.81080000
31.06689453,-95.28149000
31.09741211,-92.52349000
31.12792969,-94.00061000
31.15844727,-97.54063000
31.18896484,-98.49779000
31.21948242,-99.24982000
31.25000000,-97.06192000
31.28051758,-94.84283000
31.31103516,-93.45163000
31.34155273,-92.34424000
31.37207031,-92.71825000
31.40258789,-96.06143000
31.43310547,-100.51250000
31.46362305,-104.33510000
31.49414063,-104.99870000
31.52465820,-105.02150000
31.55517578,-112.71770000
31.58569336,-107.19100000
31.61621094,-95.25925000
31.64672852,-91.30532000
31.67724609,-93.47366000
31.70776367,-97.21978000
31.73828125,-93.32084000
31.76879883,-95.67545000
31.79931641,-101.05210000
31.82983398,-93.15204000
31.86035156,-91.42274000
31.89086914,-93.82813000
31.92138672,-96.02788000
31.95190430,-90.98847000
31.98242188,-87.89949000
32.01293945,-87.31882000
32.04345703,-88.79478000
32.07397461,-91.90895000
32.10449219,-97.23907000
32.13500977,-107.18740000
32.16552734,-96.84206000
32.19604492,-93.67280000
32.22656250,-95.42741000
32.25708008,-101.81900000
32.28759766,-107.57040000
32.31811523,-102.90410000
32.34863281,-98.15406000
32.37915039,-96.72668000
32.40966797,-96.75314000
32.44018555,-97.59604000
32.47070313,-97.27769000
32.50122070,-92.83713000
32.53173828,-90.05543000
32.56225586,-90.69953000
32.59277344,-94.40930000
32.62329102,-99.12339000
32.65380859,-100.49470000
32.68432617,-100.61700000
32.71484375,-100.60030000
32.74536133,-97.25646000
32.77587891,-95.34663000
32.80639648,-96.66306000
32.83691406,-99.55414000
32.86743164,-96.73927000
32.89794922,-95.47719000
32.92846680,-96.74954000
32.95898438,-98.28078000
32.98950195,-98.83470000
33.02001953,-99.19624000
33.05053711,-97.05194000
33.08105469,-94.15195000
33.11157227,-92.52615000
33.14208984,-91.52022000
33.17260742,-92.19329000
33.20312500,-96.84689000
33.23364258,-102.59900000
33.26416016,-96.77779000
33.29467773,-94.95705000
33.32519531,-96.72898000
33.35571289,-104.08840000
33.38623047,-99.04971000
33.41674805,-95.64070000
33.44726563,-95.71170000
33.47778320,-95.73053000
33.50830078,-98.70996000
33.53881836,-102.21540000
33.56933594,-93.99964000
33.59985352,-92.48560000
33.63037109,-94.33152000
33.66088867,-96.02783000
33.69140625,-95.46399000
33.72192383,-95.52168000
33.75244141,-97.61789000
33.78295898,-101.13480000
33.81347656,-103.78610000
33.84399414,-107.32230000
33.87451172,-106.07420000
33.90502930,-97.90259000
33.93554688,-96.06515000
33.96606445,-94.76671000
33.99658203,-92.54044000
34.02709961,-91.83473000
34.05761719,-93.55896000
34.08813477,-97.79776000
34.11865234,-97.13448000
34.14916992,-93.77696000
34.17968750,-94.42877000
34.21020508,-100.18220000
34.24072266,-103.24320000
34.27124023,-105.24540000
34.30175781,-105.06670000
34.33227539,-96.52816000
34.36279297,-93.46747000
34.39331055,-92.77292000
34.42382813,-93.22629000
34.45434570,-95.03831000
34.48486328,-98.72893000
34.51538086,-98.81051000
34.54589844,-100.32000000
34.57641602,-108.01980000
34.60693359,-96.40212000
34.63745117,-95.22683000
34.66796875,-97.97490000
34.69848633,-99.65611000
34.72900391,-101.68010000
34.75952148,-99.31992000
34.79003906,-96.28828000
34.82055664,-95.51826000
34.85107422,-94.59123000
34.88159180,-94.56704000
34.91210938,-99.53783000
34.94262695,-103.95600000
34.97314453,-96.31152000
35.00366211,-95.51227000
35.03417969,-94.95451000
35.06469727,-93.75118000
35.09521484,-95.42481000
35.12573242,-97.34479000
35.15625000,-96.68240000
35.18676758,-97.26286000
35.21728516,-96.92120000
35.24780273,-100.47080000
35.27832031,-105.90170000
35.30883789,-94.10944000
35.33935547,-92.68665000
35.36987305,-95.18985000
35.40039063,-96.95242000
35.43090820,-97.73845000
35.46142578,-101.95740000
35.49194336,-110.69240000
35.52246094,-107.20980000
35.55297852,-105.03590000
35.58349609,-100.25280000
35.61401367,-100.97500000
35.64453125,-96.67397000
35.67504883,-92.10567000
35.70556641,-91.10223000
35.73608398,-91.72394000
35.76660156,-92.39737000
35.79711914,-93.24989000
35.82763672,-94.45805000
35.85815430,-97.43035000
35.88867188,-108.58580000
35.91918945,-104.10860000
35.94970703,-102.00740000
35.98022461,-111.51100000
36.01074219,-104.29250000
36.04125977,-98.51699000
36.07177734,-95.46625000
36.10229492,-94.02704000
36.13281250,-95.20965000
36.16333008,-98.31828000
36.19384766,-99.88338000
36.22436523,-97.03133000
36.25488281,-93.42174000
36.28540039,-91.08061000
36.31591797,-91.70856000
36.34643555,-95.31583000
36.37695313,-94.03534000
36.40747070,-92.21923000
36.43798828,-93.48029000
36.46850586,-96.47470000
36.49902344,-96.82973000
36.52954102,-94.63998000
36.56005859,-94.08416000
36.59057617,-94.76807000
36.62109375,-95.66458000
36.65161133,-94.82808000
36.68212891,-95.18746000
36.71264648,-100.02550000
36.74316406,-114.43800000
36.77368164,-118.25780000
36.80419922,-107.94680000
36.83471680,-102.29040000
36.86523438,-97.92505000
36.89575195,-94.15797000
36.92626953,-92.87911000
36.95678711,-94.55586000
36.98730469,-99.35965000
37.01782227,-102.45010000
37.04833984,-97.78304000
37.07885742,-96.16418000
37.10937500,-98.54230000
37.13989258,-102.58090000
37.17041016,-97.27645000
37.20092773,-94.59686000
37.23144531,-92.73220000
37.26196289,-91.76116000
37.29248047,-93.97156000
37.32299805,-99.80058000
37.35351563,-99.80424000
37.38403320,-99.36029000
37.41455078,-97.91103000
37.44506836,-96.60340000
37.47558594,-102.46730000
37.50610352,-101.64050000
37.53662109,-93.53545000
37.56713867,-91.50487000
37.59765625,-91.33882000
37.62817383,-91.86660000
37.65869141,-93.29178000
37.68920898,-96.01638000
37.71972656,-103.79860000
37.75024414,-103.76820000
37.78076172,-95.47409000
37.81127930,-94.54042000
37.84179688,-96.15623000
37.87231445,-93.81847000
37.90283203,-91.25468000
37.93334961,-91.71386000
37.96386719,-95.12326000
37.99438477,-100.65260000
38.02490234,-110.64780000
38.05541992,-103.32800000
38.08593750,-99.77062000
38.11645508,-98.83096000
38.14697266,-97.89527000
38.17749023,-99.72397000
38.20800781,-104.03710000
38.23852539,-100.71070000
38.26904297,-97.44017000
38.29956055,-97.87622000
38.33007813,-105.58540000
38.36059570,-101.04390000
38.39111328,-95.52032000
38.42163086,-97.20636000
38.45214844,-105.58500000
38.48266602,-98.32089000
38.51318359,-94.92023000
38.54370117,-94.34795000
38.57421875,-94.70749000
38.60473633,-94.90550000
38.63525391,-94.11759000
38.66577148,-93.65196000
38.69628906,-95.52613000
38.72680664,-99.72585000
38.75732422,-99.98721000
38.78784180,-96.73213000
38.81835938,-94.12635000
38.84887695,-93.51759000
38.87939453,-95.26634000
38.90991211,-94.83963000
38.94042969,-91.85227000
38.97094727,-91.19518000
39.00146484,-93.16952000
39.03198242,-98.04921000
39.06250000,-108.35150000
39.09301758,-134.56530000
39.12353516,-107.12240000
39.15405273,-96.39996000
39.18457031,-92.03564000
39.21508789,-91.82354000
39.24560547,-95.54663000
39.27612305,-99.47310000
39.30664063,-97.35867000
39.33715820,-97.13806000
39.36767578,-99.27095000
39.39819336,-100.04870000
39.42871094,-97.51771000
39.45922852,-95.27131000
39.48974609,-93.22877000
39.52026367,-92.19016000
39.55078125,-93.41591000
39.58129883,-97.47282000
39.61181641,-97.56142000
39.64233398,-94.76363000
39.67285156,-94.89387000
39.70336914,-96.53178000
39.73388672,-96.03992000
39.76440430,-94.51823000
39.79492188,-93.91384000
39.82543945,-93.78769000
39.85595703,-94.19193000
39.88647461,-95.36266000
39.91699219,-97.52926000
39.94750977,-99.82858000
39.97802734,-97.78160000
40.00854492,-96.53914000
40.03906250,-98.26534000
40.06958008,-98.75047000
40.10009766,-97.93913000
40.13061523,-96.40308000
40.16113281,-93.11326000
40.19165039,-90.31911000
40.22216797,-88.90668000
40.25268555,-89.16557000
40.28320313,-90.90946000
40.31372070,-93.36140000
40.34423828,-94.81012000
40.37475586,-94.08801000
40.40527344,-93.46877000
40.43579102,-94.23226000
40.46630859,-93.08815000
40.49682617,-91.46645000
40.52734375,-93.85007000
40.55786133,-107.65040000
40.58837891,-96.55701000
40.61889648,-93.76808000
40.64941406,-97.72871000
40.67993164,-117.08540000
40.71044922,-99.75159000
40.74096680,-97.55722000
40.77148438,-95.70607000
40.80200195,-92.47621000
40.83251953,-90.38926000
40.86303711,-89.88862000
40.89355469,-90.06488000
40.92407227,-89.46294000
40.95458984,-88.65070000
40.98510742,-87.46448000
41.01562500,-85.78635000
41.04614258,-85.24992000
41.07666016,-86.72993000
41.10717773,-90.21483000
41.13769531,-93.00279000
41.16821289,-91.96629000
41.19873047,-90.73022000
41.22924805,-89.53841000
41.25976563,-88.13901000
41.29028320,-87.58846000
41.32080078,-88.65004000
41.35131836,-90.37836000
41.38183594,-89.44554000
41.41235352,-87.00539000
41.44287109,-85.67223000
41.47338867,-86.53201000
41.50390625,-90.72918000
41.53442383,-100.03030000
41.56494141,-92.14496000
41.59545898,-88.03920000
41.62597656,-87.09074000
41.65649414,-87.07170000
41.68701172,-86.70872000
41.71752930,-86.94318000
41.74804688,-89.87251000
41.77856445,-100.97240000
41.80908203,-95.58025000
41.83959961,-91.03056000
41.87011719,-90.68142000
41.90063477,-90.36599000
41.93115234,-90.49565000
41.96166992,-94.61457000
41.99218750,-110.79870000
42.02270508,-93.09684000
42.05322266,-89.28178000
42.08374023,-88.31276000
42.11425781,-88.63918000
42.14477539,-89.93613000
42.17529297,-93.50047000
42.20581055,-109.71210000
42.23632813,-93.15759000
42.26684570,-86.38406000
42.29736328,-83.37448000
42.32788086,-82.45821000
42.35839844,-82.97466000
42.38891602,-84.79840000
42.41943359,-87.80792000
42.44995117,-90.82231000
42.48046875,-89.89690000
42.51098633,-86.52124000
42.54150391,-84.63019000
42.57202148,-83.71711000
42.60253906,-82.89377000
42.63305664,-82.56931000
42.66357422,-83.67538000
42.69409180,-87.34656000
42.72460938,-96.21904000
42.75512695,-92.92784000
42.78564453,-89.53120000
42.81616211,-91.44860000
42.84667969,-93.71476000
42.87719727,-90.15392000
42.90771484,-88.88196000
42.93823242,-90.12501000
42.96875000,-93.31798000
42.99926758,-99.15617000
43.02978516,-101.38960000
43.06030273,-96.42946000
43.09082031,-95.02114000
43.12133789,-97.54530000
43.15185547,-99.23687000
43.18237305,-93.33810000
43.21289063,-90.37014000
43.24340820,-89.70766000
43.27392578,-90.72957000
43.30444336,-94.03470000
43.33496094,-101.03950000
43.36547852,-98.46397000
43.39599609,-92.64240000
43.42651367,-89.34356000
43.45703125,-88.71033000
43.48754883,-89.08397000
43.51806641,-86.24948000
43.54858398,-83.76743000
43.57910156,-83.06253000
43.60961914,-83.30496000
43.64013672,-84.02124000
43.67065430,-85.64232000
43.70117188,-88.88197000
43.73168945,-94.21066000
43.76220703,-106.39540000
43.79272461,-99.48510000
43.82324219,-92.15870000
43.85375977,-89.53663000
43.88427734,-89.72626000
43.91479492,-94.03062000
43.94531250,-112.15390000
43.97583008,-96.12605000
44.00634766,-93.44865000
44.03686523,-94.24076000
44.06738281,-96.73286000
44.09790039,-101.38920000
44.12841797,-109.26410000
44.15893555,-101.89320000
44.18945313,-99.11823000
44.21997070,-100.61970000
44.25048828,-104.80980000
44.28100586,-110.52870000
44.31152344,-105.33960000
44.34204102,-96.34097000
44.37255859,-92.15081000
44.40307617,-91.20494000
44.43359375,-92.89994000
44.46411133,-97.21964000
44.49462891,-98.91147000
44.52514648,-93.96681000
44.55566406,-92.69701000
44.58618164,-95.25140000
44.61669922,-102.29980000
44.64721680,-110.31950000
44.67773438,-102.50870000
44.70825195,-97.09840000
44.73876953,-93.60783000
44.76928711,-92.42992000
44.79980469,-92.94507000
44.83032227,-93.44347000
44.86083984,-92.70734000
44.89135742,-92.28537000
44.92187500,-93.97737000
44.95239258,-98.49835000
44.98291016,-103.98050000
45.01342773,-102.89070000
45.04394531,-98.02306000
45.07446289,-94.99896000
45.10498047,-94.00937000
45.13549805,-94.27263000
45.16601563,-94.80389000
45.19653320,-94.93867000
45.22705078,-94.38591000
45.25756836,-93.25718000
45.28808594,-92.19311000
45.31860352,-91.96094000
45.34912109,-92.95940000
45.37963867,-94.90150000
45.41015625,-96.78689000
45.44067383,-97.62710000
45.47119141,-97.70242000
45.50170898,-98.20409000
45.53222656,-99.68459000
45.56274414,-100.72450000
45.59326172,-100.28780000
45.62377930,-98.33936000
45.65429688,-94.81847000
45.68481445,-92.14514000
45.71533203,-91.30513000
45.74584961,-92.64817000
45.77636719,-96.82184000
45.80688477,-106.09790000
45.83740234,-107.30210000
45.86791992,-102.18080000
45.89843750,-101.82440000
45.92895508,-103.04180000
45.95947266,-99.45291000
45.98999023,-97.64320000
46.02050781,-101.98750000
46.05102539,-106.79230000
46.08154297,-95.07981000
46.11206055,-91.89337000
46.14257813,-92.80270000
46.17309570,-98.13277000
46.20361328,-96.53146000
46.23413086,-93.11852000
46.26464844,-94.90089000
46.29516602,-101.69240000
46.32568359,-96.11878000
46.35620117,-92.11491000
46.38671875,-92.03358000
46.41723633,-94.41820000
46.44775391,-94.38340000
46.47827148,-93.93086000
46.50878906,-99.02344000
46.53930664,-103.87740000
46.56982422,-95.24224000
46.60034180,-93.71947000
46.63085938,-95.26160000
46.66137695,-100.22690000
46.69189453,-110.68670000
46.72241211,-95.51494000
46.75292969,-91.25317000
46.78344727,-91.57749000
46.81396484,-97.09476000
46.84448242,-100.54260000
46.87500000,-94.25555000
46.90551758,-91.70631000
46.93603516,-90.59602000
46.96655273,-91.19128000
46.99707031,-93.73077000
47.02758789,-93.82391000
47.05810547,-90.72785000
47.08862305,-89.34224000
47.11914063,-89.79773000
47.14965820,-91.41209000
47.18017578,-93.22447000
47.21069336,-95.15083000
47.24121094,-100.36920000
47.27172852,-107.12130000
47.30224609,-98.26595000
47.33276367,-97.36668000
47.36328125,-97.79861000
47.39379883,-96.82379000
47.42431641,-99.60267000
47.45483398,-105.42980000
47.48535156,-95.86443000
47.51586914,-92.85585000
47.54638672,-92.13080000
47.57690430,-91.88714000
47.60742188,-93.11164000
47.63793945,-96.98342000
47.66845703,-100.73440000
47.69897461,-100.46170000
47.72949219,-102.24860000
47.76000977,-99.47224000
47.79052734,-95.57915000
47.82104492,-92.82790000
47.85156250,-91.22601000
47.88208008,-91.35192000
47.91259766,-93.28014000
47.94311523,-97.35069000
47.97363281,-103.24030000
48.00415039,-102.35940000
48.03466797,-100.78410000
48.06518555,-97.90181000
48.09570313,-95.01558000
48.12622070,-94.64099000
48.15673828,-96.91068000
48.18725586,-100.73140000
48.21777344,-99.99133000
48.24829102,-97.06224000
48.27880859,-95.29837000
48.30932617,-95.03923000
48.33984375,-95.90967000
48.37036133,-95.00594000
48.40087891,-94.87807000
48.43139648,-96.30143000
48.46191406,-94.84260000
48.49243164,-92.74735000
48.52294922,-93.71239000
48.55346680,-101.26930000
48.58398438,-101.15070000
48.61450195,-94.03468000
48.64501953,-92.59377000
48.67553711,-94.99986000
48.70605469,-99.27292000
48.73657227,-96.62612000
48.76708984,-97.11002000
48.79760742,-101.47080000
48.82812500,-105.16640000
48.85864258,-101.86140000
48.88916016,-95.91341000
48.91967773,-95.97615000
48.95019531,-102.09660000
48.98071289,-98.22960000
49.01123047,-95.23595000
49.04174805,-96.57428000
49.07226563,-99.43551000
49.10278320,-100.93470000
49.13330078,-100.22160000
49.16381836,-96.71296000
49.19433594,-94.60548000
49.22485352,-94.87053000
49.25537109,-97.87770000
49.28588867,-99.06602000
49.31640625,-93.53973000
49.34692383,-90.18547000
49.37744141,-89.55341000
49.40795898,-91.42949000
49.43847656,-93.38091000
49.46899414,-91.90762000
49.49951172,-91.60197000
49.53002930,-93.09744000
49.56054688,-93.79478000
49.59106445,-92.51392000
49.62158203,-90.82071000
49.65209961,-90.61042000
49.68261719,-93.16260000
49.71313477,-98.06458000
49.74365234,-99.15985000
49.77416992,-99.44536000
49.80468750,-103.32340000
49.83520508,-108.11700000
49.86572266,-101.52640000
49.89624023,-105.92240000
49.92675781,-99.54025000
49.95727539,-91.78865000
49.98779297,-89.51457000
50.01831055,-89.84860000
