Frequency,Channel A
(MHz),(dBu)

0.00000000,-29.02977000
0.03051758,-29.53697000
0.06103516,-35.24055000
0.09155273,-45.65983000
0.12207031,-52.78056000
0.15258789,-55.92855000
0.18310547,-58.57944000
0.21362305,-63.21863000
0.24414063,-62.45858000
0.27465820,-60.52781000
0.30517578,-61.40703000
0.33569336,-67.16042000
0.36621094,-69.10639000
0.39672852,-61.58028000
0.42724609,-60.37323000
0.45776367,-64.70587000
0.48828125,-75.59371000
0.51879883,-61.96827000
0.54931641,-59.92498000
0.57983398,-62.56330000
0.61035156,-65.81659000
0.64086914,-61.11296000
0.67138672,-59.27221000
0.70190430,-61.19871000
0.73242188,-65.19524000
0.76293945,-64.25460000
0.79345703,-63.03928000
0.82397461,-62.26633000
0.85449219,-61.39158000
0.88500977,-62.69268000
0.91552734,-67.22804000
0.94604492,-66.56907000
0.97656250,-62.04689000
1.00708008,-60.08793000
1.03759766,-59.96489000
1.06811523,-61.99500000
1.09863281,-67.68118000
1.12915039,-70.82545000
1.15966797,-65.90501000
1.19018555,-63.98003000
1.22070313,-63.07136000
1.25122070,-63.03251000
1.28173828,-63.66784000
1.31225586,-63.24587000
1.34277344,-62.28649000
1.37329102,-62.51030000
1.40380859,-64.09960000
1.43432617,-65.83581000
1.46484375,-66.18041000
1.49536133,-66.55895000
1.52587891,-68.58369000
1.55639648,-69.62037000
1.58691406,-66.34697000
1.61743164,-64.06292000
1.64794922,-63.84742000
1.67846680,-64.97784000
1.70898438,-65.48275000
1.73950195,-64.73141000
1.77001953,-64.17031000
1.80053711,-63.34355000
1.83105469,-61.95091000
1.86157227,-61.41438000
1.89208984,-62.55917000
1.92260742,-64.99147000
1.95312500,-66.67190000
1.98364258,-66.95596000
2.01416016,-67.51492000
2.04467773,-67.61854000
2.07519531,-66.58796000
2.10571289,-66.32171000
2.13623047,-67.73225000
2.16674805,-69.39070000
2.19726563,-68.41490000
2.22778320,-66.69953000
2.25830078,-65.94756000
2.28881836,-66.09441000
2.31933594,-66.34711000
2.34985352,-66.30975000
2.38037109,-66.83099000
2.41088867,-68.00204000
2.44140625,-68.53182000
2.47192383,-68.29672000
2.50244141,-67.97198000
2.53295898,-67.41535000
2.56347656,-66.96587000
2.59399414,-67.02336000
2.62451172,-67.23934000
2.65502930,-66.76195000
2.68554688,-65.46923000
2.71606445,-64.05583000
2.74658203,-63.12927000
2.77709961,-63.47417000
2.80761719,-66.04588000
2.83813477,-70.61496000
2.86865234,-69.96537000
2.89916992,-67.48724000
2.92968750,-66.23907000
2.96020508,-65.15682000
2.99072266,-64.40778000
3.02124023,-64.31391000
3.05175781,-64.65028000
3.08227539,-65.17287000
3.11279297,-65.55734000
3.14331055,-65.08291000
3.17382813,-64.30354000
3.20434570,-64.52782000
3.23486328,-65.67580000
3.26538086,-65.69622000
3.29589844,-64.39568000
3.32641602,-63.71679000
3.35693359,-63.69064000
3.38745117,-63.63760000
3.41796875,-63.68725000
3.44848633,-63.93079000
3.47900391,-63.90218000
3.50952148,-63.59497000
3.54003906,-63.41393000
3.57055664,-63.61277000
3.60107422,-64.03696000
3.63159180,-63.63619000
3.66210938,-62.69077000
3.69262695,-62.92621000
3.72314453,-64.44177000
3.75366211,-64.38617000
3.78417969,-62.67267000
3.81469727,-61.86618000
3.84521484,-61.70304000
3.87573242,-61.56909000
3.90625000,-61.73953000
3.93676758,-62.05688000
3.96728516,-62.12464000
3.99780273,-62.06147000
4.02832031,-61.86117000
4.05883789,-61.64984000
4.08935547,-61.65944000
4.11987305,-61.67256000
4.15039063,-61.50647000
4.18090820,-61.39458000
4.21142578,-61.31644000
4.24194336,-61.12307000
4.27246094,-61.02966000
4.30297852,-61.21549000
4.33349609,-61.50322000
4.36401367,-61.53123000
4.39453125,-61.14637000
4.42504883,-60.62367000
4.45556641,-60.41310000
4.48608398,-60.84053000
4.51660156,-61.93163000
4.54711914,-63.20275000
4.57763672,-63.83982000
4.60815430,-63.89716000
4.63867188,-64.36188000
4.66918945,-65.63879000
4.69970703,-66.37468000
4.73022461,-65.48254000
4.76074219,-64.60204000
4.79125977,-64.55199000
4.82177734,-65.22624000
4.85229492,-66.15073000
4.88281250,-66.51495000
4.91333008,-66.17868000
4.94384766,-65.91476000
4.97436523,-66.09313000
5.00488281,-66.40202000
5.03540039,-66.64113000
5.06591797,-67.29228000
5.09643555,-68.53988000
5.12695313,-69.37774000
5.15747070,-68.90511000
5.18798828,-68.05708000
5.21850586,-67.77100000
5.24902344,-68.40619000
5.27954102,-70.31760000
5.31005859,-73.94495000
5.34057617,-79.43661000
5.37109375,-84.56071000
5.40161133,-84.36492000
5.43212891,-80.58486000
5.46264648,-77.20135000
5.49316406,-74.38303000
5.52368164,-71.56478000
5.55419922,-68.74735000
5.58471680,-66.22616000
5.61523438,-64.41533000
5.64575195,-63.42306000
5.67626953,-62.74388000
5.70678711,-61.96497000
5.73730469,-61.27869000
5.76782227,-60.69187000
5.79833984,-59.99969000
5.82885742,-59.37328000
5.85937500,-59.14343000
5.88989258,-59.32534000
5.92041016,-59.68008000
5.95092773,-60.04818000
5.98144531,-60.42100000
6.01196289,-60.75581000
6.04248047,-60.96787000
6.07299805,-61.10684000
6.10351563,-61.28830000
6.13403320,-61.46794000
6.16455078,-61.62504000
6.19506836,-61.98563000
6.22558594,-62.70695000
6.25610352,-63.74740000
6.28662109,-65.04402000
6.31713867,-66.45647000
6.34765625,-67.64301000
6.37817383,-68.20508000
6.40869141,-68.19849000
6.43920898,-68.27622000
6.46972656,-69.14861000
6.50024414,-70.82225000
6.53076172,-71.99003000
6.56127930,-72.24688000
6.59179688,-72.75146000
6.62231445,-74.11424000
6.65283203,-75.64138000
6.68334961,-76.65631000
6.71386719,-80.24098000
6.74438477,-83.75824000
6.77490234,-79.82189000
6.80541992,-79.62279000
6.83593750,-81.83485000
6.86645508,-83.01085000
6.89697266,-80.92480000
6.92749023,-78.17577000
6.95800781,-76.74324000
6.98852539,-76.32462000
7.01904297,-75.43489000
7.04956055,-74.51102000
7.08007813,-75.02169000
7.11059570,-77.85243000
7.14111328,-83.88381000
7.17163086,-84.14720000
7.20214844,-80.03444000
7.23266602,-79.23568000
7.26318359,-81.98540000
7.29370117,-90.56001000
7.32421875,-87.51126000
7.35473633,-85.33710000
7.38525391,-86.71065000
7.41577148,-84.34271000
7.44628906,-81.33195000
7.47680664,-79.70087000
7.50732422,-79.15251000
7.53784180,-79.29596000
7.56835938,-79.14063000
7.59887695,-78.73384000
7.62939453,-78.94939000
7.65991211,-79.40164000
7.69042969,-79.66066000
7.72094727,-79.90060000
7.75146484,-79.73082000
7.78198242,-78.87659000
7.81250000,-78.14616000
7.84301758,-78.39870000
7.87353516,-79.72041000
7.90405273,-81.12657000
7.93457031,-81.63228000
7.96508789,-81.82645000
7.99560547,-82.45757000
8.02612305,-83.93993000
8.05664063,-85.51865000
8.08715820,-85.09949000
8.11767578,-84.62866000
8.14819336,-85.26176000
8.17871094,-84.79341000
8.20922852,-83.22450000
8.23974609,-82.01187000
8.27026367,-81.40285000
8.30078125,-81.64395000
8.33129883,-83.56009000
8.36181641,-86.83758000
8.39233398,-84.14426000
8.42285156,-81.73209000
8.45336914,-82.94659000
8.48388672,-87.96376000
8.51440430,-94.06414000
8.54492188,-90.82737000
8.57543945,-88.72923000
8.60595703,-87.73643000
8.63647461,-87.97570000
8.66699219,-86.16021000
8.69750977,-83.49966000
8.72802734,-82.74758000
8.75854492,-82.82471000
8.78906250,-82.56542000
8.81958008,-82.52723000
8.85009766,-83.70982000
8.88061523,-86.26538000
8.91113281,-87.65069000
8.94165039,-86.77711000
8.97216797,-87.52713000
9.00268555,-90.45767000
9.03320313,-92.29484000
9.06372070,-90.91968000
9.09423828,-91.91079000
9.12475586,-106.61930000
9.15527344,-86.81975000
9.18579102,-81.97057000
9.21630859,-81.34739000
9.24682617,-83.42789000
9.27734375,-87.29546000
9.30786133,-91.39450000
9.33837891,-94.05035000
9.36889648,-96.07726000
9.39941406,-91.22153000
9.42993164,-85.98072000
9.46044922,-84.88303000
9.49096680,-87.52155000
9.52148438,-95.23018000
9.55200195,-95.21114000
9.58251953,-87.01849000
9.61303711,-84.77850000
9.64355469,-85.33672000
9.67407227,-88.01512000
9.70458984,-95.65413000
9.73510742,-94.08798000
9.76562500,-85.40386000
9.79614258,-81.52223000
9.82666016,-79.58538000
9.85717773,-79.26985000
9.88769531,-80.77263000
9.91821289,-84.24262000
9.94873047,-90.18080000
9.97924805,-90.28412000
10.00976563,-83.42396000
10.04028320,-80.10640000
10.07080078,-79.99979000
10.10131836,-83.87842000
10.13183594,-101.55540000
10.16235352,-86.36548000
10.19287109,-81.35581000
10.22338867,-79.62363000
10.25390625,-79.02643000
10.28442383,-78.42342000
10.31494141,-77.77894000
10.34545898,-78.11011000
10.37597656,-79.82457000
10.40649414,-81.00379000
10.43701172,-81.21329000
10.46752930,-82.94737000
10.49804688,-86.35288000
10.52856445,-88.59862000
10.55908203,-86.13901000
10.58959961,-83.18356000
10.62011719,-82.21735000
10.65063477,-83.19463000
10.68115234,-83.08022000
10.71166992,-81.48280000
10.74218750,-81.86822000
10.77270508,-83.97292000
10.80322266,-85.84428000
10.83374023,-89.32480000
10.86425781,-98.31659000
10.89477539,-87.43361000
10.92529297,-81.81023000
10.95581055,-81.25263000
10.98632813,-85.62091000
11.01684570,-87.12759000
11.04736328,-82.67709000
11.07788086,-82.73987000
11.10839844,-86.27945000
11.13891602,-90.21704000
11.16943359,-90.66672000
11.19995117,-86.97696000
11.23046875,-82.91277000
11.26098633,-80.63585000
11.29150391,-80.03717000
11.32202148,-82.37175000
11.35253906,-87.17533000
11.38305664,-84.72255000
11.41357422,-82.43835000
11.44409180,-81.39179000
11.47460938,-84.05944000
11.50512695,-86.71958000
11.53564453,-80.80087000
11.56616211,-78.99630000
11.59667969,-79.48739000
11.62719727,-79.93222000
11.65771484,-78.71967000
11.68823242,-78.01599000
11.71875000,-79.62795000
11.74926758,-85.30080000
11.77978516,-98.68591000
11.81030273,-81.90624000
11.84082031,-77.35104000
11.87133789,-75.99086000
11.90185547,-77.47581000
11.93237305,-84.18308000
11.96289063,-85.14566000
11.99340820,-76.85387000
12.02392578,-74.71852000
12.05444336,-75.88546000
12.08496094,-78.99898000
12.11547852,-80.18811000
12.14599609,-80.57374000
12.17651367,-84.45457000
12.20703125,-98.66082000
12.23754883,-86.65265000
12.26806641,-83.45875000
12.29858398,-84.22672000
12.32910156,-83.89055000
12.35961914,-79.95612000
12.39013672,-77.33999000
12.42065430,-78.07732000
12.45117188,-83.37136000
12.48168945,-98.39594000
12.51220703,-98.80379000
12.54272461,-102.77010000
12.57324219,-101.97770000
12.60375977,-88.81905000
12.63427734,-84.23260000
12.66479492,-83.34969000
12.69531250,-83.18448000
12.72583008,-83.67926000
12.75634766,-85.75949000
12.78686523,-80.87791000
12.81738281,-77.74258000
12.84790039,-78.81339000
12.87841797,-84.32446000
12.90893555,-82.48244000
12.93945313,-77.86458000
12.96997070,-76.49852000
13.00048828,-76.73266000
13.03100586,-77.47987000
13.06152344,-78.77956000
13.09204102,-82.67902000
13.12255859,-101.41800000
13.15307617,-85.32146000
13.18359375,-82.72015000
13.21411133,-86.17702000
13.24462891,-93.70853000
13.27514648,-89.73360000
13.30566406,-83.38391000
13.33618164,-78.34210000
13.36669922,-75.70716000
13.39721680,-75.70801000
13.42773438,-78.41125000
13.45825195,-84.29031000
13.48876953,-74.62670000
13.51928711,-67.74215000
13.54980469,-65.08215000
13.58032227,-66.29626000
13.61083984,-72.58266000
13.64135742,-73.54289000
13.67187500,-68.71147000
13.70239258,-67.75046000
13.73291016,-69.18250000
13.76342773,-73.24158000
13.79394531,-81.82632000
13.82446289,-94.68964000
13.85498047,-83.10448000
13.88549805,-81.15765000
13.91601563,-82.66409000
13.94653320,-86.94173000
13.97705078,-83.06664000
14.00756836,-78.51947000
14.03808594,-76.81329000
14.06860352,-77.14809000
14.09912109,-79.49876000
14.12963867,-85.15324000
14.16015625,-99.25801000
14.19067383,-85.16862000
14.22119141,-81.55219000
14.25170898,-82.27315000
14.28222656,-88.14537000
14.31274414,-91.10599000
14.34326172,-84.72224000
14.37377930,-84.37980000
14.40429688,-86.32173000
14.43481445,-86.06470000
14.46533203,-82.83884000
14.49584961,-80.09873000
14.52636719,-78.87668000
14.55688477,-78.41998000
14.58740234,-77.70216000
14.61791992,-76.73346000
14.64843750,-76.55389000
14.67895508,-78.07649000
14.70947266,-80.69376000
14.73999023,-80.39697000
14.77050781,-78.67703000
14.80102539,-78.04589000
14.83154297,-77.99981000
14.86206055,-78.49942000
14.89257813,-80.56891000
14.92309570,-84.66254000
14.95361328,-85.15318000
14.98413086,-82.41629000
15.01464844,-81.84391000
15.04516602,-83.96523000
15.07568359,-90.12303000
15.10620117,-94.79865000
15.13671875,-89.03069000
15.16723633,-86.77899000
15.19775391,-86.29334000
15.22827148,-87.05348000
15.25878906,-86.19934000
15.28930664,-81.41189000
15.31982422,-79.37975000
15.35034180,-81.76919000
15.38085938,-86.13062000
15.41137695,-80.91763000
15.44189453,-78.08458000
15.47241211,-77.63747000
15.50292969,-79.34811000
15.53344727,-85.85376000
15.56396484,-90.92599000
15.59448242,-81.28371000
15.62500000,-80.42819000
15.65551758,-83.47379000
15.68603516,-86.33765000
15.71655273,-86.79032000
15.74707031,-89.35109000
15.77758789,-96.38342000
15.80810547,-97.83597000
15.83862305,-89.14307000
15.86914063,-83.88695000
15.89965820,-80.41487000
15.93017578,-78.62071000
15.96069336,-78.71255000
15.99121094,-80.64851000
16.02172852,-82.84813000
16.05224609,-83.09175000
16.08276367,-83.34130000
16.11328125,-85.41351000
16.14379883,-91.29830000
16.17431641,-99.26286000
16.20483398,-89.13922000
16.23535156,-87.02432000
16.26586914,-87.25915000
16.29638672,-86.61508000
16.32690430,-85.75043000
16.35742188,-86.07739000
16.38793945,-87.61969000
16.41845703,-90.84190000
16.44897461,-101.37900000
16.47949219,-93.24639000
16.51000977,-84.82025000
16.54052734,-81.62155000
16.57104492,-81.70395000
16.60156250,-84.85854000
16.63208008,-87.13445000
16.66259766,-84.78089000
16.69311523,-84.59616000
16.72363281,-87.43577000
16.75415039,-93.71074000
16.78466797,-97.80816000
16.81518555,-94.28287000
16.84570313,-92.30594000
16.87622070,-88.37219000
16.90673828,-85.24594000
16.93725586,-84.63625000
16.96777344,-86.30914000
16.99829102,-88.17974000
17.02880859,-87.65254000
17.05932617,-87.14913000
17.08984375,-87.96360000
17.12036133,-88.29294000
17.15087891,-86.09908000
17.18139648,-84.40997000
17.21191406,-85.24804000
17.24243164,-89.50530000
17.27294922,-94.21719000
17.30346680,-89.63855000
17.33398438,-86.69641000
17.36450195,-86.03347000
17.39501953,-87.53944000
17.42553711,-89.76337000
17.45605469,-88.53584000
17.48657227,-86.63023000
17.51708984,-85.35354000
17.54760742,-84.21225000
17.57812500,-84.23478000
17.60864258,-86.81678000
17.63916016,-92.25360000
17.66967773,-86.44569000
17.70019531,-81.42608000
17.73071289,-79.22360000
17.76123047,-78.05320000
17.79174805,-76.93130000
17.82226563,-76.81480000
17.85278320,-78.68236000
17.88330078,-82.45811000
17.91381836,-87.04054000
17.94433594,-89.70834000
17.97485352,-88.89800000
18.00537109,-87.60001000
18.03588867,-87.29027000
18.06640625,-89.05974000
18.09692383,-95.53535000
18.12744141,-97.90562000
18.15795898,-90.05116000
18.18847656,-88.23281000
18.21899414,-88.30181000
18.24951172,-87.81387000
18.28002930,-87.97998000
18.31054688,-90.42434000
18.34106445,-94.21825000
18.37158203,-94.81770000
18.40209961,-92.33871000
18.43261719,-90.01860000
18.46313477,-89.62086000
18.49365234,-91.97188000
18.52416992,-96.65547000
18.55468750,-94.27090000
18.58520508,-91.18459000
18.61572266,-90.77800000
18.64624023,-92.05423000
18.67675781,-93.95553000
18.70727539,-95.65942000
18.73779297,-97.53124000
18.76831055,-98.74103000
18.79882813,-98.14601000
18.82934570,-98.38401000
18.85986328,-97.24473000
18.89038086,-94.98782000
18.92089844,-95.67172000
18.95141602,-100.37360000
18.98193359,-104.19150000
19.01245117,-101.44480000
19.04296875,-100.88260000
19.07348633,-100.28770000
19.10400391,-97.70245000
19.13452148,-94.11620000
19.16503906,-91.42767000
19.19555664,-91.24326000
19.22607422,-94.66978000
19.25659180,-103.69990000
19.28710938,-104.89260000
19.31762695,-102.49730000
19.34814453,-96.89391000
19.37866211,-91.71693000
19.40917969,-89.53456000
19.43969727,-90.15913000
19.47021484,-93.21709000
19.50073242,-94.83826000
19.53125000,-93.68814000
19.56176758,-93.63776000
19.59228516,-93.55882000
19.62280273,-93.50364000
19.65332031,-95.11647000
19.68383789,-98.96281000
19.71435547,-99.17218000
19.74487305,-94.42528000
19.77539063,-91.64868000
19.80590820,-90.89589000
19.83642578,-91.23021000
19.86694336,-92.59265000
19.89746094,-96.93043000
19.92797852,-102.64570000
19.95849609,-95.03102000
19.98901367,-91.25530000
20.01953125,-89.54330000
20.05004883,-88.97705000
20.08056641,-89.84547000
20.11108398,-93.27004000
20.14160156,-100.84320000
20.17211914,-98.80078000
20.20263672,-95.92390000
20.23315430,-97.24606000
20.26367188,-100.46590000
20.29418945,-98.28548000
20.32470703,-95.13923000
20.35522461,-96.31540000
20.38574219,-98.70499000
20.41625977,-93.24017000
20.44677734,-92.34950000
20.47729492,-95.88237000
20.50781250,-97.53967000
20.53833008,-97.10679000
20.56884766,-98.52898000
20.59936523,-97.48214000
20.62988281,-94.10730000
20.66040039,-91.75648000
20.69091797,-90.17520000
20.72143555,-88.80524000
20.75195313,-88.81219000
20.78247070,-90.34054000
20.81298828,-91.67836000
20.84350586,-91.74210000
20.87402344,-91.47565000
20.90454102,-92.10854000
20.93505859,-93.90309000
20.96557617,-95.47137000
20.99609375,-95.68467000
21.02661133,-92.53555000
21.05712891,-88.49152000
21.08764648,-86.75929000
21.11816406,-87.70914000
21.14868164,-91.34737000
21.17919922,-97.52048000
21.20971680,-107.31090000
21.24023438,-104.47490000
21.27075195,-97.09960000
21.30126953,-94.40578000
21.33178711,-94.01932000
21.36230469,-94.26831000
21.39282227,-95.12806000
21.42333984,-99.26665000
21.45385742,-99.94177000
21.48437500,-96.79953000
21.51489258,-97.56470000
21.54541016,-95.04997000
21.57592773,-92.95186000
21.60644531,-95.56507000
21.63696289,-101.55040000
21.66748047,-97.34069000
21.69799805,-94.61907000
21.72851563,-91.92448000
21.75903320,-90.68074000
21.78955078,-94.02066000
21.82006836,-107.11140000
21.85058594,-93.06164000
21.88110352,-90.05463000
21.91162109,-90.68840000
21.94213867,-94.08848000
21.97265625,-96.52836000
22.00317383,-93.22046000
22.03369141,-92.58406000
22.06420898,-93.74727000
22.09472656,-90.64967000
22.12524414,-88.34450000
22.15576172,-89.24432000
22.18627930,-93.09453000
22.21679688,-97.01711000
22.24731445,-97.48650000
22.27783203,-98.75450000
22.30834961,-103.66710000
22.33886719,-109.37660000
22.36938477,-93.63983000
22.39990234,-87.54459000
22.43041992,-85.24640000
22.46093750,-86.40980000
22.49145508,-92.61259000
22.52197266,-109.24200000
22.55249023,-95.46529000
22.58300781,-95.64548000
22.61352539,-98.90946000
22.64404297,-100.29330000
22.67456055,-98.16582000
22.70507813,-95.42870000
22.73559570,-91.94126000
22.76611328,-88.93868000
22.79663086,-88.02494000
22.82714844,-89.39887000
22.85766602,-91.09771000
22.88818359,-90.96653000
22.91870117,-89.24068000
22.94921875,-87.30293000
22.97973633,-87.34467000
23.01025391,-90.01685000
23.04077148,-95.33150000
23.07128906,-106.55100000
23.10180664,-103.01560000
23.13232422,-96.29536000
23.16284180,-94.10352000
23.19335938,-93.16853000
23.22387695,-93.34888000
23.25439453,-95.64513000
23.28491211,-98.94173000
23.31542969,-99.66730000
23.34594727,-105.60500000
23.37646484,-104.02730000
23.40698242,-94.38386000
23.43750000,-90.32439000
23.46801758,-89.18298000
23.49853516,-90.58914000
23.52905273,-92.89185000
23.55957031,-92.47447000
23.59008789,-89.52913000
23.62060547,-87.81331000
23.65112305,-88.76303000
23.68164063,-92.61319000
23.71215820,-99.21604000
23.74267578,-100.05460000
23.77319336,-95.55363000
23.80371094,-93.17883000
23.83422852,-92.77753000
23.86474609,-93.62479000
23.89526367,-93.71416000
23.92578125,-91.45602000
23.95629883,-89.13228000
23.98681641,-88.55134000
24.01733398,-90.67559000
24.04785156,-99.44610000
24.07836914,-97.46143000
24.10888672,-89.40876000
24.13940430,-87.33644000
24.16992188,-88.09205000
24.20043945,-90.98953000
24.23095703,-95.37631000
24.26147461,-100.00670000
24.29199219,-102.92980000
24.32250977,-98.63515000
24.35302734,-94.32153000
24.38354492,-91.64980000
24.41406250,-89.64609000
24.44458008,-88.08255000
24.47509766,-88.02605000
24.50561523,-90.35476000
24.53613281,-94.82759000
24.56665039,-97.82375000
24.59716797,-96.76846000
24.62768555,-95.00580000
24.65820313,-94.35948000
24.68872070,-94.05323000
24.71923828,-93.11050000
24.74975586,-91.37786000
24.78027344,-89.17667000
24.81079102,-87.65654000
24.84130859,-87.81960000
24.87182617,-90.05266000
24.90234375,-91.48217000
24.93286133,-90.22678000
24.96337891,-91.16737000
24.99389648,-96.27126000
25.02441406,-108.13240000
25.05493164,-100.58430000
25.08544922,-96.66131000
25.11596680,-94.89117000
25.14648438,-95.09821000
25.17700195,-98.51937000
25.20751953,-104.57560000
25.23803711,-102.55490000
25.26855469,-93.46218000
25.29907227,-89.36455000
25.32958984,-88.56438000
25.36010742,-89.77988000
25.39062500,-92.76141000
25.42114258,-99.20501000
25.45166016,-98.87787000
25.48217773,-93.03563000
25.51269531,-91.41876000
25.54321289,-91.99377000
25.57373047,-92.81012000
25.60424805,-92.49393000
25.63476563,-90.98677000
25.66528320,-90.21748000
25.69580078,-91.52849000
25.72631836,-93.03722000
25.75683594,-91.89732000
25.78735352,-92.65981000
25.81787109,-100.02430000
25.84838867,-103.34410000
25.87890625,-96.39436000
25.90942383,-93.72969000
25.93994141,-88.69347000
25.97045898,-86.21346000
26.00097656,-86.78441000
26.03149414,-90.20468000
26.06201172,-97.97821000
26.09252930,-101.52230000
26.12304688,-91.04080000
26.15356445,-86.76247000
26.18408203,-85.22321000
26.21459961,-85.52075000
26.24511719,-86.68669000
26.27563477,-87.75787000
26.30615234,-88.99586000
26.33666992,-91.62418000
26.36718750,-97.17130000
26.39770508,-102.05200000
26.42822266,-96.52438000
26.45874023,-93.59222000
26.48925781,-94.44541000
26.51977539,-102.82000000
26.55029297,-97.97849000
26.58081055,-94.78105000
26.61132813,-97.81697000
26.64184570,-96.69241000
26.67236328,-93.84363000
26.70288086,-93.58321000
26.73339844,-94.76048000
26.76391602,-99.28432000
26.79443359,-103.95560000
26.82495117,-94.28169000
26.85546875,-91.37900000
26.88598633,-91.12376000
26.91650391,-90.73658000
26.94702148,-88.81447000
26.97753906,-87.00867000
27.00805664,-86.60026000
27.03857422,-87.65942000
27.06909180,-89.86880000
27.09960938,-92.58307000
27.13012695,-93.72315000
27.16064453,-94.99219000
27.19116211,-102.40480000
27.22167969,-104.18300000
27.25219727,-96.86855000
27.28271484,-98.01129000
27.31323242,-104.53980000
27.34375000,-98.45844000
27.37426758,-93.40166000
27.40478516,-91.42436000
27.43530273,-91.77495000
27.46582031,-93.42980000
27.49633789,-91.88926000
27.52685547,-89.72414000
27.55737305,-90.26881000
27.58789063,-93.14450000
27.61840820,-94.81849000
27.64892578,-94.09900000
27.67944336,-94.56923000
27.70996094,-98.21867000
27.74047852,-119.54150000
27.77099609,-98.68732000
27.80151367,-94.86716000
27.83203125,-96.21867000
27.86254883,-102.79110000
27.89306641,-114.25210000
27.92358398,-104.48610000
27.95410156,-98.80173000
27.98461914,-93.37578000
28.01513672,-90.28468000
28.04565430,-89.44714000
28.07617188,-90.19330000
28.10668945,-90.79330000
28.13720703,-89.40524000
28.16772461,-87.34453000
28.19824219,-86.19463000
28.22875977,-86.48547000
28.25927734,-88.11838000
28.28979492,-89.49428000
28.32031250,-88.57059000
28.35083008,-88.00834000
28.38134766,-89.64296000
28.41186523,-94.56094000
28.44238281,-109.31950000
28.47290039,-97.45602000
28.50341797,-94.60331000
28.53393555,-95.07912000
28.56445313,-90.46954000
28.59497070,-86.03223000
28.62548828,-84.18176000
28.65600586,-84.06987000
28.68652344,-84.93255000
28.71704102,-86.29845000
28.74755859,-87.87375000
28.77807617,-89.37791000
28.80859375,-90.39603000
28.83911133,-90.51053000
28.86962891,-89.55118000
28.90014648,-87.84773000
28.93066406,-86.26915000
28.96118164,-85.49499000
28.99169922,-85.49049000
29.02221680,-85.83789000
29.05273438,-86.72289000
29.08325195,-88.65126000
29.11376953,-91.18416000
29.14428711,-92.78502000
29.17480469,-93.22307000
29.20532227,-94.13662000
29.23583984,-97.24975000
29.26635742,-103.35840000
29.29687500,-98.30013000
29.32739258,-93.35405000
29.35791016,-90.65298000
29.38842773,-88.77480000
29.41894531,-87.46113000
29.44946289,-87.09023000
29.47998047,-88.15004000
29.51049805,-90.67425000
29.54101563,-91.64766000
29.57153320,-90.00027000
29.60205078,-89.29066000
29.63256836,-90.16216000
29.66308594,-93.18613000
29.69360352,-96.60564000
29.72412109,-94.70839000
29.75463867,-93.62995000
29.78515625,-94.18797000
29.81567383,-94.26804000
29.84619141,-93.14564000
29.87670898,-91.99924000
29.90722656,-92.33858000
29.93774414,-95.47410000
29.96826172,-101.60500000
29.99877930,-96.01955000
30.02929688,-91.37222000
30.05981445,-89.71733000
30.09033203,-90.19539000
30.12084961,-91.83347000
30.15136719,-92.42013000
30.18188477,-91.52297000
30.21240234,-91.30799000
30.24291992,-92.62445000
30.27343750,-95.46330000
30.30395508,-98.79359000
30.33447266,-95.69183000
30.36499023,-90.48164000
30.39550781,-87.77808000
30.42602539,-87.41673000
30.45654297,-88.50575000
30.48706055,-89.36017000
30.51757813,-88.78999000
30.54809570,-87.78854000
30.57861328,-88.00061000
30.60913086,-90.94341000
30.63964844,-99.25780000
30.67016602,-93.81161000
30.70068359,-89.58151000
30.73120117,-89.52670000
30.76171875,-91.95848000
30.79223633,-95.02613000
30.82275391,-95.24665000
30.85327148,-93.24375000
30.88378906,-91.29730000
30.91430664,-90.39877000
30.94482422,-91.90437000
30.97534180,-98.52441000
31.00585938,-95.85168000
31.03637695,-89.52832000
31.06689453,-87.50288000
31.09741211,-87.91673000
31.12792969,-89.69305000
31.15844727,-89.85504000
31.18896484,-88.09807000
31.21948242,-87.13106000
31.25000000,-87.18466000
31.28051758,-87.88817000
31.31103516,-89.60098000
31.34155273,-92.98454000
31.37207031,-92.19089000
31.40258789,-87.70139000
31.43310547,-85.71811000
31.46362305,-85.88954000
31.49414063,-87.48030000
31.52465820,-89.86588000
31.55517578,-92.83519000
31.58569336,-96.64017000
31.61621094,-101.48240000
31.64672852,-107.75350000
31.67724609,-111.82980000
31.70776367,-102.69950000
31.73828125,-96.49690000
31.76879883,-93.06714000
31.79931641,-90.58745000
31.82983398,-88.19658000
31.86035156,-86.59660000
31.89086914,-86.55251000
31.92138672,-88.12234000
31.95190430,-90.28844000
31.98242188,-91.59213000
32.01293945,-90.29630000
32.04345703,-86.84620000
32.07397461,-84.75529000
32.10449219,-84.61010000
32.13500977,-85.82999000
32.16552734,-87.54190000
32.19604492,-89.21299000
32.22656250,-91.17310000
32.25708008,-93.95687000
32.28759766,-97.60540000
32.31811523,-101.72230000
32.34863281,-101.11730000
32.37915039,-94.91496000
32.40966797,-90.48846000
32.44018555,-88.37086000
32.47070313,-88.58964000
32.50122070,-91.06050000
32.53173828,-92.63924000
32.56225586,-90.87846000
32.59277344,-90.76714000
32.62329102,-94.18235000
32.65380859,-105.72240000
32.68432617,-93.97140000
32.71484375,-88.58705000
32.74536133,-87.22678000
32.77587891,-88.73619000
32.80639648,-92.69873000
32.83691406,-97.03859000
32.86743164,-97.32190000
32.89794922,-96.22883000
32.92846680,-95.90858000
32.95898438,-94.07737000
32.98950195,-90.44736000
33.02001953,-88.23185000
33.05053711,-88.04955000
33.08105469,-89.09373000
33.11157227,-90.29961000
33.14208984,-91.30879000
33.17260742,-91.76065000
33.20312500,-91.50348000
33.23364258,-91.29306000
33.26416016,-91.47347000
33.29467773,-92.25064000
33.32519531,-94.62967000
33.35571289,-94.01375000
33.38623047,-88.97681000
33.41674805,-86.07835000
33.44726563,-85.16165000
33.47778320,-85.39442000
33.50830078,-85.64285000
33.53881836,-85.05271000
33.56933594,-84.28337000
33.59985352,-84.35191000
33.63037109,-85.50267000
33.66088867,-87.30003000
33.69140625,-89.52241000
33.72192383,-92.83885000
33.75244141,-95.84477000
33.78295898,-94.92268000
33.81347656,-93.65574000
33.84399414,-92.53270000
33.87451172,-90.39596000
33.90502930,-88.31481000
33.93554688,-87.68810000
33.96606445,-88.89677000
33.99658203,-92.25891000
34.02709961,-95.96470000
34.05761719,-91.29005000
34.08813477,-87.33140000
34.11865234,-85.52158000
34.14916992,-85.09908000
34.17968750,-85.47512000
34.21020508,-85.63423000
34.24072266,-85.07230000
34.27124023,-84.45817000
34.30175781,-84.07938000
34.33227539,-84.06061000
34.36279297,-84.82922000
34.39331055,-86.68372000
34.42382813,-89.08723000
34.45434570,-90.53745000
34.48486328,-90.89131000
34.51538086,-91.13166000
34.54589844,-90.91078000
34.57641602,-89.79369000
34.60693359,-89.21714000
34.63745117,-89.76662000
34.66796875,-90.05050000
34.69848633,-89.09509000
34.72900391,-88.11633000
34.75952148,-87.47147000
34.79003906,-86.83327000
34.82055664,-86.47572000
34.85107422,-86.84818000
34.88159180,-87.78323000
34.91210938,-88.27705000
34.94262695,-87.81534000
34.97314453,-86.86771000
35.00366211,-86.03339000
35.03417969,-85.98546000
35.06469727,-87.13492000
35.09521484,-89.07098000
35.12573242,-90.36688000
35.15625000,-90.54272000
35.18676758,-90.41203000
35.21728516,-89.60990000
35.24780273,-87.87886000
35.27832031,-86.37132000
35.30883789,-85.94435000
35.33935547,-86.88950000
35.36987305,-89.03297000
35.40039063,-90.75286000
35.43090820,-89.99305000
35.46142578,-88.25737000
35.49194336,-86.77670000
35.52246094,-85.84306000
35.55297852,-85.45114000
35.58349609,-85.26592000
35.61401367,-85.26084000
35.64453125,-85.79636000
35.67504883,-86.65932000
35.70556641,-87.04393000
35.73608398,-87.20392000
35.76660156,-88.09355000
35.79711914,-89.95969000
35.82763672,-92.34290000
35.85815430,-94.61755000
35.88867188,-95.28977000
35.91918945,-93.51147000
35.94970703,-92.25722000
35.98022461,-92.38877000
36.01074219,-93.11191000
36.04125977,-94.03503000
36.07177734,-95.26329000
36.10229492,-98.00131000
36.13281250,-98.57086000
36.16333008,-91.60982000
36.19384766,-87.84146000
36.22436523,-86.83007000
36.25488281,-87.67747000
36.28540039,-89.32319000
36.31591797,-90.47694000
36.34643555,-90.26050000
36.37695313,-89.05364000
36.40747070,-88.17706000
36.43798828,-88.84734000
36.46850586,-92.19303000
36.49902344,-96.68908000
36.52954102,-92.41123000
36.56005859,-88.59798000
36.59057617,-86.10317000
36.62109375,-85.03249000
36.65161133,-85.83009000
36.68212891,-88.25874000
36.71264648,-91.56779000
36.74316406,-95.41231000
36.77368164,-96.94749000
36.80419922,-93.95999000
36.83471680,-91.24391000
36.86523438,-89.63318000
36.89575195,-89.08463000
36.92626953,-89.23779000
36.95678711,-89.65678000
36.98730469,-90.53524000
37.01782227,-91.70669000
37.04833984,-91.68077000
37.07885742,-91.22276000
37.10937500,-91.45264000
37.13989258,-91.34731000
37.17041016,-90.41244000
37.20092773,-89.40934000
37.23144531,-90.06145000
37.26196289,-94.05457000
37.29248047,-105.69180000
37.32299805,-99.38900000
37.35351563,-93.01543000
37.38403320,-89.89639000
37.41455078,-89.01665000
37.44506836,-89.81178000
37.47558594,-90.79960000
37.50610352,-90.98881000
37.53662109,-91.70470000
37.56713867,-94.57133000
37.59765625,-101.69680000
37.62817383,-132.98040000
37.65869141,-109.62150000
37.68920898,-106.83210000
37.71972656,-100.60450000
37.75024414,-94.80688000
37.78076172,-91.56014000
37.81127930,-90.34679000
37.84179688,-90.25935000
37.87231445,-90.97317000
37.90283203,-93.92767000
37.93334961,-107.13240000
37.96386719,-93.42941000
37.99438477,-88.22732000
38.02490234,-87.14131000
38.05541992,-87.39590000
38.08593750,-86.76701000
38.11645508,-85.81110000
38.14697266,-86.28102000
38.17749023,-88.95882000
38.20800781,-92.65599000
38.23852539,-94.49101000
38.26904297,-97.78703000
38.29956055,-97.25244000
38.33007813,-93.22580000
38.36059570,-92.16094000
38.39111328,-92.89170000
38.42163086,-95.77030000
38.45214844,-105.02640000
38.48266602,-98.52647000
38.51318359,-94.33116000
38.54370117,-95.49277000
38.57421875,-101.63440000
38.60473633,-101.70690000
38.63525391,-97.45335000
38.66577148,-95.05681000
38.69628906,-91.47054000
38.72680664,-88.63028000
38.75732422,-87.47020000
38.78784180,-87.86124000
38.81835938,-89.82323000
38.84887695,-94.38424000
38.87939453,-109.29930000
38.90991211,-100.80890000
38.94042969,-98.58687000
38.97094727,-105.56250000
39.00146484,-101.41390000
39.03198242,-96.77776000
39.06250000,-96.47148000
39.09301758,-99.65031000
39.12353516,-117.18110000
39.15405273,-101.46220000
39.18457031,-96.99197000
39.21508789,-96.30614000
39.24560547,-96.74107000
39.27612305,-96.01778000
39.30664063,-94.90932000
39.33715820,-96.22527000
39.36767578,-102.20640000
39.39819336,-107.68560000
39.42871094,-94.99039000
39.45922852,-91.03400000
39.48974609,-91.84537000
39.52026367,-99.23209000
39.55078125,-95.87086000
39.58129883,-93.07741000
39.61181641,-94.51315000
39.64233398,-92.21846000
39.67285156,-91.64635000
39.70336914,-95.89986000
39.73388672,-107.22080000
39.76440430,-111.29330000
39.79492188,-105.23030000
39.82543945,-99.69939000
39.85595703,-96.67708000
39.88647461,-99.14218000
39.91699219,-99.17740000
39.94750977,-88.71045000
39.97802734,-84.56001000
40.00854492,-84.20691000
40.03906250,-87.51955000
40.06958008,-94.04124000
40.10009766,-93.84399000
40.13061523,-91.81679000
40.16113281,-89.68003000
40.19165039,-88.08849000
40.22216797,-88.96945000
40.25268555,-96.02161000
40.28320313,-93.07710000
40.31372070,-85.61241000
40.34423828,-84.11024000
40.37475586,-85.96986000
40.40527344,-89.72122000
40.43579102,-93.53114000
40.46630859,-99.92805000
40.49682617,-106.68960000
40.52734375,-99.59517000
40.55786133,-96.79648000
40.58837891,-97.33704000
40.61889648,-101.27060000
40.64941406,-91.03179000
40.67993164,-87.93265000
40.71044922,-88.39202000
40.74096680,-90.02451000
40.77148438,-92.13249000
40.80200195,-92.27223000
40.83251953,-90.14451000
40.86303711,-89.58929000
40.89355469,-91.54514000
40.92407227,-93.00996000
40.95458984,-86.61169000
40.98510742,-82.58463000
41.01562500,-81.92751000
41.04614258,-84.66704000
41.07666016,-90.50665000
41.10717773,-92.91771000
41.13769531,-95.71471000
41.16821289,-106.98880000
41.19873047,-98.41945000
41.22924805,-95.27731000
41.25976563,-92.59225000
41.29028320,-87.70166000
41.32080078,-83.64651000
41.35131836,-82.13396000
41.38183594,-83.48443000
41.41235352,-88.09225000
41.44287109,-97.42586000
41.47338867,-106.47600000
41.50390625,-104.63290000
41.53442383,-108.37790000
41.56494141,-100.34540000
41.59545898,-91.05575000
41.62597656,-84.89836000
41.65649414,-81.79878000
41.68701172,-81.80563000
41.71752930,-85.32161000
41.74804688,-93.94894000
41.77856445,-104.36530000
41.80908203,-97.32346000
41.83959961,-97.68945000
41.87011719,-103.89210000
41.90063477,-99.00404000
41.93115234,-91.15651000
41.96166992,-85.67330000
41.99218750,-81.76633000
42.02270508,-80.43234000
42.05322266,-82.39284000
42.08374023,-88.85445000
42.11425781,-97.75255000
42.14477539,-95.04848000
42.17529297,-94.25490000
42.20581055,-92.35373000
42.23632813,-90.23292000
42.26684570,-87.32637000
42.29736328,-83.72940000
42.32788086,-80.82660000
42.35839844,-80.23185000
42.38891602,-83.06335000
42.41943359,-91.39504000
42.44995117,-112.86420000
42.48046875,-99.04955000
42.51098633,-96.59807000
42.54150391,-103.14390000
42.57202148,-94.47108000
42.60253906,-87.82819000
42.63305664,-84.38816000
42.66357422,-81.48912000
42.69409180,-79.54366000
42.72460938,-79.39810000
42.75512695,-80.99181000
42.78564453,-83.16298000
42.81616211,-84.96398000
42.84667969,-86.85638000
42.87719727,-88.95039000
42.90771484,-91.82147000
42.93823242,-90.06375000
42.96875000,-85.66860000
42.99926758,-83.21985000
43.02978516,-82.46894000
43.06030273,-83.33429000
43.09082031,-85.45546000
43.12133789,-88.29831000
43.15185547,-90.74783000
43.18237305,-89.36672000
43.21289063,-87.40601000
43.24340820,-87.26938000
43.27392578,-89.69376000
43.30444336,-98.17946000
43.33496094,-91.96987000
43.36547852,-86.88366000
43.39599609,-87.08339000
43.42651367,-91.08695000
43.45703125,-96.02135000
43.48754883,-98.70880000
43.51806641,-96.29269000
43.54858398,-94.04098000
43.57910156,-96.85396000
43.60961914,-100.56420000
43.64013672,-98.05441000
43.67065430,-103.67840000
43.70117188,-95.12168000
43.73168945,-90.77711000
43.76220703,-89.99368000
43.79272461,-89.10804000
43.82324219,-87.13528000
43.85375977,-86.28571000
43.88427734,-88.23003000
43.91479492,-91.38898000
43.94531250,-89.59045000
43.97583008,-87.54776000
44.00634766,-85.81486000
44.03686523,-84.56458000
44.06738281,-85.04149000
44.09790039,-88.24925000
44.12841797,-95.74516000
44.15893555,-105.24030000
44.18945313,-101.60290000
44.21997070,-103.06470000
44.25048828,-102.18450000
44.28100586,-97.15409000
44.31152344,-94.06749000
44.34204102,-92.11791000
44.37255859,-90.29876000
44.40307617,-89.86794000
44.43359375,-91.27679000
44.46411133,-92.65631000
44.49462891,-91.13875000
44.52514648,-88.76593000
44.55566406,-88.20877000
44.58618164,-89.88660000
44.61669922,-94.05383000
44.64721680,-98.04103000
44.67773438,-94.10106000
44.70825195,-91.40408000
44.73876953,-90.02133000
44.76928711,-88.99184000
44.79980469,-88.49776000
44.83032227,-87.75590000
44.86083984,-86.52539000
44.89135742,-86.32697000
44.92187500,-87.79092000
44.95239258,-90.13107000
44.98291016,-92.55878000
45.01342773,-94.19984000
45.04394531,-91.56189000
45.07446289,-90.25095000
45.10498047,-91.87350000
45.13549805,-94.50584000
45.16601563,-95.20379000
45.19653320,-93.40514000
45.22705078,-91.18167000
45.25756836,-91.24114000
45.28808594,-95.34300000
45.31860352,-109.03130000
45.34912109,-96.55917000
45.37963867,-94.40475000
45.41015625,-99.85098000
45.44067383,-105.61720000
45.47119141,-97.61752000
45.50170898,-106.66420000
45.53222656,-95.94493000
45.56274414,-89.70428000
45.59326172,-88.54770000
45.62377930,-90.31682000
45.65429688,-96.38116000
45.68481445,-99.41914000
45.71533203,-90.15308000
45.74584961,-87.68288000
45.77636719,-88.45673000
45.80688477,-90.18508000
45.83740234,-89.99520000
45.86791992,-89.70204000
45.89843750,-92.58076000
45.92895508,-104.44530000
45.95947266,-101.54350000
45.98999023,-97.36599000
46.02050781,-97.20212000
46.05102539,-98.55345000
46.08154297,-102.91210000
46.11206055,-105.27930000
46.14257813,-99.39415000
46.17309570,-97.19044000
46.20361328,-95.15145000
46.23413086,-94.87695000
46.26464844,-96.41479000
46.29516602,-93.94367000
46.32568359,-93.15158000
46.35620117,-96.95477000
46.38671875,-110.03370000
46.41723633,-102.90220000
46.44775391,-95.76279000
46.47827148,-93.68012000
46.50878906,-95.91939000
46.53930664,-100.32790000
46.56982422,-97.54768000
46.60034180,-94.96861000
46.63085938,-93.14195000
46.66137695,-92.56951000
46.69189453,-95.38840000
46.72241211,-103.54840000
46.75292969,-96.11716000
46.78344727,-93.70782000
46.81396484,-94.11896000
46.84448242,-94.51122000
46.87500000,-95.57914000
46.90551758,-97.94081000
46.93603516,-100.89770000
46.96655273,-102.49710000
46.99707031,-100.19000000
47.02758789,-96.97278000
47.05810547,-94.91994000
47.08862305,-95.48074000
47.11914063,-100.08060000
47.14965820,-105.35960000
47.18017578,-97.85271000
47.21069336,-90.73579000
47.24121094,-88.35007000
47.27172852,-90.84579000
47.30224609,-101.62420000
47.33276367,-95.63256000
47.36328125,-91.54555000
47.39379883,-90.15502000
47.42431641,-89.75946000
47.45483398,-90.47734000
47.48535156,-91.48260000
47.51586914,-90.96772000
47.54638672,-88.89744000
47.57690430,-87.31665000
47.60742188,-87.92551000
47.63793945,-91.56358000
47.66845703,-99.46031000
47.69897461,-112.74220000
47.72949219,-102.03550000
47.76000977,-97.69028000
47.79052734,-95.16616000
47.82104492,-93.72502000
47.85156250,-93.54507000
47.88208008,-95.20200000
47.91259766,-98.80838000
47.94311523,-101.77700000
47.97363281,-99.76164000
48.00415039,-96.03318000
48.03466797,-94.63566000
48.06518555,-96.43353000
48.09570313,-104.08570000
48.12622070,-104.11540000
48.15673828,-98.71750000
48.18725586,-101.79700000
48.21777344,-108.92880000
48.24829102,-96.38724000
48.27880859,-94.96972000
48.30932617,-100.24940000
48.33984375,-105.08140000
48.37036133,-93.05866000
48.40087891,-88.88869000
48.43139648,-88.17424000
48.46191406,-90.71260000
48.49243164,-97.12277000
48.52294922,-106.63940000
48.55346680,-103.12390000
48.58398438,-94.57711000
48.61450195,-91.29292000
48.64501953,-91.14114000
48.67553711,-92.53693000
48.70605469,-93.52339000
48.73657227,-92.71667000
48.76708984,-91.08459000
48.79760742,-91.47889000
48.82812500,-95.79207000
48.85864258,-100.40890000
48.88916016,-96.54012000
48.91967773,-96.26482000
48.95019531,-98.47077000
48.98071289,-99.67578000
49.01123047,-97.66568000
49.04174805,-95.95375000
49.07226563,-96.73741000
49.10278320,-98.96854000
49.13330078,-101.70190000
49.16381836,-111.10730000
49.19433594,-101.74440000
49.22485352,-93.96484000
49.25537109,-90.15271000
49.28588867,-89.20633000
49.31640625,-90.52971000
49.34692383,-93.35493000
49.37744141,-96.62856000
49.40795898,-98.13821000
49.43847656,-97.30664000
49.46899414,-94.34612000
49.49951172,-92.54121000
49.53002930,-92.14084000
49.56054688,-91.69380000
49.59106445,-91.23492000
49.62158203,-91.92712000
49.65209961,-93.85314000
49.68261719,-97.62012000
49.71313477,-115.72250000
49.74365234,-96.37756000
49.77416992,-91.92021000
49.80468750,-91.48524000
49.83520508,-92.34277000
49.86572266,-94.03378000
49.89624023,-97.91505000
49.92675781,-97.45903000
49.95727539,-96.51091000
49.98779297,-100.31010000
50.01831055,-102.32220000
