Frequency,Channel A
(MHz),(dBu)

0.00000000,-29.98984000
0.03051758,-30.36928000
0.06103516,-35.50867000
0.09155273,-44.30930000
0.12207031,-54.50046000
0.15258789,-65.03013000
0.18310547,-70.10603000
0.21362305,-68.56136000
0.24414063,-65.57046000
0.27465820,-62.53612000
0.30517578,-60.94900000
0.33569336,-62.64315000
0.36621094,-64.94727000
0.39672852,-62.05924000
0.42724609,-62.85404000
0.45776367,-70.27629000
0.48828125,-71.07462000
0.51879883,-71.18356000
0.54931641,-63.96330000
0.57983398,-59.35087000
0.61035156,-58.69604000
0.64086914,-61.12690000
0.67138672,-66.61994000
0.70190430,-69.45531000
0.73242188,-65.33218000
0.76293945,-64.85786000
0.79345703,-69.83907000
0.82397461,-69.48579000
0.85449219,-63.73533000
0.88500977,-63.15981000
0.91552734,-66.84236000
0.94604492,-73.70040000
0.97656250,-70.68001000
1.00708008,-69.06567000
1.03759766,-66.48686000
1.06811523,-64.61184000
1.09863281,-66.42168000
1.12915039,-73.07292000
1.15966797,-73.47237000
1.19018555,-70.36900000
1.22070313,-70.08023000
1.25122070,-73.44585000
1.28173828,-71.07732000
1.31225586,-65.10501000
1.34277344,-63.68511000
1.37329102,-65.69774000
1.40380859,-69.35651000
1.43432617,-69.85184000
1.46484375,-69.08792000
1.49536133,-68.82443000
1.52587891,-69.32573000
1.55639648,-72.77850000
1.58691406,-92.11915000
1.61743164,-71.70263000
1.64794922,-67.52275000
1.67846680,-67.79710000
1.70898438,-70.59117000
1.73950195,-71.96626000
1.77001953,-73.74963000
1.80053711,-85.09246000
1.83105469,-71.87656000
1.86157227,-68.13977000
1.89208984,-69.63816000
1.92260742,-70.91669000
1.95312500,-67.66523000
1.98364258,-67.20786000
2.01416016,-69.92379000
2.04467773,-75.62753000
2.07519531,-79.91302000
2.10571289,-71.49442000
2.13623047,-67.39391000
2.16674805,-66.86708000
2.19726563,-69.52876000
2.22778320,-72.59072000
2.25830078,-71.56328000
2.28881836,-70.93768000
2.31933594,-71.13929000
2.34985352,-72.40395000
2.38037109,-71.40331000
2.41088867,-68.20924000
2.44140625,-67.69716000
2.47192383,-70.72039000
2.50244141,-75.62302000
2.53295898,-74.47439000
2.56347656,-72.52846000
2.59399414,-70.24635000
2.62451172,-68.14709000
2.65502930,-67.26424000
2.68554688,-67.38473000
2.71606445,-68.25192000
2.74658203,-71.16335000
2.77709961,-77.17277000
2.80761719,-72.88992000
2.83813477,-69.35762000
2.86865234,-67.53725000
2.89916992,-66.53963000
2.92968750,-67.29325000
2.96020508,-69.74307000
2.99072266,-71.33940000
3.02124023,-70.29439000
3.05175781,-69.09307000
3.08227539,-68.49376000
3.11279297,-68.01642000
3.14331055,-67.82376000
3.17382813,-69.20841000
3.20434570,-71.84063000
3.23486328,-69.57881000
3.26538086,-67.48855000
3.29589844,-67.29745000
3.32641602,-66.45883000
3.35693359,-65.95668000
3.38745117,-66.80239000
3.41796875,-67.20142000
3.44848633,-67.09955000
3.47900391,-67.60767000
3.50952148,-67.34437000
3.54003906,-66.15839000
3.57055664,-66.05660000
3.60107422,-68.41154000
3.63159180,-71.65418000
3.66210938,-67.62551000
3.69262695,-65.19212000
3.72314453,-65.80614000
3.75366211,-66.95461000
3.78417969,-66.03629000
3.81469727,-65.35234000
3.84521484,-65.56772000
3.87573242,-66.08620000
3.90625000,-66.38509000
3.93676758,-66.16991000
3.96728516,-65.73474000
3.99780273,-65.04105000
4.02832031,-64.48637000
4.05883789,-64.51779000
4.08935547,-64.80641000
4.11987305,-64.66833000
4.15039063,-63.98512000
4.18090820,-63.76871000
4.21142578,-64.68915000
4.24194336,-65.47668000
4.27246094,-64.66821000
4.30297852,-64.10936000
4.33349609,-64.73544000
4.36401367,-65.80457000
4.39453125,-66.81886000
4.42504883,-68.19947000
4.45556641,-69.62044000
4.48608398,-70.97543000
4.51660156,-70.16319000
4.54711914,-67.29541000
4.57763672,-66.65652000
4.60815430,-68.74279000
4.63867188,-69.51647000
4.66918945,-67.79374000
4.69970703,-68.07037000
4.73022461,-69.53963000
4.76074219,-70.17205000
4.79125977,-70.50620000
4.82177734,-70.69261000
4.85229492,-70.45490000
4.88281250,-70.12582000
4.91333008,-70.08412000
4.94384766,-70.09763000
4.97436523,-69.90506000
5.00488281,-70.43954000
5.03540039,-72.30587000
5.06591797,-73.19936000
5.09643555,-70.62344000
5.12695313,-68.53227000
5.15747070,-68.01606000
5.18798828,-68.49704000
5.21850586,-69.76447000
5.24902344,-72.50175000
5.27954102,-77.78474000
5.31005859,-83.01216000
5.34057617,-78.95989000
5.37109375,-76.00371000
5.40161133,-74.06616000
5.43212891,-72.63394000
5.46264648,-71.53246000
5.49316406,-70.54892000
5.52368164,-69.78500000
5.55419922,-69.58437000
5.58471680,-70.02943000
5.61523438,-69.99422000
5.64575195,-68.67250000
5.67626953,-67.23803000
5.70678711,-66.11974000
5.73730469,-65.04220000
5.76782227,-64.08359000
5.79833984,-63.36522000
5.82885742,-62.75189000
5.85937500,-62.34785000
5.88989258,-62.29333000
5.92041016,-62.65933000
5.95092773,-63.81657000
5.98144531,-65.22327000
6.01196289,-64.96960000
6.04248047,-64.14053000
6.07299805,-64.01198000
6.10351563,-64.05785000
6.13403320,-64.14613000
6.16455078,-64.68645000
6.19506836,-65.53616000
6.22558594,-66.42827000
6.25610352,-67.40295000
6.28662109,-68.48749000
6.31713867,-69.90392000
6.34765625,-70.79411000
6.37817383,-68.98016000
6.40869141,-67.55762000
6.43920898,-68.94910000
6.46972656,-73.79463000
6.50024414,-77.35869000
6.53076172,-75.81587000
6.56127930,-75.99934000
6.59179688,-76.38923000
6.62231445,-76.98474000
6.65283203,-79.30682000
6.68334961,-80.80901000
6.71386719,-79.21360000
6.74438477,-79.74661000
6.77490234,-83.22226000
6.80541992,-89.23865000
6.83593750,-85.22594000
6.86645508,-78.50978000
6.89697266,-76.07767000
6.92749023,-77.08490000
6.95800781,-81.56948000
6.98852539,-87.26321000
7.01904297,-84.98868000
7.04956055,-83.28233000
7.08007813,-83.94167000
7.11059570,-87.19184000
7.14111328,-94.69600000
7.17163086,-94.26637000
7.20214844,-88.84108000
7.23266602,-88.33325000
7.26318359,-93.72315000
7.29370117,-93.82071000
7.32421875,-84.95582000
7.35473633,-82.04560000
7.38525391,-81.53442000
7.41577148,-82.93767000
7.44628906,-88.42434000
7.47680664,-98.50933000
7.50732422,-85.19013000
7.53784180,-82.47200000
7.56835938,-83.26736000
7.59887695,-85.72621000
7.62939453,-87.27296000
7.65991211,-86.87669000
7.69042969,-86.25772000
7.72094727,-90.58485000
7.75146484,-89.49872000
7.78198242,-81.96600000
7.81250000,-80.01071000
7.84301758,-80.70382000
7.87353516,-82.68600000
7.90405273,-87.01912000
7.93457031,-91.76772000
7.96508789,-82.68971000
7.99560547,-79.15288000
8.02612305,-78.84231000
8.05664063,-80.56311000
8.08715820,-83.72922000
8.11767578,-86.77400000
8.14819336,-89.55379000
8.17871094,-94.36333000
8.20922852,-83.13701000
8.23974609,-79.94633000
8.27026367,-81.50124000
8.30078125,-88.91732000
8.33129883,-91.38716000
8.36181641,-87.89855000
8.39233398,-89.92400000
8.42285156,-90.11844000
8.45336914,-90.39620000
8.48388672,-91.15098000
8.51440430,-90.20602000
8.54492188,-89.31846000
8.57543945,-86.85480000
8.60595703,-84.11464000
8.63647461,-83.71149000
8.66699219,-87.23090000
8.69750977,-93.26062000
8.72802734,-88.49283000
8.75854492,-87.26236000
8.78906250,-89.57706000
8.81958008,-90.14854000
8.85009766,-85.27390000
8.88061523,-82.79677000
8.91113281,-83.45079000
8.94165039,-87.82844000
8.97216797,-98.97465000
9.00268555,-98.85101000
9.03320313,-97.73479000
9.06372070,-85.61635000
9.09423828,-80.65323000
9.12475586,-80.17783000
9.15527344,-84.21734000
9.18579102,-92.01485000
9.21630859,-87.10938000
9.24682617,-85.69909000
9.27734375,-86.91399000
9.30786133,-89.61234000
9.33837891,-93.07939000
9.36889648,-89.45125000
9.39941406,-86.84303000
9.42993164,-87.89603000
9.46044922,-89.29722000
9.49096680,-86.84798000
9.52148438,-84.04024000
9.55200195,-83.91119000
9.58251953,-86.33922000
9.61303711,-87.37171000
9.64355469,-86.12935000
9.67407227,-86.53923000
9.70458984,-89.81703000
9.73510742,-92.20488000
9.76562500,-86.74884000
9.79614258,-81.88968000
9.82666016,-80.12727000
9.85717773,-81.45633000
9.88769531,-86.12184000
9.91821289,-97.75618000
9.94873047,-87.86354000
9.97924805,-81.63043000
10.00976563,-79.34035000
10.04028320,-79.03920000
10.07080078,-80.24635000
10.10131836,-83.41197000
10.13183594,-85.11501000
10.16235352,-82.42503000
10.19287109,-81.24503000
10.22338867,-83.11478000
10.25390625,-90.90691000
10.28442383,-83.68729000
10.31494141,-78.20643000
10.34545898,-77.27322000
10.37597656,-80.44308000
10.40649414,-93.17300000
10.43701172,-87.61392000
10.46752930,-86.40591000
10.49804688,-90.37831000
10.52856445,-84.32789000
10.55908203,-82.40781000
10.58959961,-84.35162000
10.62011719,-86.41026000
10.65063477,-86.54028000
10.68115234,-91.46956000
10.71166992,-95.04066000
10.74218750,-86.01047000
10.77270508,-83.10380000
10.80322266,-81.74666000
10.83374023,-80.67477000
10.86425781,-80.42917000
10.89477539,-82.12627000
10.92529297,-86.17752000
10.95581055,-88.51530000
10.98632813,-85.11896000
11.01684570,-83.47133000
11.04736328,-83.12435000
11.07788086,-82.26615000
11.10839844,-82.37522000
11.13891602,-84.40151000
11.16943359,-88.56059000
11.19995117,-96.99422000
11.23046875,-88.06107000
11.26098633,-87.82149000
11.29150391,-86.48019000
11.32202148,-78.83814000
11.35253906,-76.89542000
11.38305664,-79.79525000
11.41357422,-91.61155000
11.44409180,-90.79190000
11.47460938,-89.07294000
11.50512695,-99.86320000
11.53564453,-91.80399000
11.56616211,-89.50050000
11.59667969,-86.47851000
11.62719727,-80.45790000
11.65771484,-77.83619000
11.68823242,-78.89913000
11.71875000,-84.90131000
11.74926758,-91.68995000
11.77978516,-85.24352000
11.81030273,-84.27253000
11.84082031,-82.87279000
11.87133789,-80.67757000
11.90185547,-81.31908000
11.93237305,-89.44596000
11.96289063,-87.15742000
11.99340820,-80.94162000
12.02392578,-80.81329000
12.05444336,-81.67481000
12.08496094,-84.24683000
12.11547852,-97.86597000
12.14599609,-88.96501000
12.17651367,-84.04754000
12.20703125,-82.94765000
12.23754883,-86.93430000
12.26806641,-89.96571000
12.29858398,-81.47464000
12.32910156,-80.15120000
12.35961914,-82.86231000
12.39013672,-85.60698000
12.42065430,-82.61676000
12.45117188,-79.77378000
12.48168945,-77.99032000
12.51220703,-76.87878000
12.54272461,-76.57418000
12.57324219,-78.07937000
12.60375977,-82.66473000
12.63427734,-82.20370000
12.66479492,-78.76980000
12.69531250,-78.92081000
12.72583008,-80.93414000
12.75634766,-80.92288000
12.78686523,-78.41782000
12.81738281,-76.89851000
12.84790039,-77.41773000
12.87841797,-78.72397000
12.90893555,-79.25304000
12.93945313,-82.12976000
12.96997070,-88.47826000
13.00048828,-85.26567000
13.03100586,-83.19550000
13.06152344,-81.45928000
13.09204102,-80.53569000
13.12255859,-83.32767000
13.15307617,-96.64075000
13.18359375,-83.78600000
13.21411133,-78.45396000
13.24462891,-76.27193000
13.27514648,-76.10896000
13.30566406,-78.71036000
13.33618164,-85.54153000
13.36669922,-98.12453000
13.39721680,-90.22546000
13.42773438,-80.05093000
13.45825195,-78.14229000
13.48876953,-76.58057000
13.51928711,-68.51969000
13.54980469,-64.95735000
13.58032227,-65.85821000
13.61083984,-72.94503000
13.64135742,-81.49685000
13.67187500,-71.83836000
13.70239258,-70.77203000
13.73291016,-72.23801000
13.76342773,-75.54147000
13.79394531,-78.90704000
13.82446289,-80.46170000
13.85498047,-83.70042000
13.88549805,-96.63895000
13.91601563,-85.35134000
13.94653320,-78.83278000
13.97705078,-76.61150000
14.00756836,-77.09045000
14.03808594,-79.97626000
14.06860352,-85.64966000
14.09912109,-96.34924000
14.12963867,-99.74985000
14.16015625,-96.20528000
14.19067383,-89.81628000
14.22119141,-87.06645000
14.25170898,-84.97842000
14.28222656,-82.31345000
14.31274414,-81.73511000
14.34326172,-82.05077000
14.37377930,-79.62292000
14.40429688,-76.36778000
14.43481445,-75.11356000
14.46533203,-76.71848000
14.49584961,-82.51022000
14.52636719,-101.04780000
14.55688477,-89.75113000
14.58740234,-88.32965000
14.61791992,-85.45468000
14.64843750,-83.37178000
14.67895508,-83.73299000
14.70947266,-86.77135000
14.73999023,-91.97060000
14.77050781,-85.70690000
14.80102539,-80.42873000
14.83154297,-77.26083000
14.86206055,-76.02597000
14.89257813,-77.41869000
14.92309570,-82.89031000
14.95361328,-93.60085000
14.98413086,-84.03142000
15.01464844,-80.95665000
15.04516602,-80.52281000
15.07568359,-81.68437000
15.10620117,-85.28130000
15.13671875,-96.96693000
15.16723633,-92.01325000
15.19775391,-90.75279000
15.22827148,-107.83420000
15.25878906,-85.08253000
15.28930664,-79.79780000
15.31982422,-77.88475000
15.35034180,-77.84604000
15.38085938,-79.06642000
15.41137695,-81.72363000
15.44189453,-86.95854000
15.47241211,-87.49847000
15.50292969,-82.52638000
15.53344727,-79.00703000
15.56396484,-76.42091000
15.59448242,-76.15440000
15.62500000,-79.27872000
15.65551758,-87.21605000
15.68603516,-99.16035000
15.71655273,-92.38779000
15.74707031,-83.71275000
15.77758789,-81.34995000
15.80810547,-83.88445000
15.83862305,-95.84447000
15.86914063,-91.82376000
15.89965820,-87.16850000
15.93017578,-86.85874000
15.96069336,-87.88603000
15.99121094,-90.37199000
16.02172852,-91.49532000
16.05224609,-91.21227000
16.08276367,-92.26556000
16.11328125,-90.98782000
16.14379883,-97.05334000
16.17431641,-91.86592000
16.20483398,-85.11316000
16.23535156,-85.66022000
16.26586914,-90.62005000
16.29638672,-93.34029000
16.32690430,-99.44573000
16.35742188,-93.46518000
16.38793945,-86.81311000
16.41845703,-86.63697000
16.44897461,-92.95376000
16.47949219,-90.01865000
16.51000977,-85.60615000
16.54052734,-87.42995000
16.57104492,-100.51980000
16.60156250,-90.50889000
16.63208008,-83.94802000
16.66259766,-82.10822000
16.69311523,-83.92334000
16.72363281,-90.77396000
16.75415039,-100.43290000
16.78466797,-90.46071000
16.81518555,-86.76581000
16.84570313,-85.91440000
16.87622070,-87.47295000
16.90673828,-89.55360000
16.93725586,-89.13044000
16.96777344,-87.82066000
16.99829102,-88.31657000
17.02880859,-94.37456000
17.05932617,-97.05288000
17.08984375,-87.54719000
17.12036133,-86.79526000
17.15087891,-92.43919000
17.18139648,-99.91170000
17.21191406,-91.73106000
17.24243164,-91.55006000
17.27294922,-94.56645000
17.30346680,-104.33410000
17.33398438,-97.93658000
17.36450195,-89.42433000
17.39501953,-85.71994000
17.42553711,-84.91830000
17.45605469,-88.70534000
17.48657227,-100.33270000
17.51708984,-86.16335000
17.54760742,-84.39312000
17.57812500,-88.77449000
17.60864258,-104.02790000
17.63916016,-89.75898000
17.66967773,-87.23008000
17.70019531,-89.22340000
17.73071289,-91.01337000
17.76123047,-81.94418000
17.79174805,-77.45425000
17.82226563,-76.58456000
17.85278320,-78.58070000
17.88330078,-82.91374000
17.91381836,-88.94334000
17.94433594,-88.10943000
17.97485352,-83.87871000
18.00537109,-83.27068000
18.03588867,-87.40773000
18.06640625,-108.98890000
18.09692383,-92.16150000
18.12744141,-90.94919000
18.15795898,-91.46118000
18.18847656,-91.85539000
18.21899414,-96.39151000
18.24951172,-100.14440000
18.28002930,-95.82239000
18.31054688,-96.13834000
18.34106445,-100.90130000
18.37158203,-96.27399000
18.40209961,-88.25507000
18.43261719,-85.23431000
18.46313477,-85.62961000
18.49365234,-89.00940000
18.52416992,-95.01295000
18.55468750,-101.84230000
18.58520508,-108.16860000
18.61572266,-117.93700000
18.64624023,-103.02890000
18.67675781,-100.30770000
18.70727539,-101.32270000
18.73779297,-110.05450000
18.76831055,-97.84918000
18.79882813,-90.41032000
18.82934570,-87.21199000
18.85986328,-86.48535000
18.89038086,-87.85754000
18.92089844,-90.88112000
18.95141602,-93.87517000
18.98193359,-94.30317000
19.01245117,-93.52930000
19.04296875,-94.11056000
19.07348633,-96.58451000
19.10400391,-98.97735000
19.13452148,-100.60530000
19.16503906,-102.24050000
19.19555664,-99.56112000
19.22607422,-97.09461000
19.25659180,-94.86037000
19.28710938,-93.31650000
19.31762695,-94.07378000
19.34814453,-98.28252000
19.37866211,-108.65820000
19.40917969,-113.54140000
19.43969727,-103.56060000
19.47021484,-99.24478000
19.50073242,-96.17085000
19.53125000,-93.56564000
19.56176758,-91.87592000
19.59228516,-91.66892000
19.62280273,-94.36255000
19.65332031,-103.60540000
19.68383789,-104.10110000
19.71435547,-100.32910000
19.74487305,-92.29142000
19.77539063,-88.59738000
19.80590820,-89.35983000
19.83642578,-95.01620000
19.86694336,-110.11710000
19.89746094,-97.20604000
19.92797852,-94.16800000
19.95849609,-93.54005000
19.98901367,-92.94072000
20.01953125,-92.78695000
20.05004883,-93.54738000
20.08056641,-92.79877000
20.11108398,-92.32372000
20.14160156,-94.62015000
20.17211914,-96.81380000
20.20263672,-95.36436000
20.23315430,-95.96593000
20.26367188,-96.76662000
20.29418945,-94.15201000
20.32470703,-92.64721000
20.35522461,-92.86141000
20.38574219,-93.71563000
20.41625977,-94.63441000
20.44677734,-96.14853000
20.47729492,-96.70325000
20.50781250,-95.32039000
20.53833008,-96.68152000
20.56884766,-102.16560000
20.59936523,-99.94088000
20.62988281,-94.11167000
20.66040039,-92.25037000
20.69091797,-94.05384000
20.72143555,-98.43544000
20.75195313,-100.19800000
20.78247070,-100.51780000
20.81298828,-101.97050000
20.84350586,-100.98930000
20.87402344,-97.88908000
20.90454102,-96.72294000
20.93505859,-97.74567000
20.96557617,-97.33641000
20.99609375,-94.87701000
21.02661133,-96.04786000
21.05712891,-102.44950000
21.08764648,-95.67789000
21.11816406,-93.67997000
21.14868164,-93.59918000
21.17919922,-91.07323000
21.20971680,-89.61221000
21.24023438,-90.52200000
21.27075195,-92.42329000
21.30126953,-92.16048000
21.33178711,-90.97008000
21.36230469,-90.86383000
21.39282227,-91.60826000
21.42333984,-92.17403000
21.45385742,-94.05345000
21.48437500,-101.07600000
21.51489258,-105.89680000
21.54541016,-99.77690000
21.57592773,-99.21982000
21.60644531,-96.16917000
21.63696289,-93.43266000
21.66748047,-93.22899000
21.69799805,-96.93834000
21.72851563,-108.57130000
21.75903320,-93.29181000
21.78955078,-88.97226000
21.82006836,-88.42819000
21.85058594,-90.37731000
21.88110352,-94.64496000
21.91162109,-101.82370000
21.94213867,-94.87057000
21.97265625,-91.25869000
22.00317383,-91.36608000
22.03369141,-93.87062000
22.06420898,-99.54101000
22.09472656,-107.86970000
22.12524414,-96.88757000
22.15576172,-93.97674000
22.18627930,-94.60140000
22.21679688,-97.01565000
22.24731445,-98.77124000
22.27783203,-100.09090000
22.30834961,-100.69390000
22.33886719,-102.84680000
22.36938477,-105.72590000
22.39990234,-94.33472000
22.43041992,-90.84605000
22.46093750,-90.90094000
22.49145508,-91.59904000
22.52197266,-92.83783000
22.55249023,-98.45963000
22.58300781,-97.92072000
22.61352539,-93.07045000
22.64404297,-91.81737000
22.67456055,-91.42303000
22.70507813,-92.41159000
22.73559570,-96.68113000
22.76611328,-107.88480000
22.79663086,-101.21590000
22.82714844,-94.52740000
22.85766602,-91.84189000
22.88818359,-92.72885000
22.91870117,-97.37054000
22.94921875,-103.72760000
22.97973633,-100.45490000
23.01025391,-93.34232000
23.04077148,-90.16290000
23.07128906,-89.93015000
23.10180664,-91.59364000
23.13232422,-94.99512000
23.16284180,-103.94360000
23.19335938,-98.84812000
23.22387695,-91.99669000
23.25439453,-90.02687000
23.28491211,-89.13274000
23.31542969,-87.57028000
23.34594727,-87.34409000
23.37646484,-90.01747000
23.40698242,-96.13212000
23.43750000,-102.34100000
23.46801758,-109.70910000
23.49853516,-105.88440000
23.52905273,-99.63118000
23.55957031,-98.52570000
23.59008789,-98.99942000
23.62060547,-100.11430000
23.65112305,-107.90880000
23.68164063,-101.85520000
23.71215820,-93.44731000
23.74267578,-90.59329000
23.77319336,-90.37553000
23.80371094,-92.03993000
23.83422852,-95.04646000
23.86474609,-97.25938000
23.89526367,-95.46979000
23.92578125,-92.31353000
23.95629883,-90.31500000
23.98681641,-90.64060000
24.01733398,-94.83105000
24.04785156,-104.42890000
24.07836914,-96.51649000
24.10888672,-94.12285000
24.13940430,-94.71330000
24.16992188,-95.10306000
24.20043945,-93.73634000
24.23095703,-93.57658000
24.26147461,-95.92400000
24.29199219,-97.71699000
24.32250977,-96.66748000
24.35302734,-98.68515000
24.38354492,-111.10980000
24.41406250,-101.79710000
24.44458008,-96.88437000
24.47509766,-98.56647000
24.50561523,-110.51880000
24.53613281,-96.84005000
24.56665039,-93.41266000
24.59716797,-95.15274000
24.62768555,-104.06190000
24.65820313,-99.38628000
24.68872070,-93.67023000
24.71923828,-93.04332000
24.74975586,-97.15402000
24.78027344,-108.27700000
24.81079102,-94.65378000
24.84130859,-90.72490000
24.87182617,-90.49747000
24.90234375,-93.65099000
24.93286133,-100.56290000
24.96337891,-100.89900000
24.99389648,-97.45758000
25.02441406,-95.18762000
25.05493164,-95.23291000
25.08544922,-98.96957000
25.11596680,-108.87580000
25.14648438,-107.00720000
25.17700195,-98.56068000
25.20751953,-93.76846000
25.23803711,-92.23474000
25.26855469,-92.81030000
25.29907227,-93.68631000
25.32958984,-95.00882000
25.36010742,-99.33739000
25.39062500,-114.16880000
25.42114258,-106.61460000
25.45166016,-103.16640000
25.48217773,-102.26000000
25.51269531,-100.20070000
25.54321289,-97.94461000
25.57373047,-97.67258000
25.60424805,-100.44040000
25.63476563,-106.93480000
25.66528320,-104.01360000
25.69580078,-98.75803000
25.72631836,-96.35856000
25.75683594,-95.09164000
25.78735352,-93.85864000
25.81787109,-94.91596000
25.84838867,-101.56090000
25.87890625,-98.73936000
25.90942383,-95.80132000
25.93994141,-100.96650000
25.97045898,-101.57680000
26.00097656,-94.60605000
26.03149414,-93.24525000
26.06201172,-92.06943000
26.09252930,-89.97484000
26.12304688,-89.44908000
26.15356445,-91.28688000
26.18408203,-96.27235000
26.21459961,-114.57890000
26.24511719,-100.39710000
26.27563477,-96.93842000
26.30615234,-94.38712000
26.33666992,-89.88879000
26.36718750,-88.07003000
26.39770508,-90.10149000
26.42822266,-100.01360000
26.45874023,-97.77164000
26.48925781,-91.61629000
26.51977539,-91.34766000
26.55029297,-95.14343000
26.58081055,-105.58850000
26.61132813,-93.54790000
26.64184570,-90.58323000
26.67236328,-93.26492000
26.70288086,-107.51270000
26.73339844,-95.42702000
26.76391602,-91.32307000
26.79443359,-90.71880000
26.82495117,-91.43529000
26.85546875,-93.07609000
26.88598633,-96.64565000
26.91650391,-97.83252000
26.94702148,-95.23505000
26.97753906,-96.67493000
27.00805664,-102.84600000
27.03857422,-111.06090000
27.06909180,-97.33490000
27.09960938,-93.01579000
27.13012695,-91.69132000
27.16064453,-90.50056000
27.19116211,-90.29370000
27.22167969,-93.07671000
27.25219727,-97.07396000
27.28271484,-93.75926000
27.31323242,-92.17576000
27.34375000,-93.25511000
27.37426758,-94.64543000
27.40478516,-93.73608000
27.43530273,-93.15031000
27.46582031,-95.68626000
27.49633789,-104.45700000
27.52685547,-102.21260000
27.55737305,-98.00674000
27.58789063,-96.45026000
27.61840820,-94.98160000
27.64892578,-95.42848000
27.67944336,-96.79289000
27.70996094,-93.73653000
27.74047852,-92.43671000
27.77099609,-96.24844000
27.80151367,-106.81100000
27.83203125,-99.33205000
27.86254883,-99.83674000
27.89306641,-102.72670000
27.92358398,-101.96560000
27.95410156,-102.87540000
27.98461914,-103.76780000
28.01513672,-100.92470000
28.04565430,-97.71222000
28.07617188,-95.89909000
28.10668945,-94.88550000
28.13720703,-94.57024000
28.16772461,-95.73546000
28.19824219,-97.45284000
28.22875977,-95.62943000
28.25927734,-93.47510000
28.28979492,-94.46655000
28.32031250,-103.29060000
28.35083008,-97.57226000
28.38134766,-90.92697000
28.41186523,-89.29382000
28.44238281,-90.13673000
28.47290039,-93.66126000
28.50341797,-104.73520000
28.53393555,-102.14420000
28.56445313,-94.48936000
28.59497070,-89.80751000
28.62548828,-87.61038000
28.65600586,-88.51172000
28.68652344,-92.66374000
28.71704102,-99.10307000
28.74755859,-101.73420000
28.77807617,-104.25160000
28.80859375,-112.37610000
28.83911133,-104.29990000
28.86962891,-103.43730000
28.90014648,-116.59440000
28.93066406,-100.91190000
28.96118164,-95.69515000
28.99169922,-95.25735000
29.02221680,-98.08328000
29.05273438,-100.58500000
29.08325195,-97.13479000
29.11376953,-93.62793000
29.14428711,-92.10193000
29.17480469,-92.64407000
29.20532227,-95.14711000
29.23583984,-99.75565000
29.26635742,-100.92740000
29.29687500,-99.14033000
29.32739258,-102.52090000
29.35791016,-103.62360000
29.38842773,-96.95449000
29.41894531,-93.42957000
29.44946289,-91.34303000
29.47998047,-91.35043000
29.51049805,-94.71218000
29.54101563,-99.38420000
29.57153320,-94.91763000
29.60205078,-92.74574000
29.63256836,-93.17925000
29.66308594,-94.74109000
29.69360352,-94.72610000
29.72412109,-92.30980000
29.75463867,-89.52412000
29.78515625,-87.72018000
29.81567383,-87.39973000
29.84619141,-88.22253000
29.87670898,-89.28882000
29.90722656,-89.62669000
29.93774414,-89.09349000
29.96826172,-88.67902000
29.99877930,-89.66002000
30.02929688,-93.26045000
30.05981445,-102.48740000
30.09033203,-98.49493000
30.12084961,-92.25712000
30.15136719,-89.66828000
30.18188477,-88.90839000
30.21240234,-89.57848000
30.24291992,-92.16902000
30.27343750,-98.40992000
30.30395508,-97.06654000
30.33447266,-93.61464000
30.36499023,-95.22240000
30.39550781,-98.38676000
30.42602539,-100.04950000
30.45654297,-101.75550000
30.48706055,-95.17596000
30.51757813,-91.78404000
30.54809570,-92.00858000
30.57861328,-96.72418000
30.60913086,-122.11800000
30.63964844,-102.87730000
30.67016602,-102.28250000
30.70068359,-100.73090000
30.73120117,-100.66430000
30.76171875,-105.99280000
30.79223633,-104.27170000
30.82275391,-98.73504000
30.85327148,-94.24873000
30.88378906,-91.30014000
30.91430664,-90.66636000
30.94482422,-91.99118000
30.97534180,-91.95717000
31.00585938,-89.16261000
31.03637695,-87.43590000
31.06689453,-87.50932000
31.09741211,-89.24019000
31.12792969,-93.13542000
31.15844727,-101.14050000
31.18896484,-95.27316000
31.21948242,-89.98167000
31.25000000,-87.96548000
31.28051758,-87.86987000
31.31103516,-89.25777000
31.34155273,-91.68243000
31.37207031,-93.81232000
31.40258789,-95.03854000
31.43310547,-95.80215000
31.46362305,-95.51956000
31.49414063,-97.15692000
31.52465820,-105.60480000
31.55517578,-105.18640000
31.58569336,-96.74249000
31.61621094,-93.90014000
31.64672852,-93.77236000
31.67724609,-96.93154000
31.70776367,-107.49540000
31.73828125,-105.42270000
31.76879883,-104.28560000
31.79931641,-98.70995000
31.82983398,-94.18824000
31.86035156,-94.38979000
31.89086914,-100.24450000
31.92138672,-114.21650000
31.95190430,-106.52300000
31.98242188,-117.35360000
32.01293945,-98.44482000
32.04345703,-93.05811000
32.07397461,-90.78887000
32.10449219,-90.00117000
32.13500977,-89.31548000
32.16552734,-88.83513000
32.19604492,-90.25378000
32.22656250,-95.00090000
32.25708008,-103.62920000
32.28759766,-108.57430000
32.31811523,-103.24290000
32.34863281,-97.84621000
32.37915039,-95.74256000
32.40966797,-95.71039000
32.44018555,-97.25167000
32.47070313,-100.49500000
32.50122070,-96.48096000
32.53173828,-90.72242000
32.56225586,-88.45547000
32.59277344,-88.69305000
32.62329102,-89.97751000
32.65380859,-91.77689000
32.68432617,-95.81535000
32.71484375,-101.14520000
32.74536133,-98.70895000
32.77587891,-98.00743000
32.80639648,-98.36604000
32.83691406,-95.44899000
32.86743164,-92.80491000
32.89794922,-91.53169000
32.92846680,-91.41038000
32.95898438,-93.02189000
32.98950195,-97.48689000
33.02001953,-101.12770000
33.05053711,-97.99113000
33.08105469,-98.83041000
33.11157227,-104.47530000
33.14208984,-96.81406000
33.17260742,-93.61726000
33.20312500,-94.13819000
33.23364258,-96.49265000
33.26416016,-98.77197000
33.29467773,-100.47950000
33.32519531,-103.85810000
33.35571289,-107.84020000
33.38623047,-107.84630000
33.41674805,-107.27010000
33.44726563,-102.07980000
33.47778320,-94.66022000
33.50830078,-91.66147000
33.53881836,-92.21313000
33.56933594,-95.87601000
33.59985352,-100.10500000
33.63037109,-98.37554000
33.66088867,-96.26888000
33.69140625,-95.37749000
33.72192383,-94.38366000
33.75244141,-93.51566000
33.78295898,-94.04407000
33.81347656,-94.78653000
33.84399414,-94.35220000
33.87451172,-95.72719000
33.90502930,-98.47403000
33.93554688,-96.60623000
33.96606445,-97.40565000
33.99658203,-105.16650000
34.02709961,-99.98612000
34.05761719,-95.92807000
34.08813477,-95.42039000
34.11865234,-96.22725000
34.14916992,-97.41589000
34.17968750,-98.56410000
34.21020508,-99.42917000
34.24072266,-100.33020000
34.27124023,-101.36060000
34.30175781,-101.26340000
34.33227539,-100.13740000
34.36279297,-99.46320000
34.39331055,-100.59770000
34.42382813,-105.40920000
34.45434570,-107.13000000
34.48486328,-100.85110000
34.51538086,-97.89542000
34.54589844,-97.39784000
34.57641602,-100.06410000
34.60693359,-109.74880000
34.63745117,-107.26370000
34.66796875,-100.04910000
34.69848633,-97.15343000
34.72900391,-96.41249000
34.75952148,-96.73164000
34.79003906,-97.26324000
34.82055664,-99.81256000
34.85107422,-103.29930000
34.88159180,-103.38220000
34.91210938,-105.90400000
34.94262695,-103.61090000
34.97314453,-102.93580000
35.00366211,-119.68630000
35.03417969,-100.81880000
35.06469727,-95.53071000
35.09521484,-94.97951000
35.12573242,-97.06758000
35.15625000,-101.21190000
35.18676758,-106.50200000
35.21728516,-101.17560000
35.24780273,-99.75153000
35.27832031,-102.24390000
35.30883789,-103.62530000
35.33935547,-103.48710000
35.36987305,-104.44590000
35.40039063,-105.29060000
35.43090820,-104.18080000
35.46142578,-100.26410000
35.49194336,-96.36160000
35.52246094,-94.33719000
35.55297852,-93.92037000
35.58349609,-94.23306000
35.61401367,-94.65641000
35.64453125,-95.06612000
35.67504883,-95.24079000
35.70556641,-95.39206000
35.73608398,-96.84483000
35.76660156,-100.50050000
35.79711914,-100.27480000
35.82763672,-97.29910000
35.85815430,-95.04722000
35.88867188,-93.57281000
35.91918945,-94.27647000
35.94970703,-95.63281000
35.98022461,-92.83292000
36.01074219,-90.40951000
36.04125977,-90.48549000
36.07177734,-93.35509000
36.10229492,-101.33580000
36.13281250,-102.66560000
36.16333008,-95.77493000
36.19384766,-95.14458000
36.22436523,-98.82461000
36.25488281,-108.96180000
36.28540039,-105.53530000
36.31591797,-98.76270000
36.34643555,-97.07661000
36.37695313,-100.15850000
36.40747070,-99.81487000
36.43798828,-95.49898000
36.46850586,-95.67090000
36.49902344,-99.03331000
36.52954102,-98.09479000
36.56005859,-94.88597000
36.59057617,-94.06498000
36.62109375,-95.21781000
36.65161133,-97.18077000
36.68212891,-99.73610000
36.71264648,-104.25660000
36.74316406,-110.27430000
36.77368164,-107.05380000
36.80419922,-102.08050000
36.83471680,-100.23530000
36.86523438,-102.04680000
36.89575195,-107.34760000
36.92626953,-103.18310000
36.95678711,-100.51410000
36.98730469,-101.63630000
37.01782227,-100.51640000
37.04833984,-96.07475000
37.07885742,-94.27226000
37.10937500,-94.92164000
37.13989258,-96.63339000
37.17041016,-98.72269000
37.20092773,-97.49937000
37.23144531,-95.63037000
37.26196289,-99.80965000
37.29248047,-104.88820000
37.32299805,-93.68269000
37.35351563,-92.05849000
37.38403320,-95.20232000
37.41455078,-96.88951000
37.44506836,-92.83290000
37.47558594,-91.08018000
37.50610352,-90.96256000
37.53662109,-92.16629000
37.56713867,-94.52999000
37.59765625,-97.41618000
37.62817383,-100.91500000
37.65869141,-106.79860000
37.68920898,-102.21210000
37.71972656,-96.05942000
37.75024414,-93.78423000
37.78076172,-94.43947000
37.81127930,-97.14452000
37.84179688,-98.94912000
37.87231445,-97.51344000
37.90283203,-95.58381000
37.93334961,-94.99634000
37.96386719,-96.45756000
37.99438477,-99.91635000
38.02490234,-104.58530000
38.05541992,-113.82360000
38.08593750,-114.99790000
38.11645508,-105.53890000
38.14697266,-101.25510000
38.17749023,-98.67187000
38.20800781,-98.03374000
38.23852539,-101.66570000
38.26904297,-106.56620000
38.29956055,-107.88220000
38.33007813,-103.61770000
38.36059570,-95.76999000
38.39111328,-95.61138000
38.42163086,-102.46530000
38.45214844,-97.18322000
38.48266602,-92.87198000
38.51318359,-93.19061000
38.54370117,-97.16442000
38.57421875,-101.11650000
38.60473633,-98.60147000
38.63525391,-98.32531000
38.66577148,-102.09560000
38.69628906,-104.98030000
38.72680664,-98.96260000
38.75732422,-97.17171000
38.78784180,-96.82202000
38.81835938,-95.13797000
38.84887695,-95.27001000
38.87939453,-100.26560000
38.90991211,-99.11310000
38.94042969,-94.39590000
38.97094727,-95.04012000
39.00146484,-99.41588000
39.03198242,-103.78040000
39.06250000,-114.72640000
39.09301758,-99.95518000
39.12353516,-93.99463000
39.15405273,-94.02451000
39.18457031,-100.50670000
39.21508789,-106.63250000
39.24560547,-101.48560000
39.27612305,-96.36653000
39.30664063,-91.64082000
39.33715820,-90.32333000
39.36767578,-91.39203000
39.39819336,-93.50482000
39.42871094,-95.63941000
39.45922852,-98.29377000
39.48974609,-99.79951000
39.52026367,-95.41650000
39.55078125,-91.89350000
39.58129883,-90.08023000
39.61181641,-89.55367000
39.64233398,-90.85827000
39.67285156,-95.25694000
39.70336914,-104.89170000
39.73388672,-117.59800000
39.76440430,-109.60230000
39.79492188,-107.11890000
39.82543945,-107.46470000
39.85595703,-102.07820000
39.88647461,-100.01210000
39.91699219,-97.61639000
39.94750977,-94.42630000
39.97802734,-93.06068000
40.00854492,-94.33315000
40.03906250,-97.37651000
40.06958008,-98.74282000
40.10009766,-96.81324000
40.13061523,-92.49378000
40.16113281,-89.76947000
40.19165039,-90.36095000
40.22216797,-95.96414000
40.25268555,-98.72460000
40.28320313,-91.97176000
40.31372070,-90.64065000
40.34423828,-92.94647000
40.37475586,-99.68460000
40.40527344,-105.59850000
40.43579102,-99.33778000
40.46630859,-97.22282000
40.49682617,-97.44287000
40.52734375,-98.10795000
40.55786133,-97.66372000
40.58837891,-95.49261000
40.61889648,-93.61701000
40.64941406,-94.63159000
40.67993164,-100.97280000
40.71044922,-104.22550000
40.74096680,-98.01700000
40.77148438,-98.35985000
40.80200195,-108.08310000
40.83251953,-99.66840000
40.86303711,-92.69807000
40.89355469,-92.15338000
40.92407227,-96.88071000
40.95458984,-105.70040000
40.98510742,-98.95100000
41.01562500,-98.08849000
41.04614258,-100.47730000
41.07666016,-101.70090000
41.10717773,-102.32450000
41.13769531,-101.03770000
41.16821289,-97.31381000
41.19873047,-94.00737000
41.22924805,-92.75378000
41.25976563,-92.50535000
41.29028320,-90.13167000
41.32080078,-88.48773000
41.35131836,-88.98663000
41.38183594,-91.41360000
41.41235352,-96.23947000
41.44287109,-100.04540000
41.47338867,-92.00333000
41.50390625,-88.72850000
41.53442383,-89.51849000
41.56494141,-93.89627000
41.59545898,-95.64636000
41.62597656,-94.02116000
41.65649414,-94.59014000
41.68701172,-97.37766000
41.71752930,-96.33453000
41.74804688,-91.23651000
41.77856445,-89.28387000
41.80908203,-90.83247000
41.83959961,-98.09366000
41.87011719,-92.71841000
41.90063477,-88.05330000
41.93115234,-88.23837000
41.96166992,-92.85828000
41.99218750,-96.81342000
42.02270508,-91.40274000
42.05322266,-90.33026000
42.08374023,-92.06875000
42.11425781,-95.45651000
42.14477539,-101.68250000
42.17529297,-103.07300000
42.20581055,-97.88842000
42.23632813,-96.07963000
42.26684570,-93.89194000
42.29736328,-92.68627000
42.32788086,-93.53034000
42.35839844,-94.90916000
42.38891602,-98.72226000
42.41943359,-106.38420000
42.44995117,-92.77632000
42.48046875,-89.23730000
42.51098633,-89.48310000
42.54150391,-91.53992000
42.57202148,-92.75626000
42.60253906,-92.54596000
42.63305664,-94.02150000
42.66357422,-104.14480000
42.69409180,-99.54929000
42.72460938,-95.29754000
42.75512695,-99.47487000
42.78564453,-101.23640000
42.81616211,-94.70275000
42.84667969,-94.07475000
42.87719727,-98.40010000
42.90771484,-97.69966000
42.93823242,-92.56448000
42.96875000,-91.37458000
42.99926758,-93.35609000
43.02978516,-99.55508000
43.06030273,-101.86260000
43.09082031,-96.27882000
43.12133789,-95.77307000
43.15185547,-98.89321000
43.18237305,-105.89510000
43.21289063,-104.15340000
43.24340820,-96.22318000
43.27392578,-92.11204000
43.30444336,-90.84770000
43.33496094,-92.99359000
43.36547852,-101.78150000
43.39599609,-105.75460000
43.42651367,-97.07236000
43.45703125,-91.77151000
43.48754883,-87.80971000
43.51806641,-85.82721000
43.54858398,-86.18694000
43.57910156,-88.83702000
43.60961914,-91.26489000
43.64013672,-92.45343000
43.67065430,-96.13670000
43.70117188,-93.07529000
43.73168945,-88.74438000
43.76220703,-88.44475000
43.79272461,-91.32877000
43.82324219,-94.37392000
43.85375977,-94.74967000
43.88427734,-93.95316000
43.91479492,-93.12076000
43.94531250,-95.45689000
43.97583008,-97.01570000
44.00634766,-92.73865000
44.03686523,-91.69519000
44.06738281,-93.36147000
44.09790039,-94.91496000
44.12841797,-93.75359000
44.15893555,-92.89818000
44.18945313,-94.65908000
44.21997070,-97.63879000
44.25048828,-93.69811000
44.28100586,-90.39482000
44.31152344,-88.99356000
44.34204102,-89.00311000
44.37255859,-90.62553000
44.40307617,-93.62251000
44.43359375,-95.17862000
44.46411133,-95.50360000
44.49462891,-98.92500000
44.52514648,-108.45330000
44.55566406,-105.65970000
44.58618164,-100.67690000
44.61669922,-97.50683000
44.64721680,-96.23435000
44.67773438,-96.37607000
44.70825195,-95.75301000
44.73876953,-94.01131000
44.76928711,-92.67970000
44.79980469,-92.54504000
44.83032227,-94.51654000
44.86083984,-98.15445000
44.89135742,-95.81151000
44.92187500,-92.90652000
44.95239258,-93.47052000
44.98291016,-98.57408000
45.01342773,-105.62160000
45.04394531,-97.77564000
45.07446289,-94.42738000
45.10498047,-92.72098000
45.13549805,-91.61612000
45.16601563,-91.43410000
45.19653320,-92.76771000
45.22705078,-95.89435000
45.25756836,-97.49463000
45.28808594,-92.71415000
45.31860352,-89.56725000
45.34912109,-89.28933000
45.37963867,-92.27131000
45.41015625,-102.02890000
45.44067383,-101.89360000
45.47119141,-94.49324000
45.50170898,-93.34037000
45.53222656,-96.66328000
45.56274414,-109.23070000
45.59326172,-106.58310000
45.62377930,-104.29260000
45.65429688,-103.38950000
45.68481445,-100.27470000
45.71533203,-97.98512000
45.74584961,-97.96109000
45.77636719,-99.19081000
45.80688477,-99.22433000
45.83740234,-98.39966000
45.86791992,-98.07286000
45.89843750,-96.74361000
45.92895508,-93.77812000
45.95947266,-92.14925000
45.98999023,-92.48725000
46.02050781,-93.95865000
46.05102539,-96.36969000
46.08154297,-101.51290000
46.11206055,-102.37660000
46.14257813,-97.18075000
46.17309570,-95.45158000
46.20361328,-94.47326000
46.23413086,-93.69945000
46.26464844,-93.75191000
46.29516602,-94.99850000
46.32568359,-102.90800000
46.35620117,-98.76698000
46.38671875,-91.45329000
46.41723633,-90.61678000
46.44775391,-92.47311000
46.47827148,-92.92419000
46.50878906,-92.20044000
46.53930664,-92.36584000
46.56982422,-93.37984000
46.60034180,-94.97652000
46.63085938,-96.21986000
46.66137695,-96.22697000
46.69189453,-96.11568000
46.72241211,-98.09415000
46.75292969,-105.49970000
46.78344727,-104.98310000
46.81396484,-98.86621000
46.84448242,-99.01752000
46.87500000,-99.32977000
46.90551758,-92.73991000
46.93603516,-89.33629000
46.96655273,-88.16361000
46.99707031,-87.89840000
47.02758789,-88.84538000
47.05810547,-91.38269000
47.08862305,-96.01820000
47.11914063,-107.57750000
47.14965820,-99.49278000
47.18017578,-94.50186000
47.21069336,-93.73399000
47.24121094,-96.01594000
47.27172852,-102.44850000
47.30224609,-112.43750000
47.33276367,-96.92979000
47.36328125,-91.65637000
47.39379883,-89.77649000
47.42431641,-90.76764000
47.45483398,-94.97871000
47.48535156,-99.74405000
47.51586914,-96.83117000
47.54638672,-94.59125000
47.57690430,-93.63530000
47.60742188,-95.19960000
47.63793945,-101.95780000
47.66845703,-101.98920000
47.69897461,-96.96578000
47.72949219,-95.88434000
47.76000977,-97.36152000
47.79052734,-100.93240000
47.82104492,-97.61998000
47.85156250,-93.29967000
47.88208008,-91.92720000
47.91259766,-93.03818000
47.94311523,-96.40886000
47.97363281,-102.01190000
48.00415039,-111.13590000
48.03466797,-105.62660000
48.06518555,-97.96146000
48.09570313,-93.67943000
48.12622070,-91.08375000
48.15673828,-89.87595000
48.18725586,-90.44489000
48.21777344,-93.18943000
48.24829102,-97.61281000
48.27880859,-99.69368000
48.30932617,-96.75904000
48.33984375,-93.61568000
48.37036133,-92.92998000
48.40087891,-94.94943000
48.43139648,-97.67356000
48.46191406,-96.32554000
48.49243164,-94.69528000
48.52294922,-94.70799000
48.55346680,-96.34563000
48.58398438,-99.77139000
48.61450195,-98.35526000
48.64501953,-93.25476000
48.67553711,-90.32802000
48.70605469,-88.97816000
48.73657227,-88.86173000
48.76708984,-89.92553000
48.79760742,-91.52595000
48.82812500,-92.28538000
48.85864258,-92.03732000
48.88916016,-92.51118000
48.91967773,-96.03077000
48.95019531,-103.65060000
48.98071289,-99.02779000
49.01123047,-96.94108000
49.04174805,-96.38375000
49.07226563,-94.53248000
49.10278320,-92.80038000
49.13330078,-92.56134000
49.16381836,-93.16570000
49.19433594,-94.18158000
49.22485352,-98.56596000
49.25537109,-105.28890000
49.28588867,-94.23432000
49.31640625,-90.95971000
49.34692383,-90.59969000
49.37744141,-91.76583000
49.40795898,-93.92172000
49.43847656,-96.30573000
49.46899414,-96.89214000
49.49951172,-95.52791000
49.53002930,-94.44017000
49.56054688,-94.50702000
49.59106445,-94.64264000
49.62158203,-93.97543000
49.65209961,-93.55872000
49.68261719,-93.06860000
49.71313477,-94.10699000
49.74365234,-101.36030000
49.77416992,-100.08620000
49.80468750,-93.69664000
49.83520508,-92.66434000
49.86572266,-93.03383000
49.89624023,-93.30560000
49.92675781,-94.23295000
49.95727539,-95.85255000
49.98779297,-95.32457000
50.01831055,-94.37905000
