Frequency,Channel A
(MHz),(dBu)

0.00000000,-41.93815000
0.03051758,-41.71916000
0.06103516,-44.78132000
0.09155273,-49.49136000
0.12207031,-55.84608000
0.15258789,-68.31328000
0.18310547,-65.43464000
0.21362305,-60.70047000
0.24414063,-61.96830000
0.27465820,-67.50590000
0.30517578,-68.57239000
0.33569336,-65.91940000
0.36621094,-64.37306000
0.39672852,-61.65665000
0.42724609,-59.61606000
0.45776367,-59.77662000
0.48828125,-62.94933000
0.51879883,-72.09748000
0.54931641,-68.83305000
0.57983398,-62.16824000
0.61035156,-60.24519000
0.64086914,-61.57829000
0.67138672,-66.26300000
0.70190430,-72.74290000
0.73242188,-73.42879000
0.76293945,-70.45552000
0.79345703,-66.60106000
0.82397461,-65.80329000
0.85449219,-69.03988000
0.88500977,-69.14237000
0.91552734,-65.87705000
0.94604492,-69.08937000
0.97656250,-73.50961000
1.00708008,-65.30722000
1.03759766,-66.68031000
1.06811523,-69.67032000
1.09863281,-63.37075000
1.12915039,-63.58049000
1.15966797,-70.85933000
1.19018555,-68.51891000
1.22070313,-65.25494000
1.25122070,-68.39513000
1.28173828,-77.00400000
1.31225586,-69.91241000
1.34277344,-69.99692000
1.37329102,-74.19801000
1.40380859,-67.20250000
1.43432617,-63.60392000
1.46484375,-63.75643000
1.49536133,-68.06985000
1.52587891,-82.75371000
1.55639648,-69.21317000
1.58691406,-64.81289000
1.61743164,-64.23491000
1.64794922,-66.67899000
1.67846680,-69.43997000
1.70898438,-68.92722000
1.73950195,-70.50517000
1.77001953,-72.47798000
1.80053711,-69.64577000
1.83105469,-68.84849000
1.86157227,-72.47163000
1.89208984,-88.23129000
1.92260742,-69.90902000
1.95312500,-66.06820000
1.98364258,-67.01455000
2.01416016,-72.43965000
2.04467773,-77.03396000
2.07519531,-76.04272000
2.10571289,-72.49455000
2.13623047,-70.02441000
2.16674805,-72.06934000
2.19726563,-75.16948000
2.22778320,-71.21594000
2.25830078,-70.25258000
2.28881836,-72.14101000
2.31933594,-73.37878000
2.34985352,-71.82739000
2.38037109,-70.24528000
2.41088867,-70.69770000
2.44140625,-74.44782000
2.47192383,-78.21117000
2.50244141,-74.74221000
2.53295898,-73.69745000
2.56347656,-74.13080000
2.59399414,-71.46305000
2.62451172,-68.46177000
2.65502930,-67.95020000
2.68554688,-70.83765000
2.71606445,-78.53940000
2.74658203,-72.86958000
2.77709961,-70.08647000
2.80761719,-73.25790000
2.83813477,-89.98833000
2.86865234,-72.74394000
2.89916992,-68.13382000
2.92968750,-66.71625000
2.96020508,-67.37557000
2.99072266,-69.07959000
3.02124023,-71.29172000
3.05175781,-75.97572000
3.08227539,-72.56438000
3.11279297,-68.15195000
3.14331055,-67.04709000
3.17382813,-67.09504000
3.20434570,-67.33460000
3.23486328,-68.50679000
3.26538086,-70.67043000
3.29589844,-72.73475000
3.32641602,-73.46606000
3.35693359,-71.81631000
3.38745117,-71.29082000
3.41796875,-72.58980000
3.44848633,-70.42931000
3.47900391,-67.93266000
3.50952148,-67.76166000
3.54003906,-68.73240000
3.57055664,-69.65308000
3.60107422,-70.51424000
3.63159180,-69.46809000
3.66210938,-67.43459000
3.69262695,-66.62754000
3.72314453,-66.97466000
3.75366211,-68.48512000
3.78417969,-71.19994000
3.81469727,-71.78121000
3.84521484,-69.67287000
3.87573242,-67.96556000
3.90625000,-67.63076000
3.93676758,-69.00035000
3.96728516,-69.40031000
3.99780273,-68.51315000
4.02832031,-69.54166000
4.05883789,-70.70715000
4.08935547,-70.09921000
4.11987305,-69.97001000
4.15039063,-68.65716000
4.18090820,-67.42055000
4.21142578,-68.29399000
4.24194336,-70.94443000
4.27246094,-72.97459000
4.30297852,-72.37355000
4.33349609,-71.59964000
4.36401367,-71.83015000
4.39453125,-71.93098000
4.42504883,-70.61517000
4.45556641,-69.38773000
4.48608398,-69.10257000
4.51660156,-68.41367000
4.54711914,-67.59263000
4.57763672,-68.48688000
4.60815430,-71.17652000
4.63867188,-71.68089000
4.66918945,-69.27087000
4.69970703,-67.88727000
4.73022461,-68.24934000
4.76074219,-70.12231000
4.79125977,-71.59623000
4.82177734,-70.56866000
4.85229492,-69.74219000
4.88281250,-70.06845000
4.91333008,-70.09678000
4.94384766,-69.69104000
4.97436523,-70.07259000
5.00488281,-71.83800000
5.03540039,-72.87156000
5.06591797,-70.77689000
5.09643555,-70.66628000
5.12695313,-72.23737000
5.15747070,-71.22944000
5.18798828,-70.78088000
5.21850586,-72.53604000
5.24902344,-74.25561000
5.27954102,-76.12374000
5.31005859,-80.07384000
5.34057617,-82.54436000
5.37109375,-82.47086000
5.40161133,-81.43162000
5.43212891,-78.70451000
5.46264648,-76.34007000
5.49316406,-75.72232000
5.52368164,-74.85504000
5.55419922,-71.14572000
5.58471680,-67.86473000
5.61523438,-66.44267000
5.64575195,-66.25970000
5.67626953,-65.70517000
5.70678711,-64.43893000
5.73730469,-63.40954000
5.76782227,-62.96687000
5.79833984,-63.23116000
5.82885742,-63.67345000
5.85937500,-63.19597000
5.88989258,-62.59765000
5.92041016,-63.17428000
5.95092773,-64.48727000
5.98144531,-64.60778000
6.01196289,-63.95338000
6.04248047,-64.12244000
6.07299805,-65.26397000
6.10351563,-66.10830000
6.13403320,-65.61514000
6.16455078,-65.65228000
6.19506836,-67.10937000
6.22558594,-68.76085000
6.25610352,-69.58095000
6.28662109,-69.15537000
6.31713867,-68.57413000
6.34765625,-69.78927000
6.37817383,-72.73848000
6.40869141,-74.24369000
6.43920898,-73.00877000
6.46972656,-72.04923000
6.50024414,-73.18313000
6.53076172,-77.85869000
6.56127930,-83.51945000
6.59179688,-79.98822000
6.62231445,-79.02598000
6.65283203,-79.72489000
6.68334961,-80.57240000
6.71386719,-79.75007000
6.74438477,-78.49311000
6.77490234,-80.35178000
6.80541992,-84.57523000
6.83593750,-81.29757000
6.86645508,-78.17447000
6.89697266,-77.51509000
6.92749023,-80.34236000
6.95800781,-92.73990000
6.98852539,-83.64845000
7.01904297,-80.22546000
7.04956055,-82.43626000
7.08007813,-95.26067000
7.11059570,-85.27373000
7.14111328,-80.02844000
7.17163086,-80.61096000
7.20214844,-86.45566000
7.23266602,-95.15771000
7.26318359,-87.41074000
7.29370117,-84.39931000
7.32421875,-86.42289000
7.35473633,-93.93746000
7.38525391,-82.21038000
7.41577148,-79.54671000
7.44628906,-81.67146000
7.47680664,-91.77872000
7.50732422,-87.28564000
7.53784180,-80.75703000
7.56835938,-81.64962000
7.59887695,-92.06136000
7.62939453,-81.04068000
7.65991211,-77.23048000
7.69042969,-77.85612000
7.72094727,-82.40652000
7.75146484,-97.22619000
7.78198242,-85.21733000
7.81250000,-82.21564000
7.84301758,-84.75761000
7.87353516,-96.09066000
7.90405273,-84.43652000
7.93457031,-80.50188000
7.96508789,-82.24010000
7.99560547,-97.16786000
8.02612305,-84.71780000
8.05664063,-80.06833000
8.08715820,-80.36409000
8.11767578,-84.68880000
8.14819336,-96.55550000
8.17871094,-85.64795000
8.20922852,-82.24432000
8.23974609,-83.26460000
8.27026367,-88.69984000
8.30078125,-94.45242000
8.33129883,-84.56029000
8.36181641,-80.13317000
8.39233398,-78.75039000
8.42285156,-80.43300000
8.45336914,-86.48708000
8.48388672,-102.46650000
8.51440430,-90.82025000
8.54492188,-88.15535000
8.57543945,-89.46922000
8.60595703,-91.50711000
8.63647461,-84.96031000
8.66699219,-82.13394000
8.69750977,-83.90771000
8.72802734,-89.78570000
8.75854492,-84.61821000
8.78906250,-81.49761000
8.81958008,-82.31479000
8.85009766,-87.06239000
8.88061523,-88.89330000
8.91113281,-84.37653000
8.94165039,-85.09776000
8.97216797,-92.68753000
9.00268555,-87.72025000
9.03320313,-82.85117000
9.06372070,-82.00772000
9.09423828,-83.65074000
9.12475586,-86.07886000
9.15527344,-85.79742000
9.18579102,-84.56214000
9.21630859,-83.81661000
9.24682617,-84.76276000
9.27734375,-90.17709000
9.30786133,-99.82518000
9.33837891,-95.62767000
9.36889648,-99.50771000
9.39941406,-93.32973000
9.42993164,-90.98679000
9.46044922,-92.46065000
9.49096680,-93.32671000
9.52148438,-89.41287000
9.55200195,-85.52402000
9.58251953,-84.24898000
9.61303711,-87.68932000
9.64355469,-102.20810000
9.67407227,-86.77350000
9.70458984,-84.09862000
9.73510742,-84.87225000
9.76562500,-86.79613000
9.79614258,-87.77462000
9.82666016,-88.59447000
9.85717773,-93.07754000
9.88769531,-86.51132000
9.91821289,-81.64571000
9.94873047,-81.39546000
9.97924805,-85.52348000
10.00976563,-101.67430000
10.04028320,-89.35457000
10.07080078,-82.84419000
10.10131836,-79.94650000
10.13183594,-79.65648000
10.16235352,-81.13206000
10.19287109,-83.00285000
10.22338867,-87.16920000
10.25390625,-88.22681000
10.28442383,-85.41528000
10.31494141,-86.59649000
10.34545898,-84.04801000
10.37597656,-80.75668000
10.40649414,-79.46737000
10.43701172,-79.36966000
10.46752930,-80.81448000
10.49804688,-84.59641000
10.52856445,-89.42767000
10.55908203,-89.28148000
10.58959961,-86.27342000
10.62011719,-85.66452000
10.65063477,-88.98312000
10.68115234,-101.12310000
10.71166992,-93.60368000
10.74218750,-92.60281000
10.77270508,-92.10635000
10.80322266,-83.47866000
10.83374023,-80.27412000
10.86425781,-79.64591000
10.89477539,-80.28290000
10.92529297,-81.76054000
10.95581055,-84.80450000
10.98632813,-94.95515000
11.01684570,-91.02454000
11.04736328,-84.68647000
11.07788086,-82.73754000
11.10839844,-82.36610000
11.13891602,-82.55650000
11.16943359,-81.17913000
11.19995117,-81.01792000
11.23046875,-84.66522000
11.26098633,-88.18784000
11.29150391,-90.50682000
11.32202148,-98.64230000
11.35253906,-97.08127000
11.38305664,-95.71961000
11.41357422,-83.09899000
11.44409180,-78.73679000
11.47460938,-78.04089000
11.50512695,-81.05503000
11.53564453,-95.52707000
11.56616211,-84.49235000
11.59667969,-80.54480000
11.62719727,-84.26202000
11.65771484,-91.51569000
11.68823242,-78.79047000
11.71875000,-75.92632000
11.74926758,-77.13683000
11.77978516,-82.45238000
11.81030273,-83.23480000
11.84082031,-78.64536000
11.87133789,-77.85635000
11.90185547,-80.71987000
11.93237305,-88.76888000
11.96289063,-84.17698000
11.99340820,-80.22193000
12.02392578,-81.29266000
12.05444336,-89.13516000
12.08496094,-91.10173000
12.11547852,-87.35587000
12.14599609,-92.89102000
12.17651367,-85.56622000
12.20703125,-82.78836000
12.23754883,-85.04012000
12.26806641,-85.37756000
12.29858398,-84.54495000
12.32910156,-86.54214000
12.35961914,-86.60750000
12.39013672,-82.02747000
12.42065430,-77.86133000
12.45117188,-75.72277000
12.48168945,-75.67139000
12.51220703,-77.97634000
12.54272461,-83.38685000
12.57324219,-89.11504000
12.60375977,-88.69267000
12.63427734,-84.58792000
12.66479492,-77.56129000
12.69531250,-73.64513000
12.72583008,-72.45059000
12.75634766,-73.82991000
12.78686523,-78.33064000
12.81738281,-87.86737000
12.84790039,-82.34457000
12.87841797,-77.28522000
12.90893555,-76.70475000
12.93945313,-80.65314000
12.96997070,-95.06680000
13.00048828,-89.81441000
13.03100586,-91.93341000
13.06152344,-86.48563000
13.09204102,-82.08335000
13.12255859,-83.11039000
13.15307617,-92.75624000
13.18359375,-84.06409000
13.21411133,-80.01176000
13.24462891,-81.00140000
13.27514648,-81.41083000
13.30566406,-83.63308000
13.33618164,-95.91640000
13.36669922,-79.75585000
13.39721680,-76.33522000
13.42773438,-76.22733000
13.45825195,-77.07887000
13.48876953,-75.94434000
13.51928711,-68.99093000
13.54980469,-64.80656000
13.58032227,-63.71791000
13.61083984,-65.04754000
13.64135742,-68.55238000
13.67187500,-73.75452000
13.70239258,-74.46288000
13.73291016,-73.49693000
13.76342773,-75.38602000
13.79394531,-78.29681000
13.82446289,-83.54723000
13.85498047,-93.75016000
13.88549805,-81.45721000
13.91601563,-79.52021000
13.94653320,-82.23724000
13.97705078,-96.12489000
14.00756836,-85.16990000
14.03808594,-81.67296000
14.06860352,-83.77193000
14.09912109,-87.97844000
14.12963867,-86.88210000
14.16015625,-84.07287000
14.19067383,-83.45090000
14.22119141,-84.02316000
14.25170898,-83.73392000
14.28222656,-84.68307000
14.31274414,-90.93937000
14.34326172,-90.80570000
14.37377930,-81.45489000
14.40429688,-79.28455000
14.43481445,-81.97002000
14.46533203,-89.19473000
14.49584961,-89.82124000
14.52636719,-83.28206000
14.55688477,-77.33995000
14.58740234,-74.99387000
14.61791992,-74.20575000
14.64843750,-74.23511000
14.67895508,-75.83831000
14.70947266,-79.79062000
14.73999023,-86.12489000
14.77050781,-92.02106000
14.80102539,-88.11034000
14.83154297,-88.67428000
14.86206055,-94.51187000
14.89257813,-87.82262000
14.92309570,-90.98235000
14.95361328,-95.39725000
14.98413086,-88.45699000
15.01464844,-90.23811000
15.04516602,-101.80090000
15.07568359,-92.97771000
15.10620117,-85.67986000
15.13671875,-85.54132000
15.16723633,-98.09993000
15.19775391,-89.60306000
15.22827148,-87.86256000
15.25878906,-96.04909000
15.28930664,-99.59970000
15.31982422,-94.96464000
15.35034180,-92.32582000
15.38085938,-100.44400000
15.41137695,-87.17078000
15.44189453,-82.65601000
15.47241211,-85.00863000
15.50292969,-92.15920000
15.53344727,-90.15977000
15.56396484,-84.32049000
15.59448242,-81.94896000
15.62500000,-84.02680000
15.65551758,-89.92371000
15.68603516,-92.92123000
15.71655273,-102.20550000
15.74707031,-91.22021000
15.77758789,-87.28768000
15.80810547,-92.96658000
15.83862305,-89.19292000
15.86914063,-85.53081000
15.89965820,-87.02850000
15.93017578,-94.41069000
15.96069336,-94.85355000
15.99121094,-86.16532000
16.02172852,-86.05727000
16.05224609,-95.28281000
16.08276367,-91.65168000
16.11328125,-84.29694000
16.14379883,-82.30574000
16.17431641,-84.06373000
16.20483398,-89.95175000
16.23535156,-89.34655000
16.26586914,-88.78131000
16.29638672,-97.93209000
16.32690430,-94.49795000
16.35742188,-88.58814000
16.38793945,-87.15591000
16.41845703,-88.11024000
16.44897461,-93.94500000
16.47949219,-98.02567000
16.51000977,-99.63233000
16.54052734,-98.77452000
16.57104492,-88.01334000
16.60156250,-83.54301000
16.63208008,-81.31512000
16.66259766,-81.10938000
16.69311523,-83.32890000
16.72363281,-88.11317000
16.75415039,-93.53891000
16.78466797,-94.70052000
16.81518555,-92.64301000
16.84570313,-89.91387000
16.87622070,-87.47880000
16.90673828,-87.15778000
16.93725586,-89.63474000
16.96777344,-96.52562000
16.99829102,-97.16187000
17.02880859,-90.22876000
17.05932617,-90.64973000
17.08984375,-105.58210000
17.12036133,-89.39568000
17.15087891,-85.69785000
17.18139648,-87.84431000
17.21191406,-98.70444000
17.24243164,-91.95529000
17.27294922,-86.32156000
17.30346680,-85.29301000
17.33398438,-88.51760000
17.36450195,-99.91791000
17.39501953,-97.07219000
17.42553711,-101.84840000
17.45605469,-95.02026000
17.48657227,-85.81836000
17.51708984,-82.22807000
17.54760742,-82.22325000
17.57812500,-86.37454000
17.60864258,-97.96973000
17.63916016,-89.92200000
17.66967773,-86.24802000
17.70019531,-84.59682000
17.73071289,-79.43045000
17.76123047,-74.30733000
17.79174805,-71.85691000
17.82226563,-72.32469000
17.85278320,-76.19416000
17.88330078,-84.92954000
17.91381836,-89.31757000
17.94433594,-88.38657000
17.97485352,-91.14806000
18.00537109,-94.62335000
18.03588867,-95.57494000
18.06640625,-92.73174000
18.09692383,-93.49781000
18.12744141,-94.79392000
18.15795898,-90.41896000
18.18847656,-89.88417000
18.21899414,-92.96135000
18.24951172,-94.53910000
18.28002930,-91.54857000
18.31054688,-88.14859000
18.34106445,-87.56081000
18.37158203,-89.92232000
18.40209961,-91.50703000
18.43261719,-90.33131000
18.46313477,-90.97478000
18.49365234,-96.18303000
18.52416992,-95.18472000
18.55468750,-88.63672000
18.58520508,-87.50287000
18.61572266,-91.07925000
18.64624023,-97.35851000
18.67675781,-90.71724000
18.70727539,-88.99250000
18.73779297,-92.03568000
18.76831055,-105.19550000
18.79882813,-99.40601000
18.82934570,-96.14093000
18.85986328,-100.09340000
18.89038086,-110.83250000
18.92089844,-95.53734000
18.95141602,-91.05345000
18.98193359,-90.81606000
19.01245117,-95.15247000
19.04296875,-109.98980000
19.07348633,-100.33310000
19.10400391,-99.23972000
19.13452148,-101.03040000
19.16503906,-96.19625000
19.19555664,-92.73787000
19.22607422,-92.81606000
19.25659180,-97.93672000
19.28710938,-105.47930000
19.31762695,-92.98187000
19.34814453,-89.90737000
19.37866211,-90.12659000
19.40917969,-92.29349000
19.43969727,-94.96465000
19.47021484,-96.04507000
19.50073242,-97.17093000
19.53125000,-102.49580000
19.56176758,-103.07130000
19.59228516,-95.92374000
19.62280273,-95.88844000
19.65332031,-105.04080000
19.68383789,-95.42359000
19.71435547,-92.63998000
19.74487305,-95.39299000
19.77539063,-94.03023000
19.80590820,-91.59591000
19.83642578,-92.29351000
19.86694336,-94.47409000
19.89746094,-101.30030000
19.92797852,-98.86444000
19.95849609,-90.62737000
19.98901367,-88.80444000
20.01953125,-90.80238000
20.05004883,-98.27393000
20.08056641,-98.46829000
20.11108398,-91.19568000
20.14160156,-89.75604000
20.17211914,-91.40765000
20.20263672,-96.33386000
20.23315430,-108.56550000
20.26367188,-95.07736000
20.29418945,-91.24287000
20.32470703,-90.97275000
20.35522461,-91.94113000
20.38574219,-91.46738000
20.41625977,-91.35179000
20.44677734,-94.81472000
20.47729492,-100.95380000
20.50781250,-98.97784000
20.53833008,-102.16600000
20.56884766,-100.90580000
20.59936523,-97.21426000
20.62988281,-98.25842000
20.66040039,-102.43490000
20.69091797,-103.37200000
20.72143555,-94.11973000
20.75195313,-90.52155000
20.78247070,-89.87512000
20.81298828,-90.06404000
20.84350586,-90.89782000
20.87402344,-93.78738000
20.90454102,-94.62282000
20.93505859,-92.60413000
20.96557617,-94.61090000
20.99609375,-104.03520000
21.02661133,-102.46260000
21.05712891,-96.58115000
21.08764648,-92.22149000
21.11816406,-90.56668000
21.14868164,-91.73499000
21.17919922,-92.82342000
21.20971680,-93.11908000
21.24023438,-99.73179000
21.27075195,-97.75706000
21.30126953,-89.62495000
21.33178711,-89.04339000
21.36230469,-95.82541000
21.39282227,-95.91386000
21.42333984,-88.90839000
21.45385742,-89.54936000
21.48437500,-93.66580000
21.51489258,-92.82520000
21.54541016,-94.40776000
21.57592773,-99.52404000
21.60644531,-94.36034000
21.63696289,-93.24350000
21.66748047,-97.11752000
21.69799805,-100.22350000
21.72851563,-93.17405000
21.75903320,-90.86179000
21.78955078,-90.24416000
21.82006836,-89.97798000
21.85058594,-92.32013000
21.88110352,-98.96842000
21.91162109,-93.21632000
21.94213867,-89.42767000
21.97265625,-89.69451000
22.00317383,-94.71674000
22.03369141,-103.05430000
22.06420898,-93.96620000
22.09472656,-92.28837000
22.12524414,-93.22006000
22.15576172,-94.66933000
22.18627930,-91.38728000
22.21679688,-87.51759000
22.24731445,-87.08989000
22.27783203,-89.98501000
22.30834961,-91.97048000
22.33886719,-90.82185000
22.36938477,-90.59711000
22.39990234,-90.30987000
22.43041992,-89.60075000
22.46093750,-88.93819000
22.49145508,-91.06499000
22.52197266,-100.46430000
22.55249023,-98.92437000
22.58300781,-99.19530000
22.61352539,-111.02520000
22.64404297,-95.54165000
22.67456055,-92.95943000
22.70507813,-93.60818000
22.73559570,-95.94560000
22.76611328,-100.19680000
22.79663086,-104.79980000
22.82714844,-95.78090000
22.85766602,-91.68257000
22.88818359,-91.85486000
22.91870117,-97.49463000
22.94921875,-103.41630000
22.97973633,-95.57384000
23.01025391,-97.84731000
23.04077148,-109.81590000
23.07128906,-94.65739000
23.10180664,-90.41139000
23.13232422,-87.96571000
23.16284180,-88.23154000
23.19335938,-93.60600000
23.22387695,-111.11460000
23.25439453,-95.85224000
23.28491211,-95.42744000
23.31542969,-96.32191000
23.34594727,-96.99584000
23.37646484,-98.17841000
23.40698242,-94.98806000
23.43750000,-92.19720000
23.46801758,-92.69196000
23.49853516,-99.13071000
23.52905273,-101.94020000
23.55957031,-92.94971000
23.59008789,-92.30904000
23.62060547,-97.63530000
23.65112305,-105.21950000
23.68164063,-92.91650000
23.71215820,-88.83439000
23.74267578,-88.17822000
23.77319336,-90.18307000
23.80371094,-92.27845000
23.83422852,-92.90785000
23.86474609,-97.10266000
23.89526367,-114.12380000
23.92578125,-109.12250000
23.95629883,-99.40342000
23.98681641,-91.34747000
24.01733398,-89.75423000
24.04785156,-92.37129000
24.07836914,-93.18083000
24.10888672,-91.25058000
24.13940430,-91.41408000
24.16992188,-92.70686000
24.20043945,-94.79346000
24.23095703,-96.59058000
24.26147461,-97.72990000
24.29199219,-100.53380000
24.32250977,-116.90470000
24.35302734,-98.84772000
24.38354492,-92.93469000
24.41406250,-92.09506000
24.44458008,-93.61726000
24.47509766,-95.43954000
24.50561523,-99.33920000
24.53613281,-105.07350000
24.56665039,-104.08290000
24.59716797,-98.98217000
24.62768555,-93.78317000
24.65820313,-92.06127000
24.68872070,-93.23635000
24.71923828,-96.30614000
24.74975586,-96.75594000
24.78027344,-93.60304000
24.81079102,-92.46545000
24.84130859,-94.38292000
24.87182617,-99.29536000
24.90234375,-108.52860000
24.93286133,-106.43380000
24.96337891,-103.06880000
24.99389648,-107.16370000
25.02441406,-98.91308000
25.05493164,-98.03496000
25.08544922,-108.38460000
25.11596680,-98.83272000
25.14648438,-95.69451000
25.17700195,-96.55361000
25.20751953,-96.84512000
25.23803711,-100.49350000
25.26855469,-107.42440000
25.29907227,-96.60980000
25.32958984,-94.89013000
25.36010742,-94.95734000
25.39062500,-93.70851000
25.42114258,-94.20673000
25.45166016,-99.66844000
25.48217773,-97.92533000
25.51269531,-91.22353000
25.54321289,-89.33860000
25.57373047,-89.64287000
25.60424805,-91.40497000
25.63476563,-96.87418000
25.66528320,-94.77322000
25.69580078,-89.03558000
25.72631836,-87.67999000
25.75683594,-89.56410000
25.78735352,-96.81916000
25.81787109,-101.68820000
25.84838867,-92.20531000
25.87890625,-90.50438000
25.90942383,-90.00571000
25.93994141,-89.29523000
25.97045898,-90.40719000
26.00097656,-95.34985000
26.03149414,-105.87880000
26.06201172,-97.13441000
26.09252930,-93.68269000
26.12304688,-93.21975000
26.15356445,-95.37743000
26.18408203,-97.20277000
26.21459961,-96.90192000
26.24511719,-101.48170000
26.27563477,-106.77070000
26.30615234,-99.08997000
26.33666992,-99.50395000
26.36718750,-100.43120000
26.39770508,-96.11225000
26.42822266,-94.28925000
26.45874023,-94.83214000
26.48925781,-96.37267000
26.51977539,-100.97280000
26.55029297,-98.27409000
26.58081055,-92.28038000
26.61132813,-92.19799000
26.64184570,-98.08588000
26.67236328,-104.13600000
26.70288086,-97.01737000
26.73339844,-92.52564000
26.76391602,-90.98329000
26.79443359,-93.29835000
26.82495117,-98.27692000
26.85546875,-95.99235000
26.88598633,-93.56828000
26.91650391,-93.97455000
26.94702148,-97.58729000
26.97753906,-98.97350000
27.00805664,-95.10513000
27.03857422,-93.60030000
27.06909180,-92.65656000
27.09960938,-92.94292000
27.13012695,-96.68634000
27.16064453,-107.61830000
27.19116211,-119.11980000
27.22167969,-111.35270000
27.25219727,-100.08920000
27.28271484,-96.59660000
27.31323242,-96.55142000
27.34375000,-97.57888000
27.37426758,-97.75662000
27.40478516,-100.22670000
27.43530273,-117.74710000
27.46582031,-97.07365000
27.49633789,-93.00266000
27.52685547,-92.94399000
27.55737305,-94.14377000
27.58789063,-95.16879000
27.61840820,-98.25687000
27.64892578,-103.78480000
27.67944336,-107.22990000
27.70996094,-104.22900000
27.74047852,-97.64424000
27.77099609,-97.49722000
27.80151367,-99.57594000
27.83203125,-101.85850000
27.86254883,-113.40010000
27.89306641,-99.61495000
27.92358398,-97.53677000
27.95410156,-100.83820000
27.98461914,-109.54930000
28.01513672,-94.63908000
28.04565430,-91.07522000
28.07617188,-92.48893000
28.10668945,-96.41681000
28.13720703,-99.85307000
28.16772461,-101.79000000
28.19824219,-92.31446000
28.22875977,-89.15509000
28.25927734,-89.23763000
28.28979492,-91.77066000
28.32031250,-94.55161000
28.35083008,-91.25073000
28.38134766,-89.84928000
28.41186523,-92.89268000
28.44238281,-107.05910000
28.47290039,-98.50516000
28.50341797,-94.72334000
28.53393555,-98.40628000
28.56445313,-102.41980000
28.59497070,-90.70512000
28.62548828,-88.05907000
28.65600586,-90.36416000
28.68652344,-97.25251000
28.71704102,-97.24094000
28.74755859,-98.08956000
28.77807617,-105.70550000
28.80859375,-98.74004000
28.83911133,-93.82328000
28.86962891,-91.89712000
28.90014648,-91.59239000
28.93066406,-93.98309000
28.96118164,-99.59242000
28.99169922,-96.54433000
29.02221680,-94.32374000
29.05273438,-94.62708000
29.08325195,-93.91966000
29.11376953,-95.05722000
29.14428711,-103.36600000
29.17480469,-99.27230000
29.20532227,-96.78722000
29.23583984,-103.57230000
29.26635742,-102.37830000
29.29687500,-95.08572000
29.32739258,-92.99587000
29.35791016,-93.43483000
29.38842773,-95.65067000
29.41894531,-97.51888000
29.44946289,-98.89674000
29.47998047,-99.15993000
29.51049805,-97.00097000
29.54101563,-95.22866000
29.57153320,-94.46205000
29.60205078,-95.32363000
29.63256836,-94.81870000
29.66308594,-93.55813000
29.69360352,-95.06236000
29.72412109,-98.76649000
29.75463867,-96.43097000
29.78515625,-94.69643000
29.81567383,-95.88474000
29.84619141,-97.09352000
29.87670898,-94.96922000
29.90722656,-93.22231000
29.93774414,-93.51502000
29.96826172,-94.67239000
29.99877930,-94.53185000
30.02929688,-93.52500000
30.05981445,-94.22466000
30.09033203,-98.14228000
30.12084961,-102.43850000
30.15136719,-103.96740000
30.18188477,-111.21800000
30.21240234,-114.22960000
30.24291992,-111.79050000
30.27343750,-105.18770000
30.30395508,-99.73885000
30.33447266,-98.72894000
30.36499023,-102.87670000
30.39550781,-109.02840000
30.42602539,-101.16440000
30.45654297,-96.71798000
30.48706055,-95.28365000
30.51757813,-98.15007000
30.54809570,-101.32370000
30.57861328,-95.75719000
30.60913086,-95.21262000
30.63964844,-97.56387000
30.67016602,-102.13990000
30.70068359,-105.07930000
30.73120117,-98.81832000
30.76171875,-98.48514000
30.79223633,-100.69320000
30.82275391,-105.87380000
30.85327148,-104.20160000
30.88378906,-97.72996000
30.91430664,-96.17805000
30.94482422,-97.00601000
30.97534180,-98.07195000
31.00585938,-97.17580000
31.03637695,-95.69023000
31.06689453,-96.42246000
31.09741211,-101.81270000
31.12792969,-97.54208000
31.15844727,-93.08424000
31.18896484,-92.27177000
31.21948242,-92.93958000
31.25000000,-93.86337000
31.28051758,-94.77321000
31.31103516,-96.03606000
31.34155273,-98.27441000
31.37207031,-99.66918000
31.40258789,-96.84814000
31.43310547,-95.07484000
31.46362305,-96.53360000
31.49414063,-97.43935000
31.52465820,-94.44846000
31.55517578,-93.25385000
31.58569336,-92.53472000
31.61621094,-92.55637000
31.64672852,-94.48732000
31.67724609,-95.49619000
31.70776367,-92.99920000
31.73828125,-90.62740000
31.76879883,-90.74070000
31.79931641,-94.26820000
31.82983398,-104.30370000
31.86035156,-105.91130000
31.89086914,-97.30539000
31.92138672,-96.67117000
31.95190430,-109.24240000
31.98242188,-98.09768000
32.01293945,-93.97691000
32.04345703,-95.28320000
32.07397461,-98.55297000
32.10449219,-100.79650000
32.13500977,-104.41760000
32.16552734,-108.66900000
32.19604492,-106.05640000
32.22656250,-101.11610000
32.25708008,-98.74329000
32.28759766,-97.45163000
32.31811523,-95.09986000
32.34863281,-95.32677000
32.37915039,-99.00235000
32.40966797,-102.68920000
32.44018555,-98.65760000
32.47070313,-94.46300000
32.50122070,-95.74203000
32.53173828,-108.05410000
32.56225586,-96.19513000
32.59277344,-93.83418000
32.62329102,-96.12843000
32.65380859,-101.00940000
32.68432617,-120.53060000
32.71484375,-102.26920000
32.74536133,-98.40478000
32.77587891,-97.74619000
32.80639648,-96.36104000
32.83691406,-93.99641000
32.86743164,-93.12911000
32.89794922,-93.96741000
32.92846680,-96.24973000
32.95898438,-102.28530000
32.98950195,-106.25690000
33.02001953,-97.16653000
33.05053711,-95.85300000
33.08105469,-96.57726000
33.11157227,-95.06581000
33.14208984,-94.16870000
33.17260742,-94.57490000
33.20312500,-94.28677000
33.23364258,-93.40298000
33.26416016,-92.74828000
33.29467773,-91.66539000
33.32519531,-90.60594000
33.35571289,-90.91199000
33.38623047,-92.74638000
33.41674805,-95.56096000
33.44726563,-100.27400000
33.47778320,-117.21070000
33.50830078,-102.15350000
33.53881836,-97.85020000
33.56933594,-98.46333000
33.59985352,-99.15874000
33.63037109,-96.63136000
33.66088867,-94.44740000
33.69140625,-94.02997000
33.72192383,-96.01765000
33.75244141,-98.88594000
33.78295898,-99.21861000
33.81347656,-103.71710000
33.84399414,-108.50150000
33.87451172,-97.23927000
33.90502930,-94.85249000
33.93554688,-96.58555000
33.96606445,-107.15580000
33.99658203,-101.46990000
34.02709961,-94.47073000
34.05761719,-91.49710000
34.08813477,-90.71524000
34.11865234,-91.66320000
34.14916992,-92.00984000
34.17968750,-91.64041000
34.21020508,-92.86656000
34.24072266,-96.95042000
34.27124023,-103.66070000
34.30175781,-104.29700000
34.33227539,-98.81641000
34.36279297,-96.73603000
34.39331055,-99.34839000
34.42382813,-107.59080000
34.45434570,-114.97920000
34.48486328,-104.07320000
34.51538086,-100.07630000
34.54589844,-98.82268000
34.57641602,-99.42128000
34.60693359,-99.45982000
34.63745117,-97.09518000
34.66796875,-96.45194000
34.69848633,-99.22118000
34.72900391,-102.76990000
34.75952148,-100.54510000
34.79003906,-96.23638000
34.82055664,-93.83324000
34.85107422,-94.30333000
34.88159180,-96.15364000
34.91210938,-96.71433000
34.94262695,-96.36946000
34.97314453,-98.80802000
35.00366211,-107.68960000
35.03417969,-97.67265000
35.06469727,-95.83887000
35.09521484,-101.71700000
35.12573242,-100.59340000
35.15625000,-95.92906000
35.18676758,-96.23257000
35.21728516,-98.29200000
35.24780273,-103.47040000
35.27832031,-106.11620000
35.30883789,-102.11950000
35.33935547,-102.55370000
35.36987305,-100.30940000
35.40039063,-98.78129000
35.43090820,-97.24728000
35.46142578,-96.66158000
35.49194336,-99.20963000
35.52246094,-101.32800000
35.55297852,-100.21600000
35.58349609,-102.41380000
35.61401367,-106.82390000
35.64453125,-121.55860000
35.67504883,-103.39010000
35.70556641,-97.66530000
35.73608398,-96.39047000
35.76660156,-96.37424000
35.79711914,-97.24629000
35.82763672,-98.95661000
35.85815430,-99.75394000
35.88867188,-97.37228000
35.91918945,-94.69201000
35.94970703,-95.79978000
35.98022461,-104.32770000
36.01074219,-102.53360000
36.04125977,-99.06226000
36.07177734,-100.34920000
36.10229492,-101.08360000
36.13281250,-103.28270000
36.16333008,-108.37260000
36.19384766,-117.03300000
36.22436523,-109.83480000
36.25488281,-101.56700000
36.28540039,-96.81798000
36.31591797,-94.74677000
36.34643555,-96.74023000
36.37695313,-108.93550000
36.40747070,-101.51470000
36.43798828,-97.51805000
36.46850586,-99.95181000
36.49902344,-110.08830000
36.52954102,-109.35940000
36.56005859,-101.51500000
36.59057617,-99.34134000
36.62109375,-100.56750000
36.65161133,-106.51880000
36.68212891,-109.49450000
36.71264648,-101.66930000
36.74316406,-99.02840000
36.77368164,-97.63896000
36.80419922,-98.15784000
36.83471680,-99.55585000
36.86523438,-101.95790000
36.89575195,-115.12650000
36.92626953,-95.09151000
36.95678711,-90.24490000
36.98730469,-89.73131000
37.01782227,-92.34219000
37.04833984,-97.51726000
37.07885742,-104.56630000
37.10937500,-110.71890000
37.13989258,-103.56410000
37.17041016,-98.73649000
37.20092773,-97.61324000
37.23144531,-100.80790000
37.26196289,-109.67510000
37.29248047,-98.32162000
37.32299805,-93.87371000
37.35351563,-92.38570000
37.38403320,-92.82536000
37.41455078,-94.72594000
37.44506836,-97.86403000
37.47558594,-104.60890000
37.50610352,-112.89340000
37.53662109,-105.92220000
37.56713867,-107.54760000
37.59765625,-106.53820000
37.62817383,-105.81180000
37.65869141,-104.96540000
37.68920898,-100.58850000
37.71972656,-98.55015000
37.75024414,-99.24243000
37.78076172,-102.90170000
37.81127930,-116.05360000
37.84179688,-106.22300000
37.87231445,-99.67556000
37.90283203,-97.53336000
37.93334961,-97.05159000
37.96386719,-97.12241000
37.99438477,-99.54089000
38.02490234,-111.78970000
38.05541992,-101.22700000
38.08593750,-98.21344000
38.11645508,-101.33030000
38.14697266,-109.12730000
38.17749023,-106.90780000
38.20800781,-107.97160000
38.23852539,-113.54180000
38.26904297,-103.89520000
38.29956055,-99.86354000
38.33007813,-98.40359000
38.36059570,-99.22802000
38.39111328,-104.71490000
38.42163086,-110.90180000
38.45214844,-98.07402000
38.48266602,-93.64936000
38.51318359,-92.27357000
38.54370117,-93.90193000
38.57421875,-99.15343000
38.60473633,-98.90617000
38.63525391,-98.05434000
38.66577148,-103.94160000
38.69628906,-99.43610000
38.72680664,-96.54812000
38.75732422,-97.19578000
38.78784180,-97.49810000
38.81835938,-95.91388000
38.84887695,-95.55592000
38.87939453,-101.97390000
38.90991211,-99.42535000
38.94042969,-92.63654000
38.97094727,-92.61249000
39.00146484,-97.41792000
39.03198242,-110.71140000
39.06250000,-106.45310000
39.09301758,-97.57288000
39.12353516,-93.47958000
39.15405273,-92.14111000
39.18457031,-91.99192000
39.21508789,-91.55204000
39.24560547,-91.06362000
39.27612305,-90.65977000
39.30664063,-90.57003000
39.33715820,-92.13741000
39.36767578,-96.48780000
39.39819336,-95.56937000
39.42871094,-90.08322000
39.45922852,-87.84613000
39.48974609,-88.48891000
39.52026367,-92.47474000
39.55078125,-101.39900000
39.58129883,-99.52200000
39.61181641,-99.14127000
39.64233398,-98.89175000
39.67285156,-93.66418000
39.70336914,-92.52620000
39.73388672,-96.11523000
39.76440430,-106.63980000
39.79492188,-100.09370000
39.82543945,-96.72188000
39.85595703,-96.83452000
39.88647461,-96.20927000
39.91699219,-91.86024000
39.94750977,-89.38880000
39.97802734,-89.79712000
40.00854492,-92.75153000
40.03906250,-95.66817000
40.06958008,-95.52448000
40.10009766,-95.44061000
40.13061523,-94.87714000
40.16113281,-93.70515000
40.19165039,-94.70578000
40.22216797,-99.84618000
40.25268555,-103.10050000
40.28320313,-104.58420000
40.31372070,-94.66925000
40.34423828,-91.13742000
40.37475586,-92.25430000
40.40527344,-95.47162000
40.43579102,-97.10594000
40.46630859,-96.84560000
40.49682617,-94.57338000
40.52734375,-93.06416000
40.55786133,-94.23440000
40.58837891,-98.84547000
40.61889648,-102.35690000
40.64941406,-101.97930000
40.67993164,-104.75570000
40.71044922,-104.30390000
40.74096680,-105.62490000
40.77148438,-96.60992000
40.80200195,-91.98013000
40.83251953,-90.75459000
40.86303711,-90.84530000
40.89355469,-91.00568000
40.92407227,-91.47081000
40.95458984,-93.50175000
40.98510742,-100.77280000
41.01562500,-99.58372000
41.04614258,-89.88300000
41.07666016,-86.58823000
41.10717773,-86.71439000
41.13769531,-90.16441000
41.16821289,-97.72256000
41.19873047,-104.01820000
41.22924805,-104.52380000
41.25976563,-99.61206000
41.29028320,-95.25581000
41.32080078,-93.77761000
41.35131836,-92.11945000
41.38183594,-89.79157000
41.41235352,-88.65334000
41.44287109,-89.03443000
41.47338867,-90.41458000
41.50390625,-91.10474000
41.53442383,-89.77700000
41.56494141,-88.96175000
41.59545898,-90.12275000
41.62597656,-90.94505000
41.65649414,-90.72507000
41.68701172,-90.43052000
41.71752930,-86.04346000
41.74804688,-83.24398000
41.77856445,-83.36883000
41.80908203,-85.94785000
41.83959961,-90.79634000
41.87011719,-100.77030000
41.90063477,-97.77863000
41.93115234,-89.93066000
41.96166992,-86.83836000
41.99218750,-85.88067000
42.02270508,-86.84971000
42.05322266,-90.23136000
42.08374023,-94.65369000
42.11425781,-93.48074000
42.14477539,-91.43547000
42.17529297,-90.18274000
42.20581055,-88.94052000
42.23632813,-87.79839000
42.26684570,-87.05540000
42.29736328,-87.05437000
42.32788086,-88.32890000
42.35839844,-91.35640000
42.38891602,-95.50404000
42.41943359,-95.70023000
42.44995117,-94.94112000
42.48046875,-99.95007000
42.51098633,-103.44730000
42.54150391,-96.26095000
42.57202148,-96.60255000
42.60253906,-101.02950000
42.63305664,-105.08930000
42.66357422,-105.64120000
42.69409180,-93.67880000
42.72460938,-87.30393000
42.75512695,-84.79234000
42.78564453,-85.69278000
42.81616211,-91.09513000
42.84667969,-99.86121000
42.87719727,-89.07726000
42.90771484,-85.14749000
42.93823242,-84.04529000
42.96875000,-84.99576000
42.99926758,-86.62640000
43.02978516,-86.92692000
43.06030273,-87.71442000
43.09082031,-90.60746000
43.12133789,-95.47211000
43.15185547,-99.63371000
43.18237305,-99.32434000
43.21289063,-99.66762000
43.24340820,-98.97623000
43.27392578,-93.71333000
43.30444336,-90.41683000
43.33496094,-89.75343000
43.36547852,-91.76286000
43.39599609,-97.49625000
43.42651367,-108.77750000
43.45703125,-97.96378000
43.48754883,-92.34872000
43.51806641,-88.82689000
43.54858398,-86.87308000
43.57910156,-86.81434000
43.60961914,-88.55065000
43.64013672,-90.74925000
43.67065430,-91.77202000
43.70117188,-92.53569000
43.73168945,-91.71698000
43.76220703,-90.81749000
43.79272461,-93.83595000
43.82324219,-101.11180000
43.85375977,-93.82603000
43.88427734,-89.86968000
43.91479492,-87.75966000
43.94531250,-86.67411000
43.97583008,-87.00604000
44.00634766,-88.92134000
44.03686523,-91.43990000
44.06738281,-93.37621000
44.09790039,-95.15784000
44.12841797,-96.39388000
44.15893555,-96.27033000
44.18945313,-95.20248000
44.21997070,-93.74178000
44.25048828,-92.50832000
44.28100586,-92.49970000
44.31152344,-95.04631000
44.34204102,-102.20740000
44.37255859,-102.17130000
44.40307617,-98.52994000
44.43359375,-99.13738000
44.46411133,-102.61790000
44.49462891,-107.74780000
44.52514648,-103.93060000
44.55566406,-102.73660000
44.58618164,-107.30080000
44.61669922,-103.15540000
44.64721680,-101.85870000
44.67773438,-103.13690000
44.70825195,-99.43484000
44.73876953,-100.38680000
44.76928711,-103.88070000
44.79980469,-97.31830000
44.83032227,-95.43840000
44.86083984,-98.06042000
44.89135742,-99.66927000
44.92187500,-97.29389000
44.95239258,-98.37880000
44.98291016,-100.76100000
45.01342773,-98.38470000
45.04394531,-95.34858000
45.07446289,-94.53881000
45.10498047,-95.27814000
45.13549805,-96.23788000
45.16601563,-98.55688000
45.19653320,-104.65320000
45.22705078,-109.52790000
45.25756836,-99.37822000
45.28808594,-95.28325000
45.31860352,-93.83332000
45.34912109,-93.58620000
45.37963867,-93.78486000
45.41015625,-94.49616000
45.44067383,-97.22798000
45.47119141,-104.10830000
45.50170898,-99.64142000
45.53222656,-95.36345000
45.56274414,-94.06250000
45.59326172,-94.47063000
45.62377930,-96.38733000
45.65429688,-98.23177000
45.68481445,-97.85900000
45.71533203,-96.48812000
45.74584961,-94.30243000
45.77636719,-91.88411000
45.80688477,-90.55009000
45.83740234,-91.27188000
45.86791992,-95.14339000
45.89843750,-104.07620000
45.92895508,-99.92420000
45.95947266,-96.94786000
45.98999023,-96.58840000
46.02050781,-95.15414000
46.05102539,-94.48826000
46.08154297,-97.16727000
46.11206055,-104.60270000
46.14257813,-107.93560000
46.17309570,-100.96420000
46.20361328,-96.70256000
46.23413086,-96.11556000
46.26464844,-97.45032000
46.29516602,-97.59409000
46.32568359,-97.39478000
46.35620117,-96.67268000
46.38671875,-96.08421000
46.41723633,-97.59656000
46.44775391,-101.31770000
46.47827148,-111.94460000
46.50878906,-103.56440000
46.53930664,-96.48755000
46.56982422,-94.62607000
46.60034180,-96.03904000
46.63085938,-101.61990000
46.66137695,-98.68313000
46.69189453,-94.94922000
46.72241211,-96.56861000
46.75292969,-101.80490000
46.78344727,-96.58281000
46.81396484,-92.71119000
46.84448242,-91.49095000
46.87500000,-91.24572000
46.90551758,-91.24248000
46.93603516,-92.16496000
46.96655273,-93.48994000
46.99707031,-92.82713000
47.02758789,-91.02769000
47.05810547,-90.33466000
47.08862305,-92.03593000
47.11914063,-97.27214000
47.14965820,-100.88020000
47.18017578,-99.24287000
47.21069336,-104.35990000
47.24121094,-105.10920000
47.27172852,-98.51344000
47.30224609,-96.64008000
47.33276367,-98.19600000
47.36328125,-114.29780000
47.39379883,-97.41039000
47.42431641,-92.35480000
47.45483398,-91.73974000
47.48535156,-93.84937000
47.51586914,-100.16150000
47.54638672,-109.74250000
47.57690430,-98.15598000
47.60742188,-95.89962000
47.63793945,-95.23323000
47.66845703,-95.24454000
47.69897461,-96.17734000
47.72949219,-97.26305000
47.76000977,-99.13486000
47.79052734,-101.71490000
47.82104492,-101.31380000
47.85156250,-99.07480000
47.88208008,-95.68253000
47.91259766,-93.56205000
47.94311523,-92.72018000
47.97363281,-91.24323000
48.00415039,-90.64789000
48.03466797,-92.65144000
48.06518555,-97.46645000
48.09570313,-101.45130000
48.12622070,-99.14634000
48.15673828,-98.09261000
48.18725586,-104.28870000
48.21777344,-99.80614000
48.24829102,-91.05321000
48.27880859,-87.69585000
48.30932617,-86.67311000
48.33984375,-87.05563000
48.37036133,-88.52740000
48.40087891,-91.23599000
48.43139648,-95.99151000
48.46191406,-102.66730000
48.49243164,-97.89140000
48.52294922,-95.21649000
48.55346680,-96.63171000
48.58398438,-100.22650000
48.61450195,-98.04885000
48.64501953,-94.91871000
48.67553711,-93.54615000
48.70605469,-93.06422000
48.73657227,-92.59564000
48.76708984,-93.35021000
48.79760742,-99.58003000
48.82812500,-100.32810000
48.85864258,-91.56328000
48.88916016,-90.11684000
48.91967773,-91.33051000
48.95019531,-91.56635000
48.98071289,-92.18253000
49.01123047,-95.74593000
49.04174805,-102.23520000
49.07226563,-104.62960000
49.10278320,-107.16710000
49.13330078,-104.18040000
49.16381836,-100.33860000
49.19433594,-99.21092000
49.22485352,-97.74113000
49.25537109,-94.76601000
49.28588867,-92.21294000
49.31640625,-91.90477000
49.34692383,-94.32186000
49.37744141,-97.08817000
49.40795898,-95.29133000
49.43847656,-93.61664000
49.46899414,-92.93954000
49.49951172,-92.57878000
49.53002930,-92.83241000
49.56054688,-94.35264000
49.59106445,-98.04758000
49.62158203,-106.95540000
49.65209961,-103.16040000
49.68261719,-98.63313000
49.71313477,-99.18672000
49.74365234,-100.81980000
49.77416992,-97.54021000
49.80468750,-94.70938000
49.83520508,-92.84903000
49.86572266,-90.89380000
49.89624023,-89.97273000
49.92675781,-90.82030000
49.95727539,-92.34719000
49.98779297,-93.91198000
50.01831055,-96.77235000
