Frequency,Channel A
(MHz),(dBu)

0.00000000,-26.69088000
0.03051758,-27.13708000
0.06103516,-32.60820000
0.09155273,-43.07613000
0.12207031,-60.02732000
0.15258789,-67.10571000
0.18310547,-76.12756000
0.21362305,-70.24872000
0.24414063,-72.01485000
0.27465820,-73.03696000
0.30517578,-71.92101000
0.33569336,-74.59431000
0.36621094,-71.83073000
0.39672852,-74.32704000
0.42724609,-71.12431000
0.45776367,-73.15480000
0.48828125,-65.75639000
0.51879883,-60.71363000
0.54931641,-60.20128000
0.57983398,-62.59337000
0.61035156,-65.48405000
0.64086914,-67.15681000
0.67138672,-66.36858000
0.70190430,-64.90757000
0.73242188,-63.31997000
0.76293945,-64.48466000
0.79345703,-68.81688000
0.82397461,-67.40586000
0.85449219,-66.03046000
0.88500977,-67.39827000
0.91552734,-67.41847000
0.94604492,-65.67226000
0.97656250,-65.97185000
1.00708008,-65.99847000
1.03759766,-62.66261000
1.06811523,-61.01331000
1.09863281,-62.89938000
1.12915039,-69.76336000
1.15966797,-78.60396000
1.19018555,-73.06552000
1.22070313,-71.74164000
1.25122070,-74.80132000
1.28173828,-77.92853000
1.31225586,-73.68147000
1.34277344,-72.09650000
1.37329102,-70.71407000
1.40380859,-70.04926000
1.43432617,-69.58698000
1.46484375,-68.83340000
1.49536133,-69.01527000
1.52587891,-71.80902000
1.55639648,-79.94202000
1.58691406,-80.78069000
1.61743164,-73.84423000
1.64794922,-72.39331000
1.67846680,-75.88323000
1.70898438,-83.20156000
1.73950195,-84.17052000
1.77001953,-80.71257000
1.80053711,-82.16325000
1.83105469,-91.95232000
1.86157227,-82.37202000
1.89208984,-80.59890000
1.92260742,-78.29935000
1.95312500,-75.84647000
1.98364258,-74.69628000
2.01416016,-72.99329000
2.04467773,-71.01612000
2.07519531,-70.64360000
2.10571289,-70.11267000
2.13623047,-67.97455000
2.16674805,-68.41200000
2.19726563,-74.02186000
2.22778320,-77.11615000
2.25830078,-74.77767000
2.28881836,-76.43411000
2.31933594,-81.06346000
2.34985352,-92.58272000
2.38037109,-81.58921000
2.41088867,-76.38200000
2.44140625,-75.51521000
2.47192383,-78.67605000
2.50244141,-83.58292000
2.53295898,-81.51552000
2.56347656,-78.68458000
2.59399414,-77.93056000
2.62451172,-76.89142000
2.65502930,-75.49323000
2.68554688,-73.94584000
2.71606445,-73.39389000
2.74658203,-76.62560000
2.77709961,-81.29251000
2.80761719,-79.41319000
2.83813477,-77.87718000
2.86865234,-77.55495000
2.89916992,-81.56109000
2.92968750,-88.88142000
2.96020508,-82.24662000
2.99072266,-81.59387000
3.02124023,-79.69446000
3.05175781,-79.38172000
3.08227539,-80.25078000
3.11279297,-79.01945000
3.14331055,-74.81702000
3.17382813,-70.43236000
3.20434570,-68.49249000
3.23486328,-69.69792000
3.26538086,-74.38676000
3.29589844,-79.86241000
3.32641602,-79.70486000
3.35693359,-80.46868000
3.38745117,-82.73751000
3.41796875,-95.42896000
3.44848633,-85.33646000
3.47900391,-87.70954000
3.50952148,-89.51908000
3.54003906,-81.22135000
3.57055664,-79.38644000
3.60107422,-84.15445000
3.63159180,-90.12386000
3.66210938,-83.93875000
3.69262695,-82.17047000
3.72314453,-79.21058000
3.75366211,-78.82810000
3.78417969,-85.77542000
3.81469727,-94.45027000
3.84521484,-83.47327000
3.87573242,-82.78175000
3.90625000,-87.39685000
3.93676758,-95.58072000
3.96728516,-86.99388000
3.99780273,-79.38568000
4.02832031,-76.66501000
4.05883789,-81.87648000
4.08935547,-91.04018000
4.11987305,-84.24786000
4.15039063,-79.66843000
4.18090820,-78.26083000
4.21142578,-76.76612000
4.24194336,-75.76199000
4.27246094,-76.84940000
4.30297852,-74.44103000
4.33349609,-74.25932000
4.36401367,-79.64459000
4.39453125,-97.09969000
4.42504883,-82.47888000
4.45556641,-80.75146000
4.48608398,-78.98785000
4.51660156,-75.93681000
4.54711914,-76.79669000
4.57763672,-80.39557000
4.60815430,-82.62854000
4.63867188,-96.82796000
4.66918945,-83.84655000
4.69970703,-83.01947000
4.73022461,-79.00128000
4.76074219,-77.56519000
4.79125977,-82.06928000
4.82177734,-93.10913000
4.85229492,-84.01387000
4.88281250,-77.90472000
4.91333008,-79.64801000
4.94384766,-79.63309000
4.97436523,-78.44293000
5.00488281,-80.73866000
5.03540039,-79.04735000
5.06591797,-84.83573000
5.09643555,-81.98366000
5.12695313,-76.22230000
5.15747070,-75.33926000
5.18798828,-75.19402000
5.21850586,-78.11378000
5.24902344,-84.84526000
5.27954102,-86.21078000
5.31005859,-77.51352000
5.34057617,-73.36755000
5.37109375,-74.04018000
5.40161133,-75.93104000
5.43212891,-75.28851000
5.46264648,-74.46236000
5.49316406,-75.53311000
5.52368164,-81.74565000
5.55419922,-83.15018000
5.58471680,-85.43464000
5.61523438,-83.20291000
5.64575195,-76.13183000
5.67626953,-78.74175000
5.70678711,-77.88474000
5.73730469,-81.20886000
5.76782227,-84.73018000
5.79833984,-78.67113000
5.82885742,-84.42542000
5.85937500,-76.07748000
5.88989258,-74.66466000
5.92041016,-79.21774000
5.95092773,-78.11899000
5.98144531,-84.41947000
6.01196289,-77.18307000
6.04248047,-78.43639000
6.07299805,-77.73487000
6.10351563,-75.72801000
6.13403320,-78.39813000
6.16455078,-76.63033000
6.19506836,-80.04085000
6.22558594,-83.67964000
6.25610352,-75.94669000
6.28662109,-74.66165000
6.31713867,-74.08262000
6.34765625,-76.96758000
6.37817383,-78.43382000
6.40869141,-79.74237000
6.43920898,-88.80884000
6.46972656,-83.58565000
6.50024414,-80.42043000
6.53076172,-79.96829000
6.56127930,-82.00816000
6.59179688,-78.17000000
6.62231445,-76.85965000
6.65283203,-79.53469000
6.68334961,-87.81719000
6.71386719,-84.27832000
6.74438477,-78.67471000
6.77490234,-79.06635000
6.80541992,-80.69165000
6.83593750,-81.11589000
6.86645508,-86.28555000
6.89697266,-93.11072000
6.92749023,-82.80106000
6.95800781,-79.37508000
6.98852539,-79.40047000
7.01904297,-83.93058000
7.04956055,-100.78940000
7.08007813,-82.38243000
7.11059570,-79.77654000
7.14111328,-80.90244000
7.17163086,-82.68358000
7.20214844,-84.97995000
7.23266602,-93.08192000
7.26318359,-87.41196000
7.29370117,-82.71269000
7.32421875,-83.79427000
7.35473633,-91.50227000
7.38525391,-99.70840000
7.41577148,-91.55135000
7.44628906,-90.30132000
7.47680664,-86.65656000
7.50732422,-84.08186000
7.53784180,-86.07934000
7.56835938,-93.21972000
7.59887695,-84.10857000
7.62939453,-80.50566000
7.65991211,-79.81124000
7.69042969,-81.63856000
7.72094727,-87.90368000
7.75146484,-89.07458000
7.78198242,-82.36192000
7.81250000,-81.12511000
7.84301758,-83.85651000
7.87353516,-87.95189000
7.90405273,-88.58833000
7.93457031,-88.64816000
7.96508789,-89.87689000
7.99560547,-91.65233000
8.02612305,-89.84969000
8.05664063,-89.82703000
8.08715820,-94.45441000
8.11767578,-87.49193000
8.14819336,-82.81940000
8.17871094,-82.94048000
8.20922852,-87.80663000
8.23974609,-95.95395000
8.27026367,-91.42097000
8.30078125,-88.13069000
8.33129883,-87.87399000
8.36181641,-90.73890000
8.39233398,-98.07281000
8.42285156,-97.98132000
8.45336914,-88.58546000
8.48388672,-84.80730000
8.51440430,-82.50214000
8.54492188,-81.85953000
8.57543945,-83.38531000
8.60595703,-87.27896000
8.63647461,-93.66043000
8.66699219,-90.77522000
8.69750977,-89.57571000
8.72802734,-93.76118000
8.75854492,-98.79826000
8.78906250,-92.23878000
8.81958008,-86.56683000
8.85009766,-85.78880000
8.88061523,-89.91843000
8.91113281,-100.75660000
8.94165039,-96.66231000
8.97216797,-86.75050000
9.00268555,-83.64285000
9.03320313,-84.57460000
9.06372070,-90.41581000
9.09423828,-103.58900000
9.12475586,-88.89435000
9.15527344,-86.63270000
9.18579102,-89.43843000
9.21630859,-101.98000000
9.24682617,-90.14587000
9.27734375,-87.81662000
9.30786133,-90.97424000
9.33837891,-90.39348000
9.36889648,-85.69431000
9.39941406,-85.93377000
9.42993164,-95.10036000
9.46044922,-93.53371000
9.49096680,-90.74312000
9.52148438,-99.05972000
9.55200195,-85.55902000
9.58251953,-81.52858000
9.61303711,-80.91322000
9.64355469,-82.38284000
9.67407227,-85.98383000
9.70458984,-91.33940000
9.73510742,-93.42472000
9.76562500,-93.07657000
9.79614258,-91.18115000
9.82666016,-88.46312000
9.85717773,-86.09013000
9.88769531,-86.22836000
9.91821289,-88.00796000
9.94873047,-87.41044000
9.97924805,-86.70708000
10.00976563,-89.01981000
10.04028320,-99.26996000
10.07080078,-91.14757000
10.10131836,-85.08508000
10.13183594,-83.11299000
10.16235352,-83.05221000
10.19287109,-85.77531000
10.22338867,-90.97404000
10.25390625,-90.06071000
10.28442383,-101.30860000
10.31494141,-89.05349000
10.34545898,-85.31137000
10.37597656,-88.54343000
10.40649414,-87.50812000
10.43701172,-83.70841000
10.46752930,-83.39861000
10.49804688,-86.12453000
10.52856445,-90.59010000
10.55908203,-89.84696000
10.58959961,-82.38603000
10.62011719,-77.16882000
10.65063477,-75.05489000
10.68115234,-75.00148000
10.71166992,-76.26929000
10.74218750,-78.67433000
10.77270508,-82.57584000
10.80322266,-89.05347000
10.83374023,-99.77100000
10.86425781,-92.72256000
10.89477539,-87.68119000
10.92529297,-86.82555000
10.95581055,-88.79173000
10.98632813,-81.35016000
11.01684570,-77.47095000
11.04736328,-77.75310000
11.07788086,-81.97044000
11.10839844,-90.79975000
11.13891602,-91.61185000
11.16943359,-88.07220000
11.19995117,-86.40199000
11.23046875,-85.89783000
11.26098633,-86.18111000
11.29150391,-88.55667000
11.32202148,-87.10172000
11.35253906,-81.72268000
11.38305664,-79.99240000
11.41357422,-82.69719000
11.44409180,-92.05109000
11.47460938,-83.05901000
11.50512695,-81.52390000
11.53564453,-84.24710000
11.56616211,-82.17414000
11.59667969,-79.02075000
11.62719727,-75.95517000
11.65771484,-73.95428000
11.68823242,-73.62393000
11.71875000,-74.27194000
11.74926758,-75.01619000
11.77978516,-75.49362000
11.81030273,-76.26573000
11.84082031,-78.83147000
11.87133789,-83.98990000
11.90185547,-81.79289000
11.93237305,-78.88240000
11.96289063,-78.62204000
11.99340820,-80.86368000
12.02392578,-87.29051000
12.05444336,-85.79906000
12.08496094,-81.56197000
12.11547852,-82.54386000
12.14599609,-84.66972000
12.17651367,-82.20974000
12.20703125,-82.24671000
12.23754883,-86.53038000
12.26806641,-97.89680000
12.29858398,-92.95638000
12.32910156,-88.43369000
12.35961914,-87.98285000
12.39013672,-88.99398000
12.42065430,-89.84326000
12.45117188,-87.66701000
12.48168945,-84.30699000
12.51220703,-83.79487000
12.54272461,-84.50372000
12.57324219,-82.16284000
12.60375977,-78.93644000
12.63427734,-76.87238000
12.66479492,-76.17007000
12.69531250,-75.77608000
12.72583008,-75.35381000
12.75634766,-75.34380000
12.78686523,-74.51381000
12.81738281,-73.27350000
12.84790039,-73.15701000
12.87841797,-74.44325000
12.90893555,-78.02711000
12.93945313,-86.14513000
12.96997070,-78.43106000
13.00048828,-74.24270000
13.03100586,-74.07267000
13.06152344,-77.27784000
13.09204102,-85.68945000
13.12255859,-90.31766000
13.15307617,-89.33279000
13.18359375,-89.43271000
13.21411133,-84.81549000
13.24462891,-84.76007000
13.27514648,-88.82973000
13.30566406,-88.99374000
13.33618164,-84.48875000
13.36669922,-84.31415000
13.39721680,-91.52441000
13.42773438,-91.95465000
13.45825195,-91.59940000
13.48876953,-76.25001000
13.51928711,-67.71880000
13.54980469,-64.56461000
13.58032227,-65.22887000
13.61083984,-69.73914000
13.64135742,-75.03448000
13.67187500,-71.00801000
13.70239258,-69.23156000
13.73291016,-70.34175000
13.76342773,-73.76370000
13.79394531,-76.86922000
13.82446289,-75.82774000
13.85498047,-74.34684000
13.88549805,-74.51363000
13.91601563,-76.58216000
13.94653320,-81.00381000
13.97705078,-90.54308000
14.00756836,-83.37015000
14.03808594,-77.88194000
14.06860352,-75.60759000
14.09912109,-75.05623000
14.12963867,-76.10215000
14.16015625,-79.00046000
14.19067383,-82.36004000
14.22119141,-82.68414000
14.25170898,-82.97593000
14.28222656,-83.71356000
14.31274414,-84.54316000
14.34326172,-84.63223000
14.37377930,-85.15884000
14.40429688,-84.36774000
14.43481445,-81.23401000
14.46533203,-79.13014000
14.49584961,-78.13689000
14.52636719,-77.69431000
14.55688477,-78.02981000
14.58740234,-79.43871000
14.61791992,-80.20382000
14.64843750,-78.30923000
14.67895508,-75.99341000
14.70947266,-75.17593000
14.73999023,-75.91214000
14.77050781,-75.98540000
14.80102539,-74.71686000
14.83154297,-74.19335000
14.86206055,-74.65698000
14.89257813,-75.79092000
14.92309570,-77.50861000
14.95361328,-78.13950000
14.98413086,-76.89351000
15.01464844,-76.33086000
15.04516602,-77.01323000
15.07568359,-77.17209000
15.10620117,-75.24055000
15.13671875,-73.47802000
15.16723633,-73.21357000
15.19775391,-74.33302000
15.22827148,-76.36258000
15.25878906,-78.35909000
15.28930664,-78.35689000
15.31982422,-77.33662000
15.35034180,-77.11045000
15.38085938,-77.44975000
15.41137695,-78.37964000
15.44189453,-80.08572000
15.47241211,-81.59309000
15.50292969,-81.56960000
15.53344727,-81.11492000
15.56396484,-81.01540000
15.59448242,-82.83859000
15.62500000,-84.13463000
15.65551758,-79.64645000
15.68603516,-77.64569000
15.71655273,-77.84935000
15.74707031,-78.85758000
15.77758789,-79.77216000
15.80810547,-80.07449000
15.83862305,-79.73839000
15.86914063,-79.78480000
15.89965820,-80.87265000
15.93017578,-82.27931000
15.96069336,-82.97553000
15.99121094,-83.04916000
16.02172852,-82.71753000
16.05224609,-82.31372000
16.08276367,-82.68716000
16.11328125,-85.18025000
16.14379883,-90.42201000
16.17431641,-88.08623000
16.20483398,-84.57727000
16.23535156,-84.37462000
16.26586914,-85.97887000
16.29638672,-87.89116000
16.32690430,-89.04427000
16.35742188,-89.87800000
16.38793945,-93.93098000
16.41845703,-112.91240000
16.44897461,-101.71460000
16.47949219,-100.45830000
16.51000977,-96.75262000
16.54052734,-97.02843000
16.57104492,-99.84985000
16.60156250,-98.71192000
16.63208008,-101.55770000
16.66259766,-107.64540000
16.69311523,-108.63100000
16.72363281,-104.64480000
16.75415039,-95.42004000
16.78466797,-92.98650000
16.81518555,-89.42596000
16.84570313,-85.67168000
16.87622070,-85.07188000
16.90673828,-87.62070000
16.93725586,-92.59700000
16.96777344,-96.27699000
16.99829102,-93.56091000
17.02880859,-89.57436000
17.05932617,-88.32635000
17.08984375,-89.47456000
17.12036133,-90.08746000
17.15087891,-90.96526000
17.18139648,-92.96291000
17.21191406,-93.94113000
17.24243164,-95.57930000
17.27294922,-95.03104000
17.30346680,-95.39051000
17.33398438,-97.04855000
17.36450195,-97.06519000
17.39501953,-93.71628000
17.42553711,-89.46784000
17.45605469,-87.62428000
17.48657227,-88.73616000
17.51708984,-92.53242000
17.54760742,-93.29021000
17.57812500,-90.65998000
17.60864258,-90.07634000
17.63916016,-89.69884000
17.66967773,-86.51809000
17.70019531,-82.29295000
17.73071289,-78.96681000
17.76123047,-76.65850000
17.79174805,-75.72623000
17.82226563,-76.88768000
17.85278320,-81.04120000
17.88330078,-89.81081000
17.91381836,-112.90750000
17.94433594,-108.52140000
17.97485352,-106.56040000
18.00537109,-99.93278000
18.03588867,-100.53990000
18.06640625,-114.05630000
18.09692383,-96.96361000
18.12744141,-93.62199000
18.15795898,-93.94289000
18.18847656,-94.06175000
18.21899414,-92.68243000
18.24951172,-92.07318000
18.28002930,-92.89147000
18.31054688,-97.36330000
18.34106445,-106.33810000
18.37158203,-92.98608000
18.40209961,-90.70042000
18.43261719,-90.43390000
18.46313477,-91.21384000
18.49365234,-93.10434000
18.52416992,-93.51175000
18.55468750,-92.19637000
18.58520508,-92.00188000
18.61572266,-93.55412000
18.64624023,-96.15749000
18.67675781,-106.37790000
18.70727539,-97.06670000
18.73779297,-94.97361000
18.76831055,-97.17459000
18.79882813,-99.19501000
18.82934570,-100.67430000
18.85986328,-98.64825000
18.89038086,-95.83343000
18.92089844,-94.04007000
18.95141602,-92.42070000
18.98193359,-92.60547000
19.01245117,-95.42336000
19.04296875,-96.33199000
19.07348633,-94.74209000
19.10400391,-95.19910000
19.13452148,-99.15333000
19.16503906,-108.17730000
19.19555664,-116.22400000
19.22607422,-114.78750000
19.25659180,-105.37000000
19.28710938,-99.33155000
19.31762695,-96.88914000
19.34814453,-97.38125000
19.37866211,-105.07540000
19.40917969,-100.77920000
19.43969727,-92.75641000
19.47021484,-91.00706000
19.50073242,-93.09633000
19.53125000,-95.72137000
19.56176758,-93.30456000
19.59228516,-92.95305000
19.62280273,-97.72987000
19.65332031,-104.16660000
19.68383789,-96.36428000
19.71435547,-94.64441000
19.74487305,-95.15521000
19.77539063,-95.45250000
19.80590820,-96.54339000
19.83642578,-96.29079000
19.86694336,-94.46906000
19.89746094,-93.55240000
19.92797852,-92.86751000
19.95849609,-92.27602000
19.98901367,-93.24768000
20.01953125,-93.80298000
20.05004883,-91.73212000
20.08056641,-89.63969000
20.11108398,-89.32813000
20.14160156,-90.20596000
20.17211914,-91.43121000
20.20263672,-94.26312000
20.23315430,-97.56978000
20.26367188,-94.88941000
20.29418945,-96.49876000
20.32470703,-114.30300000
20.35522461,-94.34299000
20.38574219,-91.09643000
20.41625977,-89.22812000
20.44677734,-88.36578000
20.47729492,-89.50275000
20.50781250,-91.56802000
20.53833008,-93.93184000
20.56884766,-97.56019000
20.59936523,-102.13790000
20.62988281,-107.34290000
20.66040039,-103.30860000
20.69091797,-95.60474000
20.72143555,-93.12607000
20.75195313,-90.82292000
20.78247070,-89.81006000
20.81298828,-90.30826000
20.84350586,-92.18115000
20.87402344,-95.97769000
20.90454102,-100.69780000
20.93505859,-102.26330000
20.96557617,-97.84028000
20.99609375,-98.54617000
21.02661133,-105.72350000
21.05712891,-108.83240000
21.08764648,-99.09570000
21.11816406,-95.22056000
21.14868164,-95.81894000
21.17919922,-100.92480000
21.20971680,-113.03230000
21.24023438,-101.02940000
21.27075195,-93.51457000
21.30126953,-90.96864000
21.33178711,-89.44229000
21.36230469,-88.78532000
21.39282227,-91.51935000
21.42333984,-97.96398000
21.45385742,-102.30430000
21.48437500,-112.65450000
21.51489258,-108.38870000
21.54541016,-107.75250000
21.57592773,-96.64169000
21.60644531,-95.80858000
21.63696289,-100.69400000
21.66748047,-96.16785000
21.69799805,-91.13455000
21.72851563,-88.24690000
21.75903320,-88.07967000
21.78955078,-92.86993000
21.82006836,-99.91265000
21.85058594,-94.14679000
21.88110352,-96.67995000
21.91162109,-108.91230000
21.94213867,-108.47810000
21.97265625,-109.78330000
22.00317383,-109.47390000
22.03369141,-108.37620000
22.06420898,-99.27095000
22.09472656,-92.52007000
22.12524414,-90.08315000
22.15576172,-90.61341000
22.18627930,-93.61343000
22.21679688,-97.85197000
22.24731445,-100.38220000
22.27783203,-102.21950000
22.30834961,-98.42654000
22.33886719,-93.39110000
22.36938477,-89.89119000
22.39990234,-89.18544000
22.43041992,-92.93967000
22.46093750,-102.55870000
22.49145508,-105.74060000
22.52197266,-99.45587000
22.55249023,-96.66473000
22.58300781,-94.74832000
22.61352539,-92.03239000
22.64404297,-90.98705000
22.67456055,-93.89536000
22.70507813,-105.09200000
22.73559570,-108.02820000
22.76611328,-100.56410000
22.79663086,-97.88164000
22.82714844,-102.27650000
22.85766602,-109.69380000
22.88818359,-101.86650000
22.91870117,-101.23880000
22.94921875,-100.36230000
22.97973633,-95.45162000
23.01025391,-91.64455000
23.04077148,-91.13982000
23.07128906,-93.75207000
23.10180664,-97.76196000
23.13232422,-99.02558000
23.16284180,-101.19170000
23.19335938,-102.13710000
23.22387695,-98.50070000
23.25439453,-96.40491000
23.28491211,-94.95696000
23.31542969,-91.72668000
23.34594727,-89.49210000
23.37646484,-89.40773000
23.40698242,-90.67738000
23.43750000,-93.32958000
23.46801758,-99.54512000
23.49853516,-106.61060000
23.52905273,-105.94710000
23.55957031,-118.65810000
23.59008789,-110.45010000
23.62060547,-111.42740000
23.65112305,-101.72340000
23.68164063,-97.97679000
23.71215820,-100.53220000
23.74267578,-105.99770000
23.77319336,-99.75993000
23.80371094,-96.88902000
23.83422852,-94.96674000
23.86474609,-94.06857000
23.89526367,-94.61063000
23.92578125,-96.85619000
23.95629883,-96.56872000
23.98681641,-94.40113000
24.01733398,-97.23335000
24.04785156,-109.32430000
24.07836914,-111.33520000
24.10888672,-115.96680000
24.13940430,-102.64070000
24.16992188,-94.41543000
24.20043945,-92.57495000
24.23095703,-96.12206000
24.26147461,-107.04550000
24.29199219,-107.55490000
24.32250977,-105.18790000
24.35302734,-102.31330000
24.38354492,-100.08920000
24.41406250,-99.48448000
24.44458008,-101.69370000
24.47509766,-97.56733000
24.50561523,-93.19332000
24.53613281,-93.88507000
24.56665039,-99.60709000
24.59716797,-97.35168000
24.62768555,-94.25248000
24.65820313,-94.70108000
24.68872070,-96.10847000
24.71923828,-96.56871000
24.74975586,-97.91637000
24.78027344,-97.73464000
24.81079102,-95.54102000
24.84130859,-97.30683000
24.87182617,-108.74910000
24.90234375,-100.33510000
24.93286133,-95.47675000
24.96337891,-93.45613000
24.99389648,-94.22482000
25.02441406,-99.97369000
25.05493164,-104.88820000
25.08544922,-106.89830000
25.11596680,-97.46774000
25.14648438,-93.73383000
25.17700195,-94.76343000
25.20751953,-103.10550000
25.23803711,-101.74700000
25.26855469,-94.10977000
25.29907227,-91.88950000
25.32958984,-92.35196000
25.36010742,-98.03223000
25.39062500,-106.53360000
25.42114258,-96.40396000
25.45166016,-96.15005000
25.48217773,-100.57930000
25.51269531,-106.93820000
25.54321289,-94.80495000
25.57373047,-92.98173000
25.60424805,-94.85184000
25.63476563,-96.38947000
25.66528320,-97.05547000
25.69580078,-95.48192000
25.72631836,-91.01735000
25.75683594,-89.39789000
25.78735352,-90.35052000
25.81787109,-93.74348000
25.84838867,-96.79790000
25.87890625,-94.85417000
25.90942383,-93.39913000
25.93994141,-93.65029000
25.97045898,-95.26938000
26.00097656,-96.46951000
26.03149414,-94.54381000
26.06201172,-92.47945000
26.09252930,-93.38708000
26.12304688,-98.73917000
26.15356445,-110.21350000
26.18408203,-101.21630000
26.21459961,-96.30066000
26.24511719,-94.52679000
26.27563477,-94.74605000
26.30615234,-98.79040000
26.33666992,-111.44240000
26.36718750,-102.65010000
26.39770508,-106.91800000
26.42822266,-100.54440000
26.45874023,-101.23410000
26.48925781,-103.16880000
26.51977539,-98.46239000
26.55029297,-96.12372000
26.58081055,-96.13540000
26.61132813,-97.86633000
26.64184570,-99.08122000
26.67236328,-100.92270000
26.70288086,-109.99730000
26.73339844,-102.45640000
26.76391602,-95.50507000
26.79443359,-92.60296000
26.82495117,-92.68747000
26.85546875,-95.18894000
26.88598633,-95.86607000
26.91650391,-92.42351000
26.94702148,-90.26619000
26.97753906,-90.30788000
27.00805664,-91.14755000
27.03857422,-91.46908000
27.06909180,-92.12826000
27.09960938,-93.80955000
27.13012695,-96.69098000
27.16064453,-100.06640000
27.19116211,-96.43816000
27.22167969,-93.66225000
27.25219727,-94.01790000
27.28271484,-96.39523000
27.31323242,-98.18207000
27.34375000,-97.76478000
27.37426758,-96.93568000
27.40478516,-97.54285000
27.43530273,-99.84586000
27.46582031,-103.28290000
27.49633789,-107.47860000
27.52685547,-116.38570000
27.55737305,-113.15770000
27.58789063,-104.74390000
27.61840820,-100.13980000
27.64892578,-97.28695000
27.67944336,-96.96779000
27.70996094,-99.91533000
27.74047852,-100.19880000
27.77099609,-92.35254000
27.80151367,-88.91079000
27.83203125,-88.44847000
27.86254883,-89.57921000
27.89306641,-90.67654000
27.92358398,-91.67856000
27.95410156,-93.10612000
27.98461914,-92.32509000
28.01513672,-90.52040000
28.04565430,-90.20633000
28.07617188,-91.53938000
28.10668945,-93.42846000
28.13720703,-94.47920000
28.16772461,-95.73246000
28.19824219,-94.69206000
28.22875977,-90.67877000
28.25927734,-88.16901000
28.28979492,-88.02339000
28.32031250,-90.32863000
28.35083008,-95.58685000
28.38134766,-103.81300000
28.41186523,-100.32600000
28.44238281,-97.34859000
28.47290039,-96.67979000
28.50341797,-96.88377000
28.53393555,-96.67871000
28.56445313,-96.48132000
28.59497070,-97.90572000
28.62548828,-99.14516000
28.65600586,-97.96635000
28.68652344,-98.82485000
28.71704102,-98.54867000
28.74755859,-95.16539000
28.77807617,-93.96706000
28.80859375,-95.20554000
28.83911133,-96.33595000
28.86962891,-94.77374000
28.90014648,-94.74416000
28.93066406,-96.54100000
28.96118164,-98.51569000
28.99169922,-102.26640000
29.02221680,-100.16640000
29.05273438,-94.15408000
29.08325195,-92.55703000
29.11376953,-94.25103000
29.14428711,-94.06651000
29.17480469,-91.98523000
29.20532227,-92.21047000
29.23583984,-94.17629000
29.26635742,-94.97626000
29.29687500,-93.30299000
29.32739258,-92.22007000
29.35791016,-92.74171000
29.38842773,-94.95203000
29.41894531,-98.12417000
29.44946289,-98.08414000
29.47998047,-94.77637000
29.51049805,-92.36310000
29.54101563,-91.39449000
29.57153320,-90.83504000
29.60205078,-90.48030000
29.63256836,-91.24325000
29.66308594,-92.76469000
29.69360352,-93.87955000
29.72412109,-94.92508000
29.75463867,-96.68397000
29.78515625,-99.30095000
29.81567383,-102.15190000
29.84619141,-103.96180000
29.87670898,-103.05910000
29.90722656,-101.02750000
29.93774414,-101.49920000
29.96826172,-107.37330000
29.99877930,-107.75150000
30.02929688,-101.23180000
30.05981445,-96.81694000
30.09033203,-92.58560000
30.12084961,-89.97528000
30.15136719,-89.40164000
30.18188477,-91.12339000
30.21240234,-95.62286000
30.24291992,-101.84410000
30.27343750,-100.67170000
30.30395508,-95.90034000
30.33447266,-92.17621000
30.36499023,-90.89777000
30.39550781,-92.30612000
30.42602539,-97.48108000
30.45654297,-121.19200000
30.48706055,-96.90848000
30.51757813,-93.06759000
30.54809570,-93.63597000
30.57861328,-97.16850000
30.60913086,-99.87445000
30.63964844,-97.35173000
30.67016602,-92.39964000
30.70068359,-89.83220000
30.73120117,-89.23895000
30.76171875,-89.68373000
30.79223633,-90.66518000
30.82275391,-92.06612000
30.85327148,-94.18141000
30.88378906,-98.29341000
30.91430664,-103.62970000
30.94482422,-98.29408000
30.97534180,-95.74667000
31.00585938,-96.74697000
31.03637695,-100.42510000
31.06689453,-102.45800000
31.09741211,-98.71779000
31.12792969,-94.05418000
31.15844727,-90.71112000
31.18896484,-89.00186000
31.21948242,-89.18151000
31.25000000,-92.06410000
31.28051758,-101.46250000
31.31103516,-102.41190000
31.34155273,-95.63954000
31.37207031,-94.14511000
31.40258789,-92.20730000
31.43310547,-90.42259000
31.46362305,-90.83229000
31.49414063,-94.15134000
31.52465820,-101.41770000
31.55517578,-99.20856000
31.58569336,-94.86493000
31.61621094,-95.20798000
31.64672852,-98.24329000
31.67724609,-97.87262000
31.70776367,-92.21535000
31.73828125,-89.44305000
31.76879883,-89.82564000
31.79931641,-92.29137000
31.82983398,-94.92906000
31.86035156,-96.14083000
31.89086914,-96.97198000
31.92138672,-95.62580000
31.95190430,-94.29724000
31.98242188,-96.14266000
32.01293945,-100.88710000
32.04345703,-94.91553000
32.07397461,-91.24496000
32.10449219,-90.62257000
32.13500977,-91.94820000
32.16552734,-94.25564000
32.19604492,-95.78674000
32.22656250,-95.51876000
32.25708008,-94.80946000
32.28759766,-95.74525000
32.31811523,-102.29430000
32.34863281,-97.65187000
32.37915039,-89.69020000
32.40966797,-86.88629000
32.44018555,-86.91582000
32.47070313,-89.05189000
32.50122070,-92.80063000
32.53173828,-97.00519000
32.56225586,-100.22150000
32.59277344,-102.84120000
32.62329102,-98.91780000
32.65380859,-93.93647000
32.68432617,-92.26501000
32.71484375,-94.11551000
32.74536133,-99.32777000
32.77587891,-105.00540000
32.80639648,-115.06650000
32.83691406,-109.85740000
32.86743164,-102.74320000
32.89794922,-99.72055000
32.92846680,-99.09605000
32.95898438,-97.66846000
32.98950195,-97.60186000
33.02001953,-96.97498000
33.05053711,-95.68877000
33.08105469,-96.57482000
33.11157227,-97.40341000
33.14208984,-96.82179000
33.17260742,-96.46069000
33.20312500,-96.21980000
33.23364258,-94.85904000
33.26416016,-93.14429000
33.29467773,-93.46737000
33.32519531,-96.55125000
33.35571289,-98.75091000
33.38623047,-95.70351000
33.41674805,-91.77181000
33.44726563,-88.83337000
33.47778320,-87.63734000
33.50830078,-88.08336000
33.53881836,-89.97649000
33.56933594,-93.60454000
33.59985352,-99.70483000
33.63037109,-110.69520000
33.66088867,-102.38110000
33.69140625,-96.25375000
33.72192383,-93.34286000
33.75244141,-91.49212000
33.78295898,-90.21107000
33.81347656,-89.96761000
33.84399414,-91.28025000
33.87451172,-94.20325000
33.90502930,-96.96945000
33.93554688,-95.40099000
33.96606445,-92.13378000
33.99658203,-90.30283000
34.02709961,-90.10892000
34.05761719,-90.70584000
34.08813477,-90.84714000
34.11865234,-90.17676000
34.14916992,-89.72862000
34.17968750,-90.50732000
34.21020508,-92.60672000
34.24072266,-95.14212000
34.27124023,-97.47173000
34.30175781,-97.03149000
34.33227539,-93.81001000
34.36279297,-91.57833000
34.39331055,-90.67053000
34.42382813,-90.99706000
34.45434570,-92.83865000
34.48486328,-95.05676000
34.51538086,-94.18111000
34.54589844,-92.08195000
34.57641602,-90.63950000
34.60693359,-90.02222000
34.63745117,-89.41541000
34.66796875,-88.37879000
34.69848633,-87.49631000
34.72900391,-86.97873000
34.75952148,-86.88052000
34.79003906,-87.62656000
34.82055664,-89.79379000
34.85107422,-93.43222000
34.88159180,-96.12916000
34.91210938,-95.58544000
34.94262695,-94.73282000
34.97314453,-95.32738000
35.00366211,-95.64880000
35.03417969,-93.71922000
35.06469727,-92.85416000
35.09521484,-92.99486000
35.12573242,-91.99683000
35.15625000,-89.68710000
35.18676758,-87.47956000
35.21728516,-86.15944000
35.24780273,-85.85300000
35.27832031,-86.53713000
35.30883789,-88.00254000
35.33935547,-89.20707000
35.36987305,-89.39835000
35.40039063,-89.92232000
35.43090820,-91.48607000
35.46142578,-93.26579000
35.49194336,-94.16912000
35.52246094,-94.49742000
35.55297852,-94.78206000
35.58349609,-94.87858000
35.61401367,-95.64059000
35.64453125,-97.92197000
35.67504883,-100.73480000
35.70556641,-101.81340000
35.73608398,-98.44754000
35.76660156,-94.29702000
35.79711914,-91.70396000
35.82763672,-90.65123000
35.85815430,-90.50352000
35.88867188,-90.29031000
35.91918945,-89.86150000
35.94970703,-89.80994000
35.98022461,-90.10758000
36.01074219,-90.03823000
36.04125977,-89.41512000
36.07177734,-89.20201000
36.10229492,-90.35938000
36.13281250,-92.85544000
36.16333008,-94.10884000
36.19384766,-92.56834000
36.22436523,-91.37208000
36.25488281,-91.99133000
36.28540039,-95.06397000
36.31591797,-100.72980000
36.34643555,-107.83810000
36.37695313,-104.53810000
36.40747070,-98.25317000
36.43798828,-95.39206000
36.46850586,-95.22581000
36.49902344,-98.56160000
36.52954102,-105.50350000
36.56005859,-99.46960000
36.59057617,-97.62402000
36.62109375,-98.84073000
36.65161133,-97.40131000
36.68212891,-95.66788000
36.71264648,-96.10991000
36.74316406,-99.60556000
36.77368164,-106.20560000
36.80419922,-103.95650000
36.83471680,-106.09990000
36.86523438,-118.46600000
36.89575195,-126.61950000
36.92626953,-105.32760000
36.95678711,-99.40685000
36.98730469,-97.57389000
37.01782227,-95.98924000
37.04833984,-94.66478000
37.07885742,-93.98285000
37.10937500,-92.98111000
37.13989258,-91.46887000
37.17041016,-90.84602000
37.20092773,-91.94344000
37.23144531,-94.53973000
37.26196289,-96.90707000
37.29248047,-98.24683000
37.32299805,-98.78767000
37.35351563,-98.03444000
37.38403320,-98.65197000
37.41455078,-99.38942000
37.44506836,-98.01391000
37.47558594,-97.68842000
37.50610352,-98.92863000
37.53662109,-101.26860000
37.56713867,-105.54220000
37.59765625,-118.94130000
37.62817383,-110.98960000
37.65869141,-107.06890000
37.68920898,-105.78770000
37.71972656,-100.34850000
37.75024414,-96.56292000
37.78076172,-95.24689000
37.81127930,-94.90417000
37.84179688,-93.29078000
37.87231445,-90.95908000
37.90283203,-90.12463000
37.93334961,-92.06566000
37.96386719,-97.40138000
37.99438477,-104.10900000
38.02490234,-112.60420000
38.05541992,-105.06670000
38.08593750,-98.11728000
38.11645508,-95.32108000
38.14697266,-93.90601000
38.17749023,-92.87762000
38.20800781,-92.10789000
38.23852539,-92.55100000
38.26904297,-96.51360000
38.29956055,-107.78270000
38.33007813,-96.77428000
38.36059570,-93.93115000
38.39111328,-93.85466000
38.42163086,-93.81313000
38.45214844,-93.17058000
38.48266602,-93.34138000
38.51318359,-95.70545000
38.54370117,-99.12957000
38.57421875,-97.80540000
38.60473633,-96.33002000
38.63525391,-97.37608000
38.66577148,-100.00340000
38.69628906,-98.98433000
38.72680664,-94.44583000
38.75732422,-90.32510000
38.78784180,-88.00204000
38.81835938,-87.95674000
38.84887695,-90.66306000
38.87939453,-98.60168000
38.90991211,-100.69360000
38.94042969,-94.02927000
38.97094727,-93.69323000
39.00146484,-94.02521000
39.03198242,-91.71400000
39.06250000,-90.52528000
39.09301758,-91.84360000
39.12353516,-94.47491000
39.15405273,-94.98116000
39.18457031,-93.70200000
39.21508789,-93.07682000
39.24560547,-94.26663000
39.27612305,-98.25137000
39.30664063,-100.70790000
39.33715820,-98.71430000
39.36767578,-96.20699000
39.39819336,-93.86510000
39.42871094,-93.12848000
39.45922852,-93.82988000
39.48974609,-95.13187000
39.52026367,-95.23265000
39.55078125,-94.46292000
39.58129883,-94.53265000
39.61181641,-95.46481000
39.64233398,-97.40605000
39.67285156,-103.89270000
39.70336914,-103.33710000
39.73388672,-93.48988000
39.76440430,-89.89769000
39.79492188,-88.34923000
39.82543945,-87.09762000
39.85595703,-85.58743000
39.88647461,-84.48578000
39.91699219,-84.72630000
39.94750977,-86.90048000
39.97802734,-90.65965000
40.00854492,-93.51810000
40.03906250,-95.08102000
40.06958008,-95.31696000
40.10009766,-94.05846000
40.13061523,-94.54718000
40.16113281,-95.57651000
40.19165039,-93.61431000
40.22216797,-93.20743000
40.25268555,-95.55671000
40.28320313,-98.90420000
40.31372070,-96.34015000
40.34423828,-92.33128000
40.37475586,-90.71611000
40.40527344,-90.45706000
40.43579102,-90.35703000
40.46630859,-90.63831000
40.49682617,-91.66371000
40.52734375,-92.77470000
40.55786133,-93.25636000
40.58837891,-94.19097000
40.61889648,-96.83692000
40.64941406,-99.75470000
40.67993164,-99.12576000
40.71044922,-97.10957000
40.74096680,-99.15737000
40.77148438,-110.46600000
40.80200195,-96.62068000
40.83251953,-93.02293000
40.86303711,-92.29409000
40.89355469,-91.19321000
40.92407227,-89.30705000
40.95458984,-87.98679000
40.98510742,-87.65935000
41.01562500,-88.75372000
41.04614258,-92.12570000
41.07666016,-97.99123000
41.10717773,-97.07763000
41.13769531,-93.04939000
41.16821289,-91.95108000
41.19873047,-94.04946000
41.22924805,-94.40489000
41.25976563,-90.74922000
41.29028320,-88.93990000
41.32080078,-88.96817000
41.35131836,-89.76816000
41.38183594,-91.08651000
41.41235352,-94.25866000
41.44287109,-101.13140000
41.47338867,-98.40969000
41.50390625,-92.92680000
41.53442383,-91.31662000
41.56494141,-92.42851000
41.59545898,-94.68008000
41.62597656,-96.75020000
41.65649414,-98.49185000
41.68701172,-97.00012000
41.71752930,-95.81783000
41.74804688,-93.64753000
41.77856445,-90.54203000
41.80908203,-88.94118000
41.83959961,-89.22731000
41.87011719,-90.51800000
41.90063477,-89.47310000
41.93115234,-87.44838000
41.96166992,-86.78925000
41.99218750,-87.04214000
42.02270508,-87.45770000
42.05322266,-87.68523000
42.08374023,-87.81335000
42.11425781,-89.07899000
42.14477539,-93.08092000
42.17529297,-97.80444000
42.20581055,-104.40960000
42.23632813,-98.97094000
42.26684570,-90.95583000
42.29736328,-89.79050000
42.32788086,-90.41386000
42.35839844,-88.53506000
42.38891602,-87.28492000
42.41943359,-88.11570000
42.44995117,-90.61047000
42.48046875,-94.95235000
42.51098633,-100.73750000
42.54150391,-97.27103000
42.57202148,-95.33626000
42.60253906,-96.26621000
42.63305664,-97.10846000
42.66357422,-96.12678000
42.69409180,-92.99346000
42.72460938,-89.94255000
42.75512695,-89.25859000
42.78564453,-92.54733000
42.81616211,-101.86350000
42.84667969,-91.09211000
42.87719727,-87.52525000
42.90771484,-87.61573000
42.93823242,-88.91554000
42.96875000,-88.86568000
42.99926758,-87.80902000
43.02978516,-87.88857000
43.06030273,-88.29288000
43.09082031,-87.44656000
43.12133789,-88.01923000
43.15185547,-90.97327000
43.18237305,-94.81574000
43.21289063,-96.80452000
43.24340820,-97.44627000
43.27392578,-99.33684000
43.30444336,-102.38540000
43.33496094,-109.23380000
43.36547852,-107.18980000
43.39599609,-101.29070000
43.42651367,-97.47549000
43.45703125,-95.11994000
43.48754883,-94.18634000
43.51806641,-92.52528000
43.54858398,-90.77715000
43.57910156,-90.15517000
43.60961914,-90.24690000
43.64013672,-90.43179000
43.67065430,-91.85291000
43.70117188,-96.71310000
43.73168945,-116.73610000
43.76220703,-99.61829000
43.79272461,-96.60068000
43.82324219,-98.12469000
43.85375977,-101.24070000
43.88427734,-103.36060000
43.91479492,-102.15780000
43.94531250,-99.49332000
43.97583008,-100.88700000
44.00634766,-104.44040000
44.03686523,-103.45920000
44.06738281,-103.04470000
44.09790039,-99.52617000
44.12841797,-97.02460000
44.15893555,-97.05898000
44.18945313,-99.36980000
44.21997070,-104.43540000
44.25048828,-110.64400000
44.28100586,-105.62930000
44.31152344,-100.74440000
44.34204102,-101.82030000
44.37255859,-106.67030000
44.40307617,-102.55310000
44.43359375,-101.65850000
44.46411133,-99.82706000
44.49462891,-97.85591000
44.52514648,-98.06485000
44.55566406,-101.65660000
44.58618164,-116.64150000
44.61669922,-104.86930000
44.64721680,-101.74300000
44.67773438,-102.66840000
44.70825195,-107.13820000
44.73876953,-115.00970000
44.76928711,-101.23780000
44.79980469,-95.72881000
44.83032227,-92.99811000
44.86083984,-92.12093000
44.89135742,-92.61832000
44.92187500,-93.79002000
44.95239258,-94.68430000
44.98291016,-94.38437000
45.01342773,-93.43050000
45.04394531,-93.04551000
45.07446289,-93.43479000
45.10498047,-94.72070000
45.13549805,-97.19743000
45.16601563,-99.65277000
45.19653320,-99.97600000
45.22705078,-99.67507000
45.25756836,-101.32000000
45.28808594,-102.19510000
45.31860352,-99.07890000
45.34912109,-97.01218000
45.37963867,-95.21239000
45.41015625,-93.09917000
45.44067383,-91.45066000
45.47119141,-91.05056000
45.50170898,-92.46982000
45.53222656,-95.73105000
45.56274414,-99.49826000
45.59326172,-101.28380000
45.62377930,-99.93889000
45.65429688,-97.31872000
45.68481445,-95.25685000
45.71533203,-95.24371000
45.74584961,-96.93553000
45.77636719,-95.01082000
45.80688477,-93.44456000
45.83740234,-95.70396000
45.86791992,-98.92673000
45.89843750,-97.98644000
45.92895508,-98.23126000
45.95947266,-100.54100000
45.98999023,-107.58180000
46.02050781,-111.03750000
46.05102539,-101.39050000
46.08154297,-99.15939000
46.11206055,-101.15670000
46.14257813,-110.76600000
46.17309570,-99.14333000
46.20361328,-93.98426000
46.23413086,-92.67852000
46.26464844,-94.08655000
46.29516602,-96.90140000
46.32568359,-96.44084000
46.35620117,-94.67447000
46.38671875,-96.54333000
46.41723633,-114.58740000
46.44775391,-96.27128000
46.47827148,-91.89386000
46.50878906,-92.57328000
46.53930664,-97.47112000
46.56982422,-106.82870000
46.60034180,-104.55590000
46.63085938,-99.89201000
46.66137695,-97.22632000
46.69189453,-96.27594000
46.72241211,-95.72556000
46.75292969,-95.23737000
46.78344727,-94.93226000
46.81396484,-93.88145000
46.84448242,-91.84740000
46.87500000,-90.67832000
46.90551758,-91.88000000
46.93603516,-96.73039000
46.96655273,-107.41270000
46.99707031,-112.37620000
47.02758789,-108.62880000
47.05810547,-99.39002000
47.08862305,-96.16747000
47.11914063,-95.36145000
47.14965820,-95.80093000
47.18017578,-97.82741000
47.21069336,-101.34550000
47.24121094,-102.03020000
47.27172852,-100.50400000
47.30224609,-103.54870000
47.33276367,-108.13620000
47.36328125,-94.90180000
47.39379883,-91.08408000
47.42431641,-90.72068000
47.45483398,-92.93415000
47.48535156,-97.44346000
47.51586914,-101.05740000
47.54638672,-100.19690000
47.57690430,-98.95326000
47.60742188,-97.78480000
47.63793945,-95.28424000
47.66845703,-92.55087000
47.69897461,-90.52140000
47.72949219,-89.87877000
47.76000977,-90.51163000
47.79052734,-91.50273000
47.82104492,-92.90257000
47.85156250,-93.29170000
47.88208008,-92.07107000
47.91259766,-92.77490000
47.94311523,-97.47511000
47.97363281,-108.45390000
48.00415039,-100.18790000
48.03466797,-99.25556000
48.06518555,-106.90860000
48.09570313,-105.75020000
48.12622070,-98.29736000
48.15673828,-95.81316000
48.18725586,-94.63177000
48.21777344,-94.62624000
48.24829102,-95.46170000
48.27880859,-97.01689000
48.30932617,-100.16410000
48.33984375,-101.63860000
48.37036133,-97.58972000
48.40087891,-93.96073000
48.43139648,-90.77457000
48.46191406,-88.76377000
48.49243164,-88.81387000
48.52294922,-91.42193000
48.55346680,-97.33899000
48.58398438,-108.46400000
48.61450195,-105.92430000
48.64501953,-100.35600000
48.67553711,-96.40347000
48.70605469,-93.69978000
48.73657227,-91.71384000
48.76708984,-90.27927000
48.79760742,-90.93464000
48.82812500,-96.12435000
48.85864258,-106.53960000
48.88916016,-102.01280000
48.91967773,-103.70940000
48.95019531,-94.76958000
48.98071289,-92.71107000
49.01123047,-95.23063000
49.04174805,-97.48536000
49.07226563,-95.07244000
49.10278320,-94.26109000
49.13330078,-96.12380000
49.16381836,-101.30230000
49.19433594,-99.07123000
49.22485352,-94.80309000
49.25537109,-94.24305000
49.28588867,-96.32764000
49.31640625,-98.31779000
49.34692383,-96.32690000
49.37744141,-94.88594000
49.40795898,-94.70020000
49.43847656,-93.14582000
49.46899414,-90.33479000
49.49951172,-88.06937000
49.53002930,-87.23212000
49.56054688,-88.37615000
49.59106445,-91.95547000
49.62158203,-97.41794000
49.65209961,-97.20366000
49.68261719,-95.87605000
49.71313477,-98.14671000
49.74365234,-100.34920000
49.77416992,-96.08412000
49.80468750,-92.74907000
49.83520508,-90.61222000
49.86572266,-89.76945000
49.89624023,-91.24181000
49.92675781,-96.17355000
49.95727539,-100.18970000
49.98779297,-98.15778000
50.01831055,-100.42360000
