Frequency,Channel A
(MHz),(dBu)

0.00000000,-27.47263000
0.03051758,-27.71915000
0.06103516,-32.49602000
0.09155273,-41.40107000
0.12207031,-57.81676000
0.15258789,-61.80180000
0.18310547,-62.03969000
0.21362305,-63.46815000
0.24414063,-64.71725000
0.27465820,-66.33304000
0.30517578,-69.93741000
0.33569336,-78.75915000
0.36621094,-77.87852000
0.39672852,-72.76462000
0.42724609,-65.29369000
0.45776367,-60.36634000
0.48828125,-59.31101000
0.51879883,-62.15889000
0.54931641,-70.47244000
0.57983398,-67.36648000
0.61035156,-64.13535000
0.64086914,-65.07684000
0.67138672,-67.12413000
0.70190430,-66.98508000
0.73242188,-65.28304000
0.76293945,-64.66280000
0.79345703,-66.02384000
0.82397461,-69.67826000
0.85449219,-78.41364000
0.88500977,-75.66566000
0.91552734,-70.61476000
0.94604492,-65.15225000
0.97656250,-60.37479000
1.00708008,-58.55152000
1.03759766,-59.77499000
1.06811523,-64.56739000
1.09863281,-74.79867000
1.12915039,-84.47116000
1.15966797,-82.91793000
1.19018555,-74.38937000
1.22070313,-72.00108000
1.25122070,-75.40415000
1.28173828,-77.55453000
1.31225586,-72.38033000
1.34277344,-70.18162000
1.37329102,-69.62922000
1.40380859,-72.17184000
1.43432617,-84.66275000
1.46484375,-76.73465000
1.49536133,-70.65517000
1.52587891,-65.66868000
1.55639648,-62.69202000
1.58691406,-63.07426000
1.61743164,-67.35693000
1.64794922,-71.84331000
1.67846680,-68.28429000
1.70898438,-67.70683000
1.73950195,-70.07471000
1.77001953,-71.74119000
1.80053711,-72.12606000
1.83105469,-76.00415000
1.86157227,-80.41581000
1.89208984,-75.30469000
1.92260742,-75.47066000
1.95312500,-81.39931000
1.98364258,-75.76671000
2.01416016,-71.45572000
2.04467773,-71.30242000
2.07519531,-70.48087000
2.10571289,-67.54475000
2.13623047,-67.54472000
2.16674805,-71.77783000
2.19726563,-80.29790000
2.22778320,-77.61372000
2.25830078,-76.03018000
2.28881836,-76.27460000
2.31933594,-78.14513000
2.34985352,-85.07266000
2.38037109,-75.96965000
2.41088867,-72.40298000
2.44140625,-73.88728000
2.47192383,-79.69672000
2.50244141,-90.45712000
2.53295898,-86.09855000
2.56347656,-85.56573000
2.59399414,-78.85107000
2.62451172,-76.15567000
2.65502930,-82.45076000
2.68554688,-79.32119000
2.71606445,-74.48659000
2.74658203,-77.41703000
2.77709961,-81.36364000
2.80761719,-76.04778000
2.83813477,-74.43500000
2.86865234,-77.38264000
2.89916992,-79.83582000
2.92968750,-74.60929000
2.96020508,-73.02544000
2.99072266,-73.24709000
3.02124023,-74.27269000
3.05175781,-81.66922000
3.08227539,-80.19693000
3.11279297,-76.51007000
3.14331055,-78.30407000
3.17382813,-72.06264000
3.20434570,-71.71403000
3.23486328,-72.80283000
3.26538086,-70.85412000
3.29589844,-72.37016000
3.32641602,-77.59634000
3.35693359,-73.82462000
3.38745117,-71.17004000
3.41796875,-73.53862000
3.44848633,-78.15295000
3.47900391,-76.31740000
3.50952148,-76.08040000
3.54003906,-72.45689000
3.57055664,-69.85892000
3.60107422,-71.89317000
3.63159180,-77.91415000
3.66210938,-74.69689000
3.69262695,-76.83027000
3.72314453,-73.41261000
3.75366211,-68.96855000
3.78417969,-70.07482000
3.81469727,-74.42646000
3.84521484,-75.34318000
3.87573242,-79.16894000
3.90625000,-83.94905000
3.93676758,-75.56709000
3.96728516,-73.84216000
3.99780273,-75.09479000
4.02832031,-75.12555000
4.05883789,-74.15968000
4.08935547,-75.54642000
4.11987305,-77.49620000
4.15039063,-75.28921000
4.18090820,-76.92245000
4.21142578,-85.94643000
4.24194336,-86.39229000
4.27246094,-77.19271000
4.30297852,-72.37126000
4.33349609,-72.62862000
4.36401367,-76.86505000
4.39453125,-83.86066000
4.42504883,-80.52612000
4.45556641,-78.07201000
4.48608398,-78.94785000
4.51660156,-75.61519000
4.54711914,-73.89197000
4.57763672,-75.93700000
4.60815430,-79.33292000
4.63867188,-78.92336000
4.66918945,-79.35382000
4.69970703,-78.88391000
4.73022461,-76.23752000
4.76074219,-74.88897000
4.79125977,-75.87395000
4.82177734,-79.05302000
4.85229492,-82.54948000
4.88281250,-81.10907000
4.91333008,-77.69011000
4.94384766,-74.62155000
4.97436523,-73.50168000
5.00488281,-75.28164000
5.03540039,-78.24268000
5.06591797,-78.61286000
5.09643555,-77.67736000
5.12695313,-77.19739000
5.15747070,-78.99104000
5.18798828,-80.48946000
5.21850586,-80.91343000
5.24902344,-79.43473000
5.27954102,-77.23638000
5.31005859,-77.03156000
5.34057617,-76.60388000
5.37109375,-76.79083000
5.40161133,-76.81319000
5.43212891,-74.75159000
5.46264648,-73.74143000
5.49316406,-75.61559000
5.52368164,-79.82539000
5.55419922,-79.82802000
5.58471680,-77.70908000
5.61523438,-76.96641000
5.64575195,-76.57233000
5.67626953,-75.54679000
5.70678711,-75.65147000
5.73730469,-76.12575000
5.76782227,-77.98421000
5.79833984,-81.34747000
5.82885742,-78.35529000
5.85937500,-73.84280000
5.88989258,-72.34535000
5.92041016,-73.12286000
5.95092773,-71.93842000
5.98144531,-71.50622000
6.01196289,-74.60799000
6.04248047,-83.02573000
6.07299805,-96.34335000
6.10351563,-82.87144000
6.13403320,-77.71976000
6.16455078,-74.76769000
6.19506836,-73.19864000
6.22558594,-72.45116000
6.25610352,-73.25385000
6.28662109,-75.71397000
6.31713867,-79.09801000
6.34765625,-80.75500000
6.37817383,-77.99805000
6.40869141,-73.92457000
6.43920898,-71.69934000
6.46972656,-71.36077000
6.50024414,-71.80912000
6.53076172,-73.00325000
6.56127930,-75.87330000
6.59179688,-80.09805000
6.62231445,-81.73440000
6.65283203,-78.75451000
6.68334961,-75.57253000
6.71386719,-73.22396000
6.74438477,-72.37165000
6.77490234,-73.39700000
6.80541992,-75.17538000
6.83593750,-75.47085000
6.86645508,-75.13676000
6.89697266,-75.76488000
6.92749023,-78.70103000
6.95800781,-86.60477000
6.98852539,-82.80782000
7.01904297,-78.77628000
7.04956055,-78.18502000
7.08007813,-78.91039000
7.11059570,-80.77037000
7.14111328,-84.06780000
7.17163086,-89.25941000
7.20214844,-96.01418000
7.23266602,-89.91196000
7.26318359,-86.14252000
7.29370117,-85.83007000
7.32421875,-85.93555000
7.35473633,-86.49930000
7.38525391,-89.30554000
7.41577148,-91.98389000
7.44628906,-95.98808000
7.47680664,-93.11131000
7.50732422,-88.85197000
7.53784180,-87.85670000
7.56835938,-89.04473000
7.59887695,-92.94399000
7.62939453,-102.35440000
7.65991211,-103.08380000
7.69042969,-93.32330000
7.72094727,-87.67717000
7.75146484,-85.06145000
7.78198242,-86.46518000
7.81250000,-96.14537000
7.84301758,-87.70062000
7.87353516,-82.02216000
7.90405273,-80.97476000
7.93457031,-82.77401000
7.96508789,-85.46001000
7.99560547,-86.19782000
8.02612305,-86.40832000
8.05664063,-87.68544000
8.08715820,-86.27689000
8.11767578,-84.07819000
8.14819336,-84.20716000
8.17871094,-85.05489000
8.20922852,-85.51935000
8.23974609,-86.88816000
8.27026367,-89.11876000
8.30078125,-89.34805000
8.33129883,-88.76701000
8.36181641,-97.10190000
8.39233398,-89.69987000
8.42285156,-83.49414000
8.45336914,-83.29799000
8.48388672,-86.89867000
8.51440430,-94.12375000
8.54492188,-94.65890000
8.57543945,-88.18134000
8.60595703,-85.15227000
8.63647461,-85.58182000
8.66699219,-89.94989000
8.69750977,-94.94395000
8.72802734,-91.32359000
8.75854492,-88.12054000
8.78906250,-85.83495000
8.81958008,-85.20219000
8.85009766,-88.12614000
8.88061523,-97.39117000
8.91113281,-94.30245000
8.94165039,-94.29659000
8.97216797,-97.55729000
9.00268555,-90.29671000
9.03320313,-86.24871000
9.06372070,-86.29917000
9.09423828,-89.97940000
9.12475586,-89.93578000
9.15527344,-88.50983000
9.18579102,-91.44917000
9.21630859,-90.48352000
9.24682617,-85.68889000
9.27734375,-84.22624000
9.30786133,-85.66613000
9.33837891,-89.44882000
9.36889648,-88.32470000
9.39941406,-85.02776000
9.42993164,-84.31224000
9.46044922,-84.12119000
9.49096680,-83.34145000
9.52148438,-83.85722000
9.55200195,-87.50626000
9.58251953,-87.16753000
9.61303711,-82.03102000
9.64355469,-81.86855000
9.67407227,-87.76994000
9.70458984,-91.80672000
9.73510742,-85.46324000
9.76562500,-85.61919000
9.79614258,-89.99538000
9.82666016,-88.09227000
9.85717773,-82.28479000
9.88769531,-79.90174000
9.91821289,-80.37416000
9.94873047,-83.91888000
9.97924805,-89.74628000
10.00976563,-89.47771000
10.04028320,-89.40646000
10.07080078,-89.75084000
10.10131836,-89.45808000
10.13183594,-88.59719000
10.16235352,-84.25971000
10.19287109,-80.29875000
10.22338867,-79.14976000
10.25390625,-81.75732000
10.28442383,-90.95348000
10.31494141,-94.25179000
10.34545898,-87.69890000
10.37597656,-85.39984000
10.40649414,-84.21906000
10.43701172,-83.52375000
10.46752930,-82.45444000
10.49804688,-80.85209000
10.52856445,-80.37765000
10.55908203,-81.74585000
10.58959961,-84.74326000
10.62011719,-87.21541000
10.65063477,-84.81728000
10.68115234,-82.99763000
10.71166992,-84.65144000
10.74218750,-87.67264000
10.77270508,-80.06919000
10.80322266,-77.28525000
10.83374023,-78.95812000
10.86425781,-87.16737000
10.89477539,-88.58089000
10.92529297,-80.37927000
10.95581055,-78.59917000
10.98632813,-79.26373000
11.01684570,-80.30753000
11.04736328,-78.52946000
11.07788086,-75.36563000
11.10839844,-73.80121000
11.13891602,-74.40265000
11.16943359,-76.97611000
11.19995117,-80.39182000
11.23046875,-81.12827000
11.26098633,-79.29987000
11.29150391,-78.55299000
11.32202148,-80.13867000
11.35253906,-85.11836000
11.38305664,-90.96646000
11.41357422,-83.84576000
11.44409180,-79.69377000
11.47460938,-78.01978000
11.50512695,-79.05453000
11.53564453,-85.06481000
11.56616211,-82.97838000
11.59667969,-76.38908000
11.62719727,-74.74565000
11.65771484,-75.93396000
11.68823242,-78.38216000
11.71875000,-80.20987000
11.74926758,-82.16707000
11.77978516,-89.74788000
11.81030273,-90.24265000
11.84082031,-82.19315000
11.87133789,-81.14984000
11.90185547,-85.85442000
11.93237305,-93.25609000
11.96289063,-82.68430000
11.99340820,-83.64613000
12.02392578,-90.00877000
12.05444336,-87.57359000
12.08496094,-85.15181000
12.11547852,-79.00375000
12.14599609,-75.94437000
12.17651367,-75.84848000
12.20703125,-76.93564000
12.23754883,-77.29473000
12.26806641,-77.20899000
12.29858398,-78.32610000
12.32910156,-82.32310000
12.35961914,-96.02387000
12.39013672,-88.11154000
12.42065430,-82.91096000
12.45117188,-82.09293000
12.48168945,-83.30130000
12.51220703,-86.19635000
12.54272461,-92.06086000
12.57324219,-91.41994000
12.60375977,-84.56082000
12.63427734,-83.02367000
12.66479492,-86.53033000
12.69531250,-89.42862000
12.72583008,-86.57630000
12.75634766,-93.69157000
12.78686523,-83.50549000
12.81738281,-80.55081000
12.84790039,-82.49061000
12.87841797,-83.08765000
12.90893555,-83.74528000
12.93945313,-85.66888000
12.96997070,-78.83438000
13.00048828,-76.85269000
13.03100586,-80.77026000
13.06152344,-83.61332000
13.09204102,-77.17149000
13.12255859,-77.11298000
13.15307617,-85.11159000
13.18359375,-84.66439000
13.21411133,-77.03314000
13.24462891,-74.86707000
13.27514648,-73.69077000
13.30566406,-72.95955000
13.33618164,-73.77686000
13.36669922,-77.66817000
13.39721680,-86.36324000
13.42773438,-86.37930000
13.45825195,-82.15849000
13.48876953,-73.67354000
13.51928711,-67.85278000
13.54980469,-65.44524000
13.58032227,-66.34011000
13.61083984,-70.43491000
13.64135742,-74.80088000
13.67187500,-75.13603000
13.70239258,-73.76472000
13.73291016,-74.14993000
13.76342773,-77.98257000
13.79394531,-80.99964000
13.82446289,-81.83018000
13.85498047,-90.28108000
13.88549805,-83.13271000
13.91601563,-76.45046000
13.94653320,-75.46184000
13.97705078,-78.66008000
14.00756836,-90.52629000
14.03808594,-84.27753000
14.06860352,-81.17975000
14.09912109,-84.03949000
14.12963867,-90.73956000
14.16015625,-92.04164000
14.19067383,-86.65320000
14.22119141,-84.15638000
14.25170898,-81.36185000
14.28222656,-79.22099000
14.31274414,-79.34416000
14.34326172,-78.79327000
14.37377930,-76.76512000
14.40429688,-74.96379000
14.43481445,-73.02100000
14.46533203,-71.63080000
14.49584961,-71.73226000
14.52636719,-73.73322000
14.55688477,-77.48291000
14.58740234,-82.32547000
14.61791992,-88.72672000
14.64843750,-82.81074000
14.67895508,-78.35361000
14.70947266,-76.95769000
14.73999023,-76.98215000
14.77050781,-77.87534000
14.80102539,-79.63231000
14.83154297,-83.59174000
14.86206055,-95.04655000
14.89257813,-89.22428000
14.92309570,-84.93822000
14.95361328,-82.84445000
14.98413086,-84.26018000
15.01464844,-99.83868000
15.04516602,-82.26993000
15.07568359,-78.24100000
15.10620117,-78.93030000
15.13671875,-82.48031000
15.16723633,-88.02957000
15.19775391,-113.07510000
15.22827148,-85.66435000
15.25878906,-79.65212000
15.28930664,-78.01025000
15.31982422,-81.20800000
15.35034180,-94.09206000
15.38085938,-77.89221000
15.41137695,-74.65842000
15.44189453,-76.22247000
15.47241211,-81.66450000
15.50292969,-79.77840000
15.53344727,-77.06401000
15.56396484,-77.95255000
15.59448242,-81.79799000
15.62500000,-89.49088000
15.65551758,-101.12860000
15.68603516,-88.29215000
15.71655273,-83.33487000
15.74707031,-80.67334000
15.77758789,-80.62852000
15.80810547,-84.56482000
15.83862305,-92.45739000
15.86914063,-82.14986000
15.89965820,-79.23230000
15.93017578,-80.62573000
15.96069336,-86.63423000
15.99121094,-99.05288000
16.02172852,-88.29320000
16.05224609,-84.87427000
16.08276367,-83.91293000
16.11328125,-84.31970000
16.14379883,-85.98172000
16.17431641,-90.65500000
16.20483398,-92.29656000
16.23535156,-86.19966000
16.26586914,-85.18112000
16.29638672,-86.80034000
16.32690430,-88.77811000
16.35742188,-91.33968000
16.38793945,-92.79903000
16.41845703,-87.93151000
16.44897461,-85.40103000
16.47949219,-86.77435000
16.51000977,-89.48816000
16.54052734,-86.61041000
16.57104492,-85.09055000
16.60156250,-84.78723000
16.63208008,-83.50642000
16.66259766,-82.74192000
16.69311523,-84.70623000
16.72363281,-89.60068000
16.75415039,-86.72557000
16.78466797,-83.97128000
16.81518555,-84.91438000
16.84570313,-90.86051000
16.87622070,-98.36581000
16.90673828,-92.07611000
16.93725586,-97.15354000
16.96777344,-99.94481000
16.99829102,-92.02163000
17.02880859,-93.44291000
17.05932617,-103.95770000
17.08984375,-105.07270000
17.12036133,-101.80880000
17.15087891,-95.16975000
17.18139648,-91.08115000
17.21191406,-92.32307000
17.24243164,-97.51926000
17.27294922,-92.94539000
17.30346680,-91.70647000
17.33398438,-94.03164000
17.36450195,-98.16277000
17.39501953,-97.78540000
17.42553711,-97.30193000
17.45605469,-93.64703000
17.48657227,-89.94850000
17.51708984,-89.90241000
17.54760742,-89.32487000
17.57812500,-87.80193000
17.60864258,-89.37415000
17.63916016,-93.32739000
17.66967773,-89.47057000
17.70019531,-81.17326000
17.73071289,-74.97641000
17.76123047,-70.71910000
17.79174805,-68.56175000
17.82226563,-68.83100000
17.85278320,-71.84306000
17.88330078,-77.87337000
17.91381836,-86.61273000
17.94433594,-95.60991000
17.97485352,-97.10690000
18.00537109,-89.30804000
18.03588867,-87.10030000
18.06640625,-88.82832000
18.09692383,-93.15071000
18.12744141,-98.58295000
18.15795898,-104.79870000
18.18847656,-101.87580000
18.21899414,-95.28891000
18.24951172,-98.40157000
18.28002930,-101.93270000
18.31054688,-91.21182000
18.34106445,-89.85439000
18.37158203,-92.91899000
18.40209961,-99.62639000
18.43261719,-100.62080000
18.46313477,-97.26722000
18.49365234,-95.53636000
18.52416992,-96.41514000
18.55468750,-104.48310000
18.58520508,-101.81330000
18.61572266,-97.85272000
18.64624023,-101.66930000
18.67675781,-102.21280000
18.70727539,-95.26368000
18.73779297,-91.78416000
18.76831055,-91.28368000
18.79882813,-94.14511000
18.82934570,-99.34914000
18.85986328,-104.75210000
18.89038086,-102.25200000
18.92089844,-97.37838000
18.95141602,-99.82446000
18.98193359,-103.69090000
19.01245117,-95.67482000
19.04296875,-93.42300000
19.07348633,-94.80162000
19.10400391,-97.49210000
19.13452148,-98.00803000
19.16503906,-99.89816000
19.19555664,-101.50530000
19.22607422,-101.97220000
19.25659180,-110.12530000
19.28710938,-104.45240000
19.31762695,-101.89740000
19.34814453,-102.50440000
19.37866211,-100.83680000
19.40917969,-100.29570000
19.43969727,-98.81863000
19.47021484,-95.80582000
19.50073242,-94.74718000
19.53125000,-97.17889000
19.56176758,-101.11720000
19.59228516,-95.99106000
19.62280273,-94.72711000
19.65332031,-97.48325000
19.68383789,-102.91180000
19.71435547,-111.49040000
19.74487305,-100.33170000
19.77539063,-99.61858000
19.80590820,-104.28800000
19.83642578,-106.75500000
19.86694336,-99.15916000
19.89746094,-93.38002000
19.92797852,-92.06036000
19.95849609,-92.60391000
19.98901367,-92.65392000
20.01953125,-93.96249000
20.05004883,-96.26793000
20.08056641,-95.80212000
20.11108398,-95.39028000
20.14160156,-95.43995000
20.17211914,-93.78493000
20.20263672,-91.92539000
20.23315430,-91.75972000
20.26367188,-93.98192000
20.29418945,-98.64989000
20.32470703,-100.49280000
20.35522461,-96.03508000
20.38574219,-91.59875000
20.41625977,-88.23788000
20.44677734,-86.94919000
20.47729492,-88.26804000
20.50781250,-93.07243000
20.53833008,-102.59140000
20.56884766,-97.76321000
20.59936523,-95.59928000
20.62988281,-95.59018000
20.66040039,-96.52512000
20.69091797,-100.91850000
20.72143555,-97.62684000
20.75195313,-93.34716000
20.78247070,-94.98681000
20.81298828,-99.20516000
20.84350586,-97.08215000
20.87402344,-99.64038000
20.90454102,-108.36600000
20.93505859,-108.20470000
20.96557617,-97.06544000
20.99609375,-94.79447000
21.02661133,-95.04558000
21.05712891,-90.99672000
21.08764648,-89.00185000
21.11816406,-90.04467000
21.14868164,-92.89135000
21.17919922,-95.90667000
21.20971680,-95.25491000
21.24023438,-93.22395000
21.27075195,-93.51805000
21.30126953,-97.77503000
21.33178711,-116.41320000
21.36230469,-104.52010000
21.39282227,-103.19040000
21.42333984,-92.78179000
21.45385742,-89.35306000
21.48437500,-90.17082000
21.51489258,-94.14616000
21.54541016,-103.86530000
21.57592773,-101.32830000
21.60644531,-94.18852000
21.63696289,-95.10684000
21.66748047,-100.89320000
21.69799805,-98.93935000
21.72851563,-102.47120000
21.75903320,-91.34534000
21.78955078,-88.29826000
21.82006836,-90.61725000
21.85058594,-96.13548000
21.88110352,-97.72137000
21.91162109,-98.44328000
21.94213867,-99.13967000
21.97265625,-95.33768000
22.00317383,-94.59647000
22.03369141,-102.85440000
22.06420898,-100.87880000
22.09472656,-95.60965000
22.12524414,-97.34221000
22.15576172,-100.44460000
22.18627930,-101.56770000
22.21679688,-96.65640000
22.24731445,-91.63672000
22.27783203,-90.08946000
22.30834961,-91.90453000
22.33886719,-97.22485000
22.36938477,-101.05820000
22.39990234,-94.17091000
22.43041992,-88.27863000
22.46093750,-85.79932000
22.49145508,-86.88834000
22.52197266,-91.65108000
22.55249023,-98.34532000
22.58300781,-96.94009000
22.61352539,-91.98246000
22.64404297,-90.86220000
22.67456055,-94.15591000
22.70507813,-102.98550000
22.73559570,-103.17300000
22.76611328,-98.00513000
22.79663086,-97.25938000
22.82714844,-99.06506000
22.85766602,-103.10970000
22.88818359,-121.59580000
22.91870117,-109.79000000
22.94921875,-112.95790000
22.97973633,-105.37490000
23.01025391,-101.64250000
23.04077148,-97.80649000
23.07128906,-93.31995000
23.10180664,-90.91447000
23.13232422,-90.63496000
23.16284180,-91.97745000
23.19335938,-93.48115000
23.22387695,-94.35805000
23.25439453,-97.15046000
23.28491211,-107.54210000
23.31542969,-101.94410000
23.34594727,-95.10254000
23.37646484,-91.31588000
23.40698242,-88.54471000
23.43750000,-86.69052000
23.46801758,-86.58695000
23.49853516,-89.08463000
23.52905273,-94.81502000
23.55957031,-102.99270000
23.59008789,-105.06100000
23.62060547,-98.86351000
23.65112305,-94.12681000
23.68164063,-92.18723000
23.71215820,-92.79458000
23.74267578,-96.01909000
23.77319336,-101.06080000
23.80371094,-103.47130000
23.83422852,-103.30890000
23.86474609,-101.16700000
23.89526367,-99.18565000
23.92578125,-99.95537000
23.95629883,-98.86296000
23.98681641,-96.64768000
24.01733398,-96.83620000
24.04785156,-97.02224000
24.07836914,-99.49026000
24.10888672,-101.83230000
24.13940430,-96.84151000
24.16992188,-94.78429000
24.20043945,-94.67327000
24.23095703,-94.60423000
24.26147461,-93.79095000
24.29199219,-95.25322000
24.32250977,-102.53930000
24.35302734,-99.14140000
24.38354492,-95.58913000
24.41406250,-96.59812000
24.44458008,-93.25674000
24.47509766,-90.44801000
24.50561523,-91.88255000
24.53613281,-98.41521000
24.56665039,-127.23440000
24.59716797,-104.04800000
24.62768555,-98.75850000
24.65820313,-95.16224000
24.68872070,-91.65733000
24.71923828,-88.28937000
24.74975586,-86.08748000
24.78027344,-85.90033000
24.81079102,-88.00932000
24.84130859,-91.98337000
24.87182617,-96.48018000
24.90234375,-104.12770000
24.93286133,-100.09960000
24.96337891,-91.08496000
24.99389648,-88.65912000
25.02441406,-90.95831000
25.05493164,-99.40238000
25.08544922,-112.57560000
25.11596680,-104.05150000
25.14648438,-97.14133000
25.17700195,-97.96379000
25.20751953,-106.80230000
25.23803711,-94.39455000
25.26855469,-89.33945000
25.29907227,-88.23452000
25.32958984,-90.62700000
25.36010742,-97.76244000
25.39062500,-103.99620000
25.42114258,-95.98373000
25.45166016,-93.62447000
25.48217773,-95.13405000
25.51269531,-100.24150000
25.54321289,-100.10940000
25.57373047,-96.40028000
25.60424805,-94.34821000
25.63476563,-92.93047000
25.66528320,-93.38025000
25.69580078,-97.62254000
25.72631836,-108.85070000
25.75683594,-97.45480000
25.78735352,-91.97594000
25.81787109,-89.31266000
25.84838867,-88.19851000
25.87890625,-88.34378000
25.90942383,-90.30263000
25.93994141,-96.07082000
25.97045898,-97.64178000
26.00097656,-92.04174000
26.03149414,-91.79956000
26.06201172,-94.94321000
26.09252930,-96.13153000
26.12304688,-92.70759000
26.15356445,-91.40787000
26.18408203,-93.86720000
26.21459961,-99.97690000
26.24511719,-98.61703000
26.27563477,-95.79675000
26.30615234,-96.72382000
26.33666992,-104.86310000
26.36718750,-108.50200000
26.39770508,-103.02030000
26.42822266,-98.87826000
26.45874023,-99.64392000
26.48925781,-112.78150000
26.51977539,-101.77410000
26.55029297,-98.01517000
26.58081055,-94.25644000
26.61132813,-93.24726000
26.64184570,-92.82045000
26.67236328,-90.75379000
26.70288086,-90.81745000
26.73339844,-93.49498000
26.76391602,-98.95129000
26.79443359,-104.70960000
26.82495117,-93.71250000
26.85546875,-92.16564000
26.88598633,-96.32271000
26.91650391,-106.28630000
26.94702148,-96.75124000
26.97753906,-93.41251000
27.00805664,-94.58609000
27.03857422,-99.15722000
27.06909180,-103.51760000
27.09960938,-111.20940000
27.13012695,-101.85190000
27.16064453,-100.14460000
27.19116211,-103.08290000
27.22167969,-97.72438000
27.25219727,-95.38585000
27.28271484,-96.92221000
27.31323242,-99.38687000
27.34375000,-96.27423000
27.37426758,-95.22586000
27.40478516,-99.95180000
27.43530273,-106.21300000
27.46582031,-98.88629000
27.49633789,-97.51270000
27.52685547,-99.00700000
27.55737305,-102.96920000
27.58789063,-99.49591000
27.61840820,-96.67210000
27.64892578,-93.83656000
27.67944336,-92.62409000
27.70996094,-95.96928000
27.74047852,-110.72660000
27.77099609,-103.15140000
27.80151367,-100.25040000
27.83203125,-99.62429000
27.86254883,-99.13966000
27.89306641,-99.23337000
27.92358398,-101.80440000
27.95410156,-102.05820000
27.98461914,-102.94220000
28.01513672,-100.34880000
28.04565430,-93.48352000
28.07617188,-91.06479000
28.10668945,-91.10811000
28.13720703,-91.16474000
28.16772461,-90.99663000
28.19824219,-93.01741000
28.22875977,-99.29185000
28.25927734,-98.77838000
28.28979492,-93.44423000
28.32031250,-91.55480000
28.35083008,-92.05032000
28.38134766,-94.27464000
28.41186523,-93.24294000
28.44238281,-91.16759000
28.47290039,-91.67345000
28.50341797,-93.92422000
28.53393555,-95.94276000
28.56445313,-97.01920000
28.59497070,-95.68253000
28.62548828,-94.78153000
28.65600586,-97.60347000
28.68652344,-106.31290000
28.71704102,-110.74470000
28.74755859,-110.95220000
28.77807617,-111.94810000
28.80859375,-103.06270000
28.83911133,-105.58920000
28.86962891,-101.59240000
28.90014648,-95.43098000
28.93066406,-94.53484000
28.96118164,-95.44069000
28.99169922,-93.50409000
29.02221680,-89.24615000
29.05273438,-86.31164000
29.08325195,-85.86170000
29.11376953,-88.15777000
29.14428711,-93.71178000
29.17480469,-102.58320000
29.20532227,-102.72940000
29.23583984,-102.88020000
29.26635742,-101.70690000
29.29687500,-100.50260000
29.32739258,-102.34880000
29.35791016,-100.74410000
29.38842773,-97.24290000
29.41894531,-94.98379000
29.44946289,-93.87874000
29.47998047,-94.08433000
29.51049805,-95.65434000
29.54101563,-98.48553000
29.57153320,-96.37660000
29.60205078,-93.44704000
29.63256836,-95.63072000
29.66308594,-97.28214000
29.69360352,-89.27148000
29.72412109,-87.13688000
29.75463867,-89.28291000
29.78515625,-93.95672000
29.81567383,-93.32780000
29.84619141,-92.78072000
29.87670898,-94.45991000
29.90722656,-93.61847000
29.93774414,-90.84011000
29.96826172,-88.41935000
29.99877930,-86.17484000
30.02929688,-84.80770000
30.05981445,-85.33058000
30.09033203,-88.17166000
30.12084961,-92.26311000
30.15136719,-93.22049000
30.18188477,-90.80663000
30.21240234,-89.93980000
30.24291992,-92.26831000
30.27343750,-98.16727000
30.30395508,-105.06400000
30.33447266,-96.68356000
30.36499023,-91.43836000
30.39550781,-89.55303000
30.42602539,-89.50905000
30.45654297,-90.19138000
30.48706055,-91.07971000
30.51757813,-92.26849000
30.54809570,-93.70959000
30.57861328,-93.92598000
30.60913086,-93.38898000
30.63964844,-94.16174000
30.67016602,-92.57341000
30.70068359,-88.90678000
30.73120117,-88.24886000
30.76171875,-92.08235000
30.79223633,-96.24475000
30.82275391,-89.86987000
30.85327148,-88.00460000
30.88378906,-89.69145000
30.91430664,-95.41907000
30.94482422,-107.53250000
30.97534180,-102.89110000
31.00585938,-97.14598000
31.03637695,-91.88190000
31.06689453,-90.44397000
31.09741211,-92.47315000
31.12792969,-93.95837000
31.15844727,-90.92324000
31.18896484,-88.69635000
31.21948242,-88.38126000
31.25000000,-91.43829000
31.28051758,-109.16980000
31.31103516,-92.88624000
31.34155273,-87.58235000
31.37207031,-86.29288000
31.40258789,-87.71140000
31.43310547,-92.03381000
31.46362305,-95.19337000
31.49414063,-92.17740000
31.52465820,-91.25696000
31.55517578,-92.03119000
31.58569336,-92.95940000
31.61621094,-95.00552000
31.64672852,-102.87470000
31.67724609,-102.28160000
31.70776367,-94.26035000
31.73828125,-91.00772000
31.76879883,-89.29214000
31.79931641,-89.62007000
31.82983398,-92.64716000
31.86035156,-99.14764000
31.89086914,-108.99410000
31.92138672,-102.75490000
31.95190430,-97.77493000
31.98242188,-93.38405000
32.01293945,-89.03535000
32.04345703,-86.06007000
32.07397461,-85.43018000
32.10449219,-87.66022000
32.13500977,-93.26667000
32.16552734,-100.45080000
32.19604492,-99.11674000
32.22656250,-99.38266000
32.25708008,-103.20940000
32.28759766,-101.07770000
32.31811523,-96.10831000
32.34863281,-92.77467000
32.37915039,-91.82247000
32.40966797,-92.43980000
32.44018555,-92.67452000
32.47070313,-92.39999000
32.50122070,-93.07726000
32.53173828,-95.82249000
32.56225586,-102.12950000
32.59277344,-106.70780000
32.62329102,-103.14290000
32.65380859,-105.80040000
32.68432617,-104.60780000
32.71484375,-94.54284000
32.74536133,-92.90565000
32.77587891,-96.53749000
32.80639648,-95.53125000
32.83691406,-93.99818000
32.86743164,-99.37534000
32.89794922,-109.37360000
32.92846680,-101.86650000
32.95898438,-99.76747000
32.98950195,-94.43561000
33.02001953,-92.26738000
33.05053711,-92.95483000
33.08105469,-96.00585000
33.11157227,-102.28650000
33.14208984,-105.74110000
33.17260742,-98.89235000
33.20312500,-95.31001000
33.23364258,-97.12312000
33.26416016,-100.76400000
33.29467773,-91.84737000
33.32519531,-89.67740000
33.35571289,-92.64313000
33.38623047,-94.89666000
33.41674805,-88.75088000
33.44726563,-86.47501000
33.47778320,-87.54116000
33.50830078,-92.67667000
33.53881836,-97.53907000
33.56933594,-90.21161000
33.59985352,-88.16354000
33.63037109,-89.82056000
33.66088867,-95.00103000
33.69140625,-98.72874000
33.72192383,-98.58983000
33.75244141,-105.07690000
33.78295898,-104.57700000
33.81347656,-98.25352000
33.84399414,-98.76872000
33.87451172,-101.10030000
33.90502930,-98.91072000
33.93554688,-99.78690000
33.96606445,-110.47460000
33.99658203,-101.18980000
34.02709961,-96.44548000
34.05761719,-95.01904000
34.08813477,-94.21414000
34.11865234,-94.69799000
34.14916992,-97.80428000
34.17968750,-106.07250000
34.21020508,-104.95170000
34.24072266,-97.90228000
34.27124023,-93.81041000
34.30175781,-91.27791000
34.33227539,-90.65055000
34.36279297,-91.75365000
34.39331055,-93.62839000
34.42382813,-94.61176000
34.45434570,-94.47320000
34.48486328,-94.39386000
34.51538086,-93.12555000
34.54589844,-89.97694000
34.57641602,-88.50910000
34.60693359,-90.00482000
34.63745117,-94.16023000
34.66796875,-95.08477000
34.69848633,-92.83139000
34.72900391,-91.15857000
34.75952148,-89.36413000
34.79003906,-88.38470000
34.82055664,-89.51598000
34.85107422,-94.30064000
34.88159180,-98.21091000
34.91210938,-92.26155000
34.94262695,-90.20481000
34.97314453,-90.16222000
35.00366211,-91.47786000
35.03417969,-94.16607000
35.06469727,-94.24646000
35.09521484,-92.65343000
35.12573242,-93.49779000
35.15625000,-96.06482000
35.18676758,-95.90952000
35.21728516,-94.27113000
35.24780273,-94.20264000
35.27832031,-95.97649000
35.30883789,-100.25960000
35.33935547,-100.32650000
35.36987305,-97.93934000
35.40039063,-98.95215000
35.43090820,-95.20520000
35.46142578,-92.07176000
35.49194336,-92.76465000
35.52246094,-97.60220000
35.55297852,-108.70800000
35.58349609,-100.29420000
35.61401367,-93.02430000
35.64453125,-89.34020000
35.67504883,-87.87572000
35.70556641,-87.89162000
35.73608398,-89.17848000
35.76660156,-92.60341000
35.79711914,-102.84620000
35.82763672,-99.53189000
35.85815430,-92.74443000
35.88867188,-90.35107000
35.91918945,-89.34195000
35.94970703,-90.03983000
35.98022461,-94.58638000
36.01074219,-106.88540000
36.04125977,-95.23039000
36.07177734,-93.85521000
36.10229492,-97.90420000
36.13281250,-102.77090000
36.16333008,-95.06738000
36.19384766,-92.44890000
36.22436523,-94.60422000
36.25488281,-100.86420000
36.28540039,-95.64594000
36.31591797,-92.87306000
36.34643555,-93.08994000
36.37695313,-93.41127000
36.40747070,-91.49443000
36.43798828,-90.14545000
36.46850586,-91.05159000
36.49902344,-95.39874000
36.52954102,-115.19530000
36.56005859,-93.33548000
36.59057617,-89.25877000
36.62109375,-89.53945000
36.65161133,-92.82259000
36.68212891,-97.31656000
36.71264648,-100.54410000
36.74316406,-103.77550000
36.77368164,-107.66510000
36.80419922,-112.31430000
36.83471680,-112.86380000
36.86523438,-111.43010000
36.89575195,-114.06590000
36.92626953,-99.74560000
36.95678711,-93.90417000
36.98730469,-92.56808000
37.01782227,-94.69204000
37.04833984,-98.26259000
37.07885742,-97.72165000
37.10937500,-94.92140000
37.13989258,-95.62662000
37.17041016,-108.61220000
37.20092773,-97.42674000
37.23144531,-92.05981000
37.26196289,-90.37312000
37.29248047,-89.87039000
37.32299805,-90.91895000
37.35351563,-93.00873000
37.38403320,-93.68687000
37.41455078,-92.76732000
37.44506836,-91.69816000
37.47558594,-91.37063000
37.50610352,-92.08622000
37.53662109,-93.61258000
37.56713867,-96.15923000
37.59765625,-102.73710000
37.62817383,-107.90710000
37.65869141,-97.79050000
37.68920898,-97.30782000
37.71972656,-104.13820000
37.75024414,-105.65450000
37.78076172,-98.44212000
37.81127930,-96.15765000
37.84179688,-94.77850000
37.87231445,-94.35202000
37.90283203,-97.79573000
37.93334961,-106.37100000
37.96386719,-91.73305000
37.99438477,-87.94380000
38.02490234,-87.75354000
38.05541992,-89.38646000
38.08593750,-90.95303000
38.11645508,-91.12967000
38.14697266,-90.92715000
38.17749023,-92.66806000
38.20800781,-100.85420000
38.23852539,-99.73892000
38.26904297,-91.53754000
38.29956055,-89.27628000
38.33007813,-89.63884000
38.36059570,-91.75439000
38.39111328,-94.17515000
38.42163086,-94.46187000
38.45214844,-92.62956000
38.48266602,-90.50403000
38.51318359,-88.79936000
38.54370117,-88.32689000
38.57421875,-90.36514000
38.60473633,-98.92945000
38.63525391,-97.43984000
38.66577148,-90.40849000
38.69628906,-89.65138000
38.72680664,-92.51740000
38.75732422,-96.36292000
38.78784180,-95.69165000
38.81835938,-97.98517000
38.84887695,-123.17720000
38.87939453,-100.17070000
38.90991211,-103.48480000
38.94042969,-97.12790000
38.97094727,-89.05194000
39.00146484,-87.48798000
39.03198242,-89.42013000
39.06250000,-92.44545000
39.09301758,-93.20268000
39.12353516,-92.11501000
39.15405273,-94.10241000
39.18457031,-107.78190000
39.21508789,-98.72676000
39.24560547,-96.26777000
39.27612305,-107.15490000
39.30664063,-95.84889000
39.33715820,-90.48111000
39.36767578,-90.31131000
39.39819336,-92.63423000
39.42871094,-93.16736000
39.45922852,-92.57271000
39.48974609,-93.83517000
39.52026367,-95.56846000
39.55078125,-98.09561000
39.58129883,-113.20740000
39.61181641,-96.86923000
39.64233398,-90.75754000
39.67285156,-89.41319000
39.70336914,-91.72260000
39.73388672,-97.07076000
39.76440430,-95.02780000
39.79492188,-93.37067000
39.82543945,-96.96942000
39.85595703,-99.50117000
39.88647461,-94.89494000
39.91699219,-94.64390000
39.94750977,-91.79712000
39.97802734,-86.04610000
40.00854492,-83.36847000
40.03906250,-83.71337000
40.06958008,-86.48471000
40.10009766,-90.11015000
40.13061523,-92.13503000
40.16113281,-91.11053000
40.19165039,-89.35607000
40.22216797,-89.54695000
40.25268555,-90.23642000
40.28320313,-89.12789000
40.31372070,-86.60121000
40.34423828,-84.10503000
40.37475586,-83.91747000
40.40527344,-86.62903000
40.43579102,-91.98200000
40.46630859,-98.80692000
40.49682617,-104.53380000
40.52734375,-98.74162000
40.55786133,-95.52932000
40.58837891,-96.07393000
40.61889648,-95.58774000
40.64941406,-87.97932000
40.67993164,-84.84415000
40.71044922,-86.12697000
40.74096680,-90.80457000
40.77148438,-91.25340000
40.80200195,-89.80480000
40.83251953,-90.58910000
40.86303711,-94.42014000
40.89355469,-103.99650000
40.92407227,-99.63256000
40.95458984,-88.96629000
40.98510742,-83.60847000
41.01562500,-81.32204000
41.04614258,-81.20209000
41.07666016,-82.57355000
41.10717773,-85.11603000
41.13769531,-87.97411000
41.16821289,-86.75393000
41.19873047,-85.05935000
41.22924805,-86.29771000
41.25976563,-90.23589000
41.29028320,-92.44968000
41.32080078,-91.28899000
41.35131836,-89.49040000
41.38183594,-89.30225000
41.41235352,-92.30366000
41.44287109,-96.05843000
41.47338867,-92.48058000
41.50390625,-88.92121000
41.53442383,-88.01279000
41.56494141,-89.23985000
41.59545898,-89.11202000
41.62597656,-86.24391000
41.65649414,-82.35466000
41.68701172,-79.95073000
41.71752930,-80.56962000
41.74804688,-84.42395000
41.77856445,-88.16483000
41.80908203,-91.28037000
41.83959961,-106.52230000
41.87011719,-95.09235000
41.90063477,-94.09695000
41.93115234,-94.12445000
41.96166992,-89.54568000
41.99218750,-84.23169000
42.02270508,-82.05689000
42.05322266,-82.95483000
42.08374023,-85.82507000
42.11425781,-88.67409000
42.14477539,-89.32011000
42.17529297,-87.35213000
42.20581055,-85.12070000
42.23632813,-84.01836000
42.26684570,-83.56180000
42.29736328,-82.58053000
42.32788086,-81.19202000
42.35839844,-80.42088000
42.38891602,-81.20197000
42.41943359,-84.17375000
42.44995117,-88.95457000
42.48046875,-90.62027000
42.51098633,-89.06584000
42.54150391,-89.62441000
42.57202148,-93.58749000
42.60253906,-95.47949000
42.63305664,-90.57015000
42.66357422,-85.41253000
42.69409180,-82.83341000
42.72460938,-84.21123000
42.75512695,-91.68530000
42.78564453,-89.47494000
42.81616211,-85.89505000
42.84667969,-88.07014000
42.87719727,-96.06471000
42.90771484,-102.60110000
42.93823242,-96.40814000
42.96875000,-94.06006000
42.99926758,-89.28352000
43.02978516,-84.33156000
43.06030273,-83.05605000
43.09082031,-84.95360000
43.12133789,-88.32115000
43.15185547,-89.78514000
43.18237305,-88.85024000
43.21289063,-87.79430000
43.24340820,-86.84966000
43.27392578,-85.64052000
43.30444336,-84.27502000
43.33496094,-83.35960000
43.36547852,-83.34927000
43.39599609,-84.20639000
43.42651367,-85.77032000
43.45703125,-88.51726000
43.48754883,-92.79812000
43.51806641,-93.18530000
43.54858398,-90.42603000
43.57910156,-90.48236000
43.60961914,-93.72677000
43.64013672,-97.08786000
43.67065430,-93.82146000
43.70117188,-89.25044000
43.73168945,-87.96019000
43.76220703,-91.00410000
43.79272461,-103.89170000
43.82324219,-94.72664000
43.85375977,-90.74237000
43.88427734,-92.19323000
43.91479492,-97.16425000
43.94531250,-93.11081000
43.97583008,-91.51531000
44.00634766,-93.22813000
44.03686523,-89.65323000
44.06738281,-86.80634000
44.09790039,-87.32415000
44.12841797,-90.74048000
44.15893555,-96.33897000
44.18945313,-99.50632000
44.21997070,-97.38441000
44.25048828,-95.38795000
44.28100586,-94.09261000
44.31152344,-92.35800000
44.34204102,-89.72786000
44.37255859,-87.46476000
44.40307617,-86.90598000
44.43359375,-87.94831000
44.46411133,-89.22065000
44.49462891,-92.21809000
44.52514648,-111.79570000
44.55566406,-92.35050000
44.58618164,-88.46656000
44.61669922,-89.56798000
44.64721680,-92.39627000
44.67773438,-92.12724000
44.70825195,-91.07902000
44.73876953,-92.48900000
44.76928711,-98.80527000
44.79980469,-103.77500000
44.83032227,-100.55290000
44.86083984,-101.18020000
44.89135742,-107.12360000
44.92187500,-98.85370000
44.95239258,-94.93427000
44.98291016,-97.90833000
45.01342773,-109.31830000
45.04394531,-94.73221000
45.07446289,-92.46378000
45.10498047,-95.55114000
45.13549805,-105.93460000
45.16601563,-98.34053000
45.19653320,-93.23135000
45.22705078,-91.78043000
45.25756836,-92.88622000
45.28808594,-95.52787000
45.31860352,-97.80524000
45.34912109,-97.49421000
45.37963867,-92.64732000
45.41015625,-90.15445000
45.44067383,-90.61353000
45.47119141,-92.23180000
45.50170898,-93.64414000
45.53222656,-94.93461000
45.56274414,-94.01580000
45.59326172,-93.01025000
45.62377930,-92.77806000
45.65429688,-94.26311000
45.68481445,-95.73315000
45.71533203,-92.21511000
45.74584961,-89.74461000
45.77636719,-88.64175000
45.80688477,-88.07594000
45.83740234,-87.93656000
45.86791992,-88.23490000
45.89843750,-89.40582000
45.92895508,-91.43681000
45.95947266,-92.02170000
45.98999023,-91.88551000
46.02050781,-93.18836000
46.05102539,-92.18159000
46.08154297,-90.39452000
46.11206055,-91.52843000
46.14257813,-94.17064000
46.17309570,-94.86894000
46.20361328,-92.87998000
46.23413086,-90.20008000
46.26464844,-90.87582000
46.29516602,-97.54768000
46.32568359,-102.22900000
46.35620117,-96.14482000
46.38671875,-98.93286000
46.41723633,-105.95300000
46.44775391,-98.57864000
46.47827148,-99.54852000
46.50878906,-116.35830000
46.53930664,-94.96620000
46.56982422,-90.85883000
46.60034180,-90.86159000
46.63085938,-93.60373000
46.66137695,-97.60880000
46.69189453,-98.94447000
46.72241211,-96.53748000
46.75292969,-94.41829000
46.78344727,-94.15852000
46.81396484,-95.43472000
46.84448242,-98.99013000
46.87500000,-109.51810000
46.90551758,-96.17587000
46.93603516,-91.34477000
46.96655273,-90.52133000
46.99707031,-91.23833000
47.02758789,-90.59030000
47.05810547,-88.50552000
47.08862305,-86.87233000
47.11914063,-86.70910000
47.14965820,-88.16814000
47.18017578,-90.75118000
47.21069336,-92.04330000
47.24121094,-90.57419000
47.27172852,-89.53220000
47.30224609,-90.34663000
47.33276367,-93.44975000
47.36328125,-98.54445000
47.39379883,-101.31220000
47.42431641,-97.48000000
47.45483398,-93.52454000
47.48535156,-91.80899000
47.51586914,-91.36786000
47.54638672,-90.73463000
47.57690430,-90.05132000
47.60742188,-90.48600000
47.63793945,-92.67511000
47.66845703,-96.42574000
47.69897461,-98.11062000
47.72949219,-94.93592000
47.76000977,-90.95430000
47.79052734,-89.00174000
47.82104492,-89.78870000
47.85156250,-93.35542000
47.88208008,-96.19025000
47.91259766,-93.50293000
47.94311523,-91.02126000
47.97363281,-89.45018000
48.00415039,-88.99458000
48.03466797,-89.82291000
48.06518555,-91.22342000
48.09570313,-92.14084000
48.12622070,-92.72842000
48.15673828,-93.62317000
48.18725586,-94.17870000
48.21777344,-92.11448000
48.24829102,-89.55829000
48.27880859,-88.51032000
48.30932617,-88.97587000
48.33984375,-90.75492000
48.37036133,-93.44646000
48.40087891,-95.61017000
48.43139648,-96.30508000
48.46191406,-98.35744000
48.49243164,-106.48100000
48.52294922,-103.01770000
48.55346680,-96.38593000
48.58398438,-91.21999000
48.61450195,-87.76936000
48.64501953,-86.79317000
48.67553711,-88.01445000
48.70605469,-90.70331000
48.73657227,-94.55009000
48.76708984,-94.51797000
48.79760742,-90.45267000
48.82812500,-88.62820000
48.85864258,-88.34468000
48.88916016,-88.79295000
48.91967773,-89.76874000
48.95019531,-91.16296000
48.98071289,-92.93951000
49.01123047,-95.22658000
49.04174805,-94.95285000
49.07226563,-91.81812000
49.10278320,-90.52531000
49.13330078,-91.66652000
49.16381836,-94.39893000
49.19433594,-100.24950000
49.22485352,-102.63180000
49.25537109,-91.48413000
49.28588867,-89.07014000
49.31640625,-90.08772000
49.34692383,-90.39506000
49.37744141,-88.69833000
49.40795898,-87.15494000
49.43847656,-86.98101000
49.46899414,-89.11992000
49.49951172,-94.11907000
49.53002930,-99.71181000
49.56054688,-98.37254000
49.59106445,-95.88634000
49.62158203,-93.82884000
49.65209961,-92.76711000
49.68261719,-92.15445000
49.71313477,-91.06075000
49.74365234,-90.24985000
49.77416992,-90.52267000
49.80468750,-91.83881000
49.83520508,-92.99869000
49.86572266,-91.38245000
49.89624023,-89.01357000
49.92675781,-87.85435000
49.95727539,-88.13213000
49.98779297,-89.71286000
50.01831055,-91.10347000
