Frequency,Channel A
(MHz),(dBu)

0.00000000,-36.59913000
0.03051758,-36.98473000
0.06103516,-42.16528000
0.09155273,-51.08379000
0.12207031,-57.02905000
0.15258789,-57.22769000
0.18310547,-60.29628000
0.21362305,-63.64485000
0.24414063,-66.02716000
0.27465820,-79.57432000
0.30517578,-72.13772000
0.33569336,-66.86786000
0.36621094,-64.60176000
0.39672852,-68.09768000
0.42724609,-67.97355000
0.45776367,-62.10231000
0.48828125,-62.26950000
0.51879883,-66.43564000
0.54931641,-72.33404000
0.57983398,-67.02644000
0.61035156,-62.88854000
0.64086914,-60.91301000
0.67138672,-60.09060000
0.70190430,-61.66721000
0.73242188,-66.31519000
0.76293945,-70.49297000
0.79345703,-65.40627000
0.82397461,-60.99823000
0.85449219,-59.38442000
0.88500977,-60.54670000
0.91552734,-64.99502000
0.94604492,-68.13187000
0.97656250,-65.64700000
1.00708008,-63.38757000
1.03759766,-60.24089000
1.06811523,-59.68567000
1.09863281,-63.17710000
1.12915039,-74.09788000
1.15966797,-75.15401000
1.19018555,-70.58490000
1.22070313,-71.05915000
1.25122070,-71.01827000
1.28173828,-70.21053000
1.31225586,-72.15758000
1.34277344,-71.41927000
1.37329102,-69.51649000
1.40380859,-71.85521000
1.43432617,-80.20142000
1.46484375,-76.78059000
1.49536133,-74.56071000
1.52587891,-71.65752000
1.55639648,-68.84244000
1.58691406,-71.07065000
1.61743164,-76.83343000
1.64794922,-70.78287000
1.67846680,-69.83097000
1.70898438,-72.06956000
1.73950195,-73.98351000
1.77001953,-76.19618000
1.80053711,-76.98953000
1.83105469,-72.67174000
1.86157227,-70.71845000
1.89208984,-71.10971000
1.92260742,-72.33609000
1.95312500,-73.71027000
1.98364258,-71.69283000
2.01416016,-68.73527000
2.04467773,-67.94386000
2.07519531,-70.07769000
2.10571289,-80.28906000
2.13623047,-75.17707000
2.16674805,-69.32044000
2.19726563,-68.92985000
2.22778320,-71.59789000
2.25830078,-80.26336000
2.28881836,-82.55062000
2.31933594,-77.78411000
2.34985352,-79.09972000
2.38037109,-73.70768000
2.41088867,-72.97491000
2.44140625,-75.76600000
2.47192383,-72.46972000
2.50244141,-71.14400000
2.53295898,-75.36151000
2.56347656,-90.58862000
2.59399414,-79.28871000
2.62451172,-79.40218000
2.65502930,-74.82695000
2.68554688,-69.14799000
2.71606445,-67.15047000
2.74658203,-68.33156000
2.77709961,-72.53560000
2.80761719,-79.41404000
2.83813477,-84.32197000
2.86865234,-76.37003000
2.89916992,-72.17133000
2.92968750,-70.74153000
2.96020508,-70.52488000
2.99072266,-71.26070000
3.02124023,-74.39941000
3.05175781,-82.73752000
3.08227539,-80.91873000
3.11279297,-84.26602000
3.14331055,-75.87615000
3.17382813,-68.63261000
3.20434570,-68.17393000
3.23486328,-75.75281000
3.26538086,-75.92889000
3.29589844,-68.69065000
3.32641602,-68.37972000
3.35693359,-71.84253000
3.38745117,-78.76416000
3.41796875,-78.60022000
3.44848633,-72.36909000
3.47900391,-69.52036000
3.50952148,-69.38837000
3.54003906,-70.47774000
3.57055664,-71.59304000
3.60107422,-72.08945000
3.63159180,-73.62126000
3.66210938,-78.70813000
3.69262695,-74.62336000
3.72314453,-70.32625000
3.75366211,-68.69619000
3.78417969,-68.42317000
3.81469727,-69.77528000
3.84521484,-73.41451000
3.87573242,-77.53595000
3.90625000,-77.13390000
3.93676758,-81.47241000
3.96728516,-78.44546000
3.99780273,-70.02785000
4.02832031,-67.20406000
4.05883789,-66.65562000
4.08935547,-66.75002000
4.11987305,-68.34145000
4.15039063,-74.45229000
4.18090820,-96.95728000
4.21142578,-80.33942000
4.24194336,-74.37827000
4.27246094,-69.31979000
4.30297852,-67.93777000
4.33349609,-69.86966000
4.36401367,-76.74465000
4.39453125,-81.81512000
4.42504883,-78.11124000
4.45556641,-84.69176000
4.48608398,-78.50302000
4.51660156,-73.43586000
4.54711914,-70.99107000
4.57763672,-69.79984000
4.60815430,-70.33638000
4.63867188,-73.19150000
4.66918945,-80.43944000
4.69970703,-89.37862000
4.73022461,-79.16020000
4.76074219,-74.83412000
4.79125977,-71.53252000
4.82177734,-69.98599000
4.85229492,-70.02708000
4.88281250,-70.42054000
4.91333008,-71.48199000
4.94384766,-75.81921000
4.97436523,-97.55006000
5.00488281,-78.89424000
5.03540039,-74.80249000
5.06591797,-73.22322000
5.09643555,-72.68826000
5.12695313,-72.32394000
5.15747070,-71.43920000
5.18798828,-72.04456000
5.21850586,-75.50093000
5.24902344,-76.90070000
5.27954102,-75.18287000
5.31005859,-76.28556000
5.34057617,-74.89902000
5.37109375,-71.45198000
5.40161133,-69.70752000
5.43212891,-69.37697000
5.46264648,-70.51498000
5.49316406,-74.10977000
5.52368164,-81.06401000
5.55419922,-82.47620000
5.58471680,-85.38667000
5.61523438,-87.44632000
5.64575195,-74.80537000
5.67626953,-69.24323000
5.70678711,-67.22381000
5.73730469,-67.80157000
5.76782227,-68.78149000
5.79833984,-68.96021000
5.82885742,-71.67296000
5.85937500,-83.48703000
5.88989258,-75.27948000
5.92041016,-69.77892000
5.95092773,-67.81242000
5.98144531,-66.81024000
6.01196289,-66.37284000
6.04248047,-67.26895000
6.07299805,-70.61288000
6.10351563,-78.26807000
6.13403320,-83.45184000
6.16455078,-74.97991000
6.19506836,-71.16327000
6.22558594,-69.54630000
6.25610352,-68.09431000
6.28662109,-67.32065000
6.31713867,-68.90885000
6.34765625,-72.97800000
6.37817383,-76.88266000
6.40869141,-77.96662000
6.43920898,-74.37967000
6.46972656,-71.84252000
6.50024414,-71.06729000
6.53076172,-71.39298000
6.56127930,-73.27354000
6.59179688,-77.05733000
6.62231445,-81.47336000
6.65283203,-82.64694000
6.68334961,-79.97002000
6.71386719,-77.09176000
6.74438477,-75.14453000
6.77490234,-74.51860000
6.80541992,-76.00245000
6.83593750,-79.68733000
6.86645508,-83.19948000
6.89697266,-83.42896000
6.92749023,-80.59388000
6.95800781,-78.46823000
6.98852539,-77.77602000
7.01904297,-77.25846000
7.04956055,-77.44887000
7.08007813,-80.00576000
7.11059570,-85.43564000
7.14111328,-89.30858000
7.17163086,-87.15364000
7.20214844,-84.31479000
7.23266602,-84.46568000
7.26318359,-84.24379000
7.29370117,-83.15761000
7.32421875,-84.57203000
7.35473633,-81.61906000
7.38525391,-79.48602000
7.41577148,-82.32358000
7.44628906,-93.90569000
7.47680664,-96.37788000
7.50732422,-98.05946000
7.53784180,-84.43765000
7.56835938,-79.92521000
7.59887695,-77.96883000
7.62939453,-76.76253000
7.65991211,-77.24254000
7.69042969,-81.01682000
7.72094727,-90.75665000
7.75146484,-99.76235000
7.78198242,-89.87448000
7.81250000,-82.13362000
7.84301758,-80.66505000
7.87353516,-84.23608000
7.90405273,-82.98225000
7.93457031,-78.89781000
7.96508789,-78.67662000
7.99560547,-80.91117000
8.02612305,-84.44633000
8.05664063,-86.58807000
8.08715820,-83.43365000
8.11767578,-81.60342000
8.14819336,-81.69012000
8.17871094,-81.91483000
8.20922852,-80.61964000
8.23974609,-79.31250000
8.27026367,-79.95680000
8.30078125,-82.73296000
8.33129883,-84.76682000
8.36181641,-82.98453000
8.39233398,-79.68715000
8.42285156,-78.14551000
8.45336914,-79.59454000
8.48388672,-83.97864000
8.51440430,-86.72112000
8.54492188,-86.32336000
8.57543945,-87.59158000
8.60595703,-88.26942000
8.63647461,-87.67911000
8.66699219,-88.20943000
8.69750977,-90.85610000
8.72802734,-94.57094000
8.75854492,-85.75208000
8.78906250,-80.89972000
8.81958008,-79.79536000
8.85009766,-81.48126000
8.88061523,-83.66885000
8.91113281,-83.86516000
8.94165039,-85.46363000
8.97216797,-89.33049000
9.00268555,-91.22653000
9.03320313,-89.91795000
9.06372070,-87.11079000
9.09423828,-85.70747000
9.12475586,-86.25092000
9.15527344,-86.15584000
9.18579102,-83.64594000
9.21630859,-81.62723000
9.24682617,-81.11825000
9.27734375,-81.98048000
9.30786133,-84.24316000
9.33837891,-88.01354000
9.36889648,-87.54562000
9.39941406,-84.35073000
9.42993164,-83.17145000
9.46044922,-82.39476000
9.49096680,-81.39917000
9.52148438,-81.82933000
9.55200195,-84.56776000
9.58251953,-88.73108000
9.61303711,-88.74780000
9.64355469,-85.29015000
9.67407227,-82.83116000
9.70458984,-82.40701000
9.73510742,-83.89945000
9.76562500,-85.77374000
9.79614258,-87.39986000
9.82666016,-88.81790000
9.85717773,-85.76461000
9.88769531,-84.10377000
9.91821289,-84.08784000
9.94873047,-82.21076000
9.97924805,-79.91229000
10.00976563,-77.75807000
10.04028320,-75.84698000
10.07080078,-75.35102000
10.10131836,-76.88593000
10.13183594,-80.68668000
10.16235352,-85.97992000
10.19287109,-87.72485000
10.22338867,-85.11273000
10.25390625,-82.04293000
10.28442383,-80.54721000
10.31494141,-81.41272000
10.34545898,-84.46567000
10.37597656,-84.55449000
10.40649414,-83.64182000
10.43701172,-86.70389000
10.46752930,-89.86785000
10.49804688,-85.50294000
10.52856445,-83.05600000
10.55908203,-85.10250000
10.58959961,-92.56944000
10.62011719,-80.76750000
10.65063477,-76.54845000
10.68115234,-75.92126000
10.71166992,-77.99686000
10.74218750,-83.00229000
10.77270508,-90.53722000
10.80322266,-87.36340000
10.83374023,-82.34746000
10.86425781,-78.50033000
10.89477539,-76.15562000
10.92529297,-76.41264000
10.95581055,-80.54588000
10.98632813,-91.46516000
11.01684570,-84.30725000
11.04736328,-81.87874000
11.07788086,-83.79379000
11.10839844,-86.92333000
11.13891602,-82.96281000
11.16943359,-79.32708000
11.19995117,-77.54979000
11.23046875,-76.48291000
11.26098633,-75.46888000
11.29150391,-74.97290000
11.32202148,-75.61631000
11.35253906,-77.30142000
11.38305664,-79.56328000
11.41357422,-80.69764000
11.44409180,-79.28328000
11.47460938,-78.58362000
11.50512695,-79.06129000
11.53564453,-78.85747000
11.56616211,-77.30672000
11.59667969,-75.37278000
11.62719727,-74.23639000
11.65771484,-75.04868000
11.68823242,-79.43591000
11.71875000,-89.16424000
11.74926758,-80.67361000
11.77978516,-78.76870000
11.81030273,-81.46603000
11.84082031,-85.73127000
11.87133789,-84.89150000
11.90185547,-86.65494000
11.93237305,-94.92118000
11.96289063,-82.19048000
11.99340820,-78.60706000
12.02392578,-79.83861000
12.05444336,-86.29833000
12.08496094,-98.68835000
12.11547852,-92.15244000
12.14599609,-82.24407000
12.17651367,-78.17377000
12.20703125,-78.20529000
12.23754883,-80.41431000
12.26806641,-82.19623000
12.29858398,-85.54488000
12.32910156,-88.62646000
12.35961914,-83.60686000
12.39013672,-81.75586000
12.42065430,-83.33163000
12.45117188,-88.98940000
12.48168945,-83.12819000
12.51220703,-78.18849000
12.54272461,-77.73897000
12.57324219,-81.61492000
12.60375977,-92.39714000
12.63427734,-87.77541000
12.66479492,-83.82269000
12.69531250,-82.87612000
12.72583008,-81.84925000
12.75634766,-79.16630000
12.78686523,-77.57049000
12.81738281,-77.96538000
12.84790039,-79.55232000
12.87841797,-79.92500000
12.90893555,-79.45901000
12.93945313,-79.57092000
12.96997070,-78.21950000
13.00048828,-77.40350000
13.03100586,-80.32433000
13.06152344,-91.05431000
13.09204102,-81.64680000
13.12255859,-75.16158000
13.15307617,-72.73077000
13.18359375,-73.02374000
13.21411133,-74.39454000
13.24462891,-74.92397000
13.27514648,-75.52675000
13.30566406,-77.46823000
13.33618164,-80.41345000
13.36669922,-81.70983000
13.39721680,-82.11615000
13.42773438,-83.34545000
13.45825195,-78.56330000
13.48876953,-72.65692000
13.51928711,-68.09109000
13.54980469,-65.58211000
13.58032227,-65.76407000
13.61083984,-68.94448000
13.64135742,-73.11327000
13.67187500,-71.68221000
13.70239258,-70.82639000
13.73291016,-72.87414000
13.76342773,-78.35015000
13.79394531,-88.56174000
13.82446289,-82.61053000
13.85498047,-76.82079000
13.88549805,-75.08315000
13.91601563,-76.85597000
13.94653320,-81.81995000
13.97705078,-86.17355000
14.00756836,-84.83244000
14.03808594,-84.94171000
14.06860352,-98.39526000
14.09912109,-83.40793000
14.12963867,-80.73391000
14.16015625,-85.45963000
14.19067383,-81.86469000
14.22119141,-78.23161000
14.25170898,-79.16428000
14.28222656,-82.41828000
14.31274414,-84.08234000
14.34326172,-81.95263000
14.37377930,-79.29530000
14.40429688,-77.72562000
14.43481445,-76.44061000
14.46533203,-75.39570000
14.49584961,-75.59183000
14.52636719,-77.42281000
14.55688477,-80.20656000
14.58740234,-81.08974000
14.61791992,-81.19992000
14.64843750,-85.22846000
14.67895508,-119.88810000
14.70947266,-85.98975000
14.73999023,-82.36912000
14.77050781,-82.53366000
14.80102539,-83.92761000
14.83154297,-81.64016000
14.86206055,-80.34911000
14.89257813,-82.11589000
14.92309570,-85.67879000
14.95361328,-93.59222000
14.98413086,-89.80029000
15.01464844,-83.52902000
15.04516602,-82.82227000
15.07568359,-81.04003000
15.10620117,-78.99610000
15.13671875,-80.45245000
15.16723633,-87.37293000
15.19775391,-97.45403000
15.22827148,-89.38873000
15.25878906,-83.56866000
15.28930664,-82.42676000
15.31982422,-88.78689000
15.35034180,-91.79158000
15.38085938,-83.90723000
15.41137695,-82.08966000
15.44189453,-81.07985000
15.47241211,-82.85466000
15.50292969,-91.10162000
15.53344727,-85.90495000
15.56396484,-79.83364000
15.59448242,-76.96637000
15.62500000,-76.12582000
15.65551758,-77.31003000
15.68603516,-79.84827000
15.71655273,-82.04754000
15.74707031,-85.55022000
15.77758789,-94.89429000
15.80810547,-91.98340000
15.83862305,-93.88946000
15.86914063,-96.69976000
15.89965820,-89.24226000
15.93017578,-88.96035000
15.96069336,-86.31271000
15.99121094,-83.64049000
16.02172852,-85.23190000
16.05224609,-91.87068000
16.08276367,-91.50964000
16.11328125,-90.02059000
16.14379883,-90.16386000
16.17431641,-86.62947000
16.20483398,-85.04613000
16.23535156,-86.95077000
16.26586914,-88.76297000
16.29638672,-85.61176000
16.32690430,-84.66195000
16.35742188,-86.73274000
16.38793945,-92.11402000
16.41845703,-100.36660000
16.44897461,-96.39845000
16.47949219,-93.36320000
16.51000977,-91.76259000
16.54052734,-93.85718000
16.57104492,-101.76740000
16.60156250,-91.71784000
16.63208008,-88.35062000
16.66259766,-88.35633000
16.69311523,-89.07764000
16.72363281,-91.94698000
16.75415039,-96.44009000
16.78466797,-89.88127000
16.81518555,-86.96171000
16.84570313,-86.46753000
16.87622070,-88.13864000
16.90673828,-94.01437000
16.93725586,-109.42630000
16.96777344,-93.06116000
16.99829102,-89.75967000
17.02880859,-89.97199000
17.05932617,-93.84189000
17.08984375,-103.64220000
17.12036133,-108.80590000
17.15087891,-98.97363000
17.18139648,-94.84444000
17.21191406,-95.35280000
17.24243164,-90.57957000
17.27294922,-87.54978000
17.30346680,-89.74100000
17.33398438,-98.98387000
17.36450195,-92.76340000
17.39501953,-91.07660000
17.42553711,-95.34029000
17.45605469,-104.10020000
17.48657227,-99.22778000
17.51708984,-96.90823000
17.54760742,-89.92759000
17.57812500,-86.33640000
17.60864258,-86.63078000
17.63916016,-90.39611000
17.66967773,-93.23711000
17.70019531,-86.44861000
17.73071289,-83.70714000
17.76123047,-86.00586000
17.79174805,-85.64957000
17.82226563,-82.93412000
17.85278320,-86.14114000
17.88330078,-95.64444000
17.91381836,-88.88907000
17.94433594,-88.69892000
17.97485352,-91.55591000
18.00537109,-95.96656000
18.03588867,-102.03530000
18.06640625,-96.77298000
18.09692383,-96.45280000
18.12744141,-98.32693000
18.15795898,-92.19896000
18.18847656,-88.58633000
18.21899414,-88.02893000
18.24951172,-89.29652000
18.28002930,-91.27036000
18.31054688,-92.80330000
18.34106445,-93.68076000
18.37158203,-94.59701000
18.40209961,-93.28933000
18.43261719,-91.87503000
18.46313477,-91.95348000
18.49365234,-91.14239000
18.52416992,-89.13565000
18.55468750,-87.88770000
18.58520508,-87.82497000
18.61572266,-88.90282000
18.64624023,-91.23055000
18.67675781,-94.76361000
18.70727539,-97.61482000
18.73779297,-96.72250000
18.76831055,-94.44833000
18.79882813,-92.77391000
18.82934570,-91.92794000
18.85986328,-92.00346000
18.89038086,-93.51981000
18.92089844,-96.88062000
18.95141602,-100.35430000
18.98193359,-100.66520000
19.01245117,-100.76370000
19.04296875,-103.34960000
19.07348633,-96.94680000
19.10400391,-91.81045000
19.13452148,-89.70689000
19.16503906,-89.66950000
19.19555664,-91.56441000
19.22607422,-95.67226000
19.25659180,-101.71950000
19.28710938,-104.27580000
19.31762695,-96.88328000
19.34814453,-93.57032000
19.37866211,-93.04091000
19.40917969,-94.29382000
19.43969727,-98.91570000
19.47021484,-111.37040000
19.50073242,-96.64272000
19.53125000,-93.38503000
19.56176758,-93.48212000
19.59228516,-94.88000000
19.62280273,-96.50410000
19.65332031,-99.18975000
19.68383789,-101.29130000
19.71435547,-105.07800000
19.74487305,-109.00730000
19.77539063,-101.71710000
19.80590820,-106.32180000
19.83642578,-103.91380000
19.86694336,-98.61751000
19.89746094,-96.99706000
19.92797852,-96.75808000
19.95849609,-98.64973000
19.98901367,-99.92779000
20.01953125,-99.83311000
20.05004883,-104.15920000
20.08056641,-108.15230000
20.11108398,-104.49660000
20.14160156,-99.47908000
20.17211914,-95.68078000
20.20263672,-97.42648000
20.23315430,-103.66220000
20.26367188,-95.19492000
20.29418945,-92.41393000
20.32470703,-93.03947000
20.35522461,-95.37945000
20.38574219,-99.93255000
20.41625977,-98.46417000
20.44677734,-93.89786000
20.47729492,-94.95050000
20.50781250,-101.23900000
20.53833008,-102.23720000
20.56884766,-99.60275000
20.59936523,-91.57915000
20.62988281,-87.80631000
20.66040039,-86.76855000
20.69091797,-87.60585000
20.72143555,-90.81186000
20.75195313,-98.08616000
20.78247070,-101.15120000
20.81298828,-98.59981000
20.84350586,-100.27190000
20.87402344,-105.25290000
20.90454102,-105.99410000
20.93505859,-96.43536000
20.96557617,-92.64842000
20.99609375,-92.98523000
21.02661133,-97.63066000
21.05712891,-98.08833000
21.08764648,-94.28456000
21.11816406,-94.27413000
21.14868164,-95.68338000
21.17919922,-94.92249000
21.20971680,-91.89545000
21.24023438,-90.50146000
21.27075195,-92.83670000
21.30126953,-99.74448000
21.33178711,-95.98106000
21.36230469,-93.52464000
21.39282227,-94.78320000
21.42333984,-95.35121000
21.45385742,-94.72725000
21.48437500,-98.14394000
21.51489258,-116.96370000
21.54541016,-99.48691000
21.57592773,-96.52798000
21.60644531,-96.63604000
21.63696289,-97.81210000
21.66748047,-100.76020000
21.69799805,-104.43770000
21.72851563,-98.57240000
21.75903320,-95.07829000
21.78955078,-93.28040000
21.82006836,-90.67125000
21.85058594,-88.98676000
21.88110352,-89.95737000
21.91162109,-94.22565000
21.94213867,-99.41390000
21.97265625,-98.51215000
22.00317383,-97.80755000
22.03369141,-98.54410000
22.06420898,-100.89910000
22.09472656,-102.43980000
22.12524414,-100.82720000
22.15576172,-98.03890000
22.18627930,-97.00397000
22.21679688,-102.43390000
22.24731445,-101.34290000
22.27783203,-91.34376000
22.30834961,-88.58684000
22.33886719,-89.27909000
22.36938477,-91.59796000
22.39990234,-92.09195000
22.43041992,-91.82098000
22.46093750,-93.15764000
22.49145508,-94.96695000
22.52197266,-93.45422000
22.55249023,-92.08810000
22.58300781,-94.19620000
22.61352539,-97.24539000
22.64404297,-93.40859000
22.67456055,-92.06195000
22.70507813,-93.00703000
22.73559570,-94.56569000
22.76611328,-96.63026000
22.79663086,-97.55061000
22.82714844,-95.58526000
22.85766602,-93.23561000
22.88818359,-91.81297000
22.91870117,-91.37016000
22.94921875,-91.74007000
22.97973633,-92.70905000
23.01025391,-93.63069000
23.04077148,-94.17084000
23.07128906,-95.48395000
23.10180664,-98.89789000
23.13232422,-98.99237000
23.16284180,-94.27211000
23.19335938,-92.41375000
23.22387695,-92.91853000
23.25439453,-94.29038000
23.28491211,-95.90314000
23.31542969,-98.00434000
23.34594727,-96.90090000
23.37646484,-93.22800000
23.40698242,-91.30553000
23.43750000,-91.70925000
23.46801758,-94.41987000
23.49853516,-98.28445000
23.52905273,-99.21741000
23.55957031,-96.58504000
23.59008789,-94.32693000
23.62060547,-92.49677000
23.65112305,-90.73264000
23.68164063,-90.65559000
23.71215820,-92.31594000
23.74267578,-93.64799000
23.77319336,-96.34605000
23.80371094,-106.06900000
23.83422852,-99.04535000
23.86474609,-95.54314000
23.89526367,-96.79715000
23.92578125,-102.06570000
23.95629883,-108.12170000
23.98681641,-97.93112000
24.01733398,-92.72179000
24.04785156,-90.21733000
24.07836914,-89.62250000
24.10888672,-90.71364000
24.13940430,-93.97557000
24.16992188,-100.50170000
24.20043945,-105.93940000
24.23095703,-100.58880000
24.26147461,-95.28259000
24.29199219,-94.10702000
24.32250977,-98.45361000
24.35302734,-115.92220000
24.38354492,-104.96470000
24.41406250,-113.37420000
24.44458008,-96.06403000
24.47509766,-91.42557000
24.50561523,-90.38829000
24.53613281,-91.00870000
24.56665039,-91.81371000
24.59716797,-91.90607000
24.62768555,-91.54527000
24.65820313,-91.70496000
24.68872070,-93.13424000
24.71923828,-95.46710000
24.74975586,-97.47646000
24.78027344,-95.05226000
24.81079102,-91.53296000
24.84130859,-91.12741000
24.87182617,-93.42414000
24.90234375,-95.68974000
24.93286133,-95.01083000
24.96337891,-93.54684000
24.99389648,-93.90029000
25.02441406,-97.47962000
25.05493164,-104.56260000
25.08544922,-99.75240000
25.11596680,-96.61136000
25.14648438,-97.08968000
25.17700195,-98.25191000
25.20751953,-96.22601000
25.23803711,-94.39101000
25.26855469,-94.45344000
25.29907227,-96.40747000
25.32958984,-98.98544000
25.36010742,-98.26956000
25.39062500,-96.00827000
25.42114258,-95.87225000
25.45166016,-97.65591000
25.48217773,-101.72000000
25.51269531,-116.48350000
25.54321289,-99.21059000
25.57373047,-96.28345000
25.60424805,-97.13609000
25.63476563,-97.60905000
25.66528320,-95.17816000
25.69580078,-92.60345000
25.72631836,-91.98739000
25.75683594,-93.54060000
25.78735352,-96.47166000
25.81787109,-98.77216000
25.84838867,-98.19676000
25.87890625,-98.15997000
25.90942383,-103.47920000
25.93994141,-104.63260000
25.97045898,-99.68002000
26.00097656,-103.11350000
26.03149414,-127.53920000
26.06201172,-109.68310000
26.09252930,-103.89380000
26.12304688,-95.02586000
26.15356445,-92.65579000
26.18408203,-94.24569000
26.21459961,-96.03656000
26.24511719,-97.60644000
26.27563477,-106.27840000
26.30615234,-108.15660000
26.33666992,-102.79880000
26.36718750,-97.14916000
26.39770508,-94.77340000
26.42822266,-95.08485000
26.45874023,-94.97639000
26.48925781,-94.50397000
26.51977539,-93.93123000
26.55029297,-94.61482000
26.58081055,-100.84540000
26.61132813,-106.75600000
26.64184570,-98.61649000
26.67236328,-99.68754000
26.70288086,-98.52823000
26.73339844,-96.58714000
26.76391602,-99.54650000
26.79443359,-101.70970000
26.82495117,-98.88023000
26.85546875,-101.38640000
26.88598633,-109.97850000
26.91650391,-107.04890000
26.94702148,-99.08128000
26.97753906,-96.38961000
27.00805664,-98.02128000
27.03857422,-100.27160000
27.06909180,-97.01713000
27.09960938,-95.75919000
27.13012695,-98.56177000
27.16064453,-101.36090000
27.19116211,-96.46996000
27.22167969,-95.68776000
27.25219727,-99.12431000
27.28271484,-102.57150000
27.31323242,-97.39796000
27.34375000,-95.66217000
27.37426758,-99.59159000
27.40478516,-95.17540000
27.43530273,-91.27670000
27.46582031,-93.89523000
27.49633789,-119.07270000
27.52685547,-97.90780000
27.55737305,-100.79290000
27.58789063,-102.86370000
27.61840820,-94.38455000
27.64892578,-93.58093000
27.67944336,-91.32101000
27.70996094,-88.29245000
27.74047852,-87.81426000
27.77099609,-89.61147000
27.80151367,-92.83879000
27.83203125,-96.60406000
27.86254883,-98.25331000
27.89306641,-95.37204000
27.92358398,-92.55910000
27.95410156,-92.23544000
27.98461914,-95.49625000
28.01513672,-98.85893000
28.04565430,-95.94363000
28.07617188,-97.80130000
28.10668945,-109.25960000
28.13720703,-97.35452000
28.16772461,-93.92883000
28.19824219,-94.09671000
28.22875977,-94.63866000
28.25927734,-95.50311000
28.28979492,-97.63000000
28.32031250,-94.88552000
28.35083008,-92.70087000
28.38134766,-93.37043000
28.41186523,-94.91962000
28.44238281,-96.41743000
28.47290039,-99.45217000
28.50341797,-103.62520000
28.53393555,-101.69310000
28.56445313,-95.46012000
28.59497070,-91.68481000
28.62548828,-91.15947000
28.65600586,-93.62088000
28.68652344,-97.19508000
28.71704102,-94.87329000
28.74755859,-92.17124000
28.77807617,-94.07272000
28.80859375,-104.28010000
28.83911133,-97.14371000
28.86962891,-94.91342000
28.90014648,-99.56216000
28.93066406,-114.03920000
28.96118164,-100.47360000
28.99169922,-103.33460000
29.02221680,-111.09400000
29.05273438,-100.35480000
29.08325195,-99.52969000
29.11376953,-99.45774000
29.14428711,-105.35470000
29.17480469,-99.58319000
29.20532227,-92.76208000
29.23583984,-91.80722000
29.26635742,-95.04607000
29.29687500,-103.66190000
29.32739258,-102.50530000
29.35791016,-97.48967000
29.38842773,-95.97919000
29.41894531,-97.46898000
29.44946289,-102.96340000
29.47998047,-114.62180000
29.51049805,-106.15200000
29.54101563,-97.68687000
29.57153320,-95.14648000
29.60205078,-95.00838000
29.63256836,-91.63176000
29.66308594,-88.79350000
29.69360352,-88.60007000
29.72412109,-91.33427000
29.75463867,-98.74161000
29.78515625,-110.10850000
29.81567383,-103.49070000
29.84619141,-100.25470000
29.87670898,-98.18692000
29.90722656,-96.48289000
29.93774414,-94.09737000
29.96826172,-94.23480000
29.99877930,-97.84557000
30.02929688,-104.29680000
30.05981445,-105.13270000
30.09033203,-100.64380000
30.12084961,-98.95929000
30.15136719,-98.47217000
30.18188477,-96.81548000
30.21240234,-93.78963000
30.24291992,-92.01499000
30.27343750,-93.44247000
30.30395508,-101.29100000
30.33447266,-99.80487000
30.36499023,-93.45074000
30.39550781,-92.51991000
30.42602539,-92.71471000
30.45654297,-90.52139000
30.48706055,-87.79379000
30.51757813,-86.88084000
30.54809570,-89.19669000
30.57861328,-96.12156000
30.60913086,-97.12474000
30.63964844,-97.77157000
30.67016602,-103.13670000
30.70068359,-98.81626000
30.73120117,-92.62910000
30.76171875,-89.04694000
30.79223633,-89.23138000
30.82275391,-93.05692000
30.85327148,-97.18364000
30.88378906,-97.42009000
30.91430664,-100.07130000
30.94482422,-101.39180000
30.97534180,-95.92736000
31.00585938,-92.65370000
31.03637695,-91.77641000
31.06689453,-92.54444000
31.09741211,-93.59752000
31.12792969,-94.94891000
31.15844727,-97.94323000
31.18896484,-97.10246000
31.21948242,-95.40813000
31.25000000,-97.24033000
31.28051758,-97.90906000
31.31103516,-96.20741000
31.34155273,-98.97501000
31.37207031,-102.84870000
31.40258789,-99.41809000
31.43310547,-107.84100000
31.46362305,-100.61580000
31.49414063,-96.31656000
31.52465820,-98.85989000
31.55517578,-93.98746000
31.58569336,-91.49313000
31.61621094,-94.42978000
31.64672852,-97.99758000
31.67724609,-93.96038000
31.70776367,-94.37840000
31.73828125,-97.93433000
31.76879883,-99.48140000
31.79931641,-95.81493000
31.82983398,-91.95117000
31.86035156,-91.87000000
31.89086914,-96.47057000
31.92138672,-110.46160000
31.95190430,-101.55120000
31.98242188,-95.36455000
32.01293945,-92.23798000
32.04345703,-92.55241000
32.07397461,-96.60893000
32.10449219,-101.60290000
32.13500977,-99.09888000
32.16552734,-94.17911000
32.19604492,-92.81175000
32.22656250,-93.47997000
32.25708008,-91.45634000
32.28759766,-90.57083000
32.31811523,-92.98688000
32.34863281,-93.59491000
32.37915039,-92.16791000
32.40966797,-96.48946000
32.44018555,-95.62085000
32.47070313,-89.81892000
32.50122070,-90.14764000
32.53173828,-95.51158000
32.56225586,-110.73020000
32.59277344,-103.57070000
32.62329102,-99.74611000
32.65380859,-100.28910000
32.68432617,-96.32666000
32.71484375,-96.76833000
32.74536133,-103.76050000
32.77587891,-94.01465000
32.80639648,-92.08352000
32.83691406,-96.77962000
32.86743164,-102.66020000
32.89794922,-93.57149000
32.92846680,-91.59249000
32.95898438,-93.01447000
32.98950195,-96.18546000
33.02001953,-95.89957000
33.05053711,-94.71953000
33.08105469,-97.79053000
33.11157227,-117.18680000
33.14208984,-102.33630000
33.17260742,-102.23630000
33.20312500,-102.91520000
33.23364258,-99.07103000
33.26416016,-101.71680000
33.29467773,-99.29709000
33.32519531,-94.80153000
33.35571289,-95.50655000
33.38623047,-98.74431000
33.41674805,-99.94125000
33.44726563,-106.26340000
33.47778320,-95.26592000
33.50830078,-90.10257000
33.53881836,-90.01691000
33.56933594,-95.70937000
33.59985352,-108.33780000
33.63037109,-96.87565000
33.66088867,-98.92845000
33.69140625,-105.64740000
33.72192383,-105.47000000
33.75244141,-124.87800000
33.78295898,-104.72580000
33.81347656,-101.44140000
33.84399414,-99.10140000
33.87451172,-98.91789000
33.90502930,-99.07215000
33.93554688,-92.44084000
33.96606445,-89.98779000
33.99658203,-90.36569000
34.02709961,-91.69346000
34.05761719,-93.39024000
34.08813477,-91.78116000
34.11865234,-90.67135000
34.14916992,-92.95000000
34.17968750,-92.30954000
34.21020508,-90.17961000
34.24072266,-91.82086000
34.27124023,-98.25154000
34.30175781,-106.83070000
34.33227539,-101.82520000
34.36279297,-102.77290000
34.39331055,-105.20250000
34.42382813,-108.29700000
34.45434570,-114.56130000
34.48486328,-101.84450000
34.51538086,-97.35050000
34.54589844,-94.41946000
34.57641602,-92.80613000
34.60693359,-92.27127000
34.63745117,-93.04327000
34.66796875,-96.84524000
34.69848633,-101.29060000
34.72900391,-93.98704000
34.75952148,-90.44534000
34.79003906,-90.76478000
34.82055664,-97.23087000
34.85107422,-95.51762000
34.88159180,-88.44942000
34.91210938,-87.59971000
34.94262695,-92.00130000
34.97314453,-113.68340000
35.00366211,-93.73415000
35.03417969,-92.44099000
35.06469727,-96.74057000
35.09521484,-104.00500000
35.12573242,-104.96310000
35.15625000,-105.32120000
35.18676758,-96.70653000
35.21728516,-92.39410000
35.24780273,-92.09016000
35.27832031,-95.81102000
35.30883789,-109.63250000
35.33935547,-99.48670000
35.36987305,-93.70396000
35.40039063,-93.81171000
35.43090820,-98.31006000
35.46142578,-99.63668000
35.49194336,-93.19100000
35.52246094,-89.72180000
35.55297852,-89.83177000
35.58349609,-93.14404000
35.61401367,-95.94032000
35.64453125,-99.27407000
35.67504883,-112.03370000
35.70556641,-95.66373000
35.73608398,-93.14083000
35.76660156,-94.74097000
35.79711914,-97.58862000
35.82763672,-98.32300000
35.85815430,-98.05283000
35.88867188,-96.94571000
35.91918945,-97.84174000
35.94970703,-97.20631000
35.98022461,-96.45517000
36.01074219,-98.73505000
36.04125977,-94.88578000
36.07177734,-94.31260000
36.10229492,-104.11270000
36.13281250,-95.05275000
36.16333008,-90.67155000
36.19384766,-91.88409000
36.22436523,-96.59924000
36.25488281,-102.12940000
36.28540039,-106.83620000
36.31591797,-94.41116000
36.34643555,-92.09793000
36.37695313,-95.82027000
36.40747070,-106.92790000
36.43798828,-100.93440000
36.46850586,-98.03207000
36.49902344,-96.84928000
36.52954102,-98.90777000
36.56005859,-98.31126000
36.59057617,-97.97909000
36.62109375,-98.73978000
36.65161133,-91.82748000
36.68212891,-88.68277000
36.71264648,-89.46567000
36.74316406,-94.88331000
36.77368164,-100.62640000
36.80419922,-97.24039000
36.83471680,-102.30770000
36.86523438,-100.75760000
36.89575195,-98.01614000
36.92626953,-100.86590000
36.95678711,-94.72806000
36.98730469,-92.17483000
37.01782227,-93.53684000
37.04833984,-95.16853000
37.07885742,-94.45423000
37.10937500,-94.36201000
37.13989258,-94.54810000
37.17041016,-94.50327000
37.20092773,-93.92178000
37.23144531,-94.63638000
37.26196289,-101.03680000
37.29248047,-98.55313000
37.32299805,-95.12929000
37.35351563,-101.67590000
37.38403320,-101.48690000
37.41455078,-94.95625000
37.44506836,-96.03822000
37.47558594,-98.05564000
37.50610352,-99.21060000
37.53662109,-102.26550000
37.56713867,-98.50945000
37.59765625,-97.69242000
37.62817383,-100.06610000
37.65869141,-100.53560000
37.68920898,-101.29100000
37.71972656,-108.59570000
37.75024414,-107.74850000
37.78076172,-100.31570000
37.81127930,-98.84957000
37.84179688,-97.28133000
37.87231445,-94.00877000
37.90283203,-92.84000000
37.93334961,-97.06792000
37.96386719,-105.53380000
37.99438477,-93.30975000
38.02490234,-91.94276000
38.05541992,-96.92008000
38.08593750,-101.20920000
38.11645508,-95.00149000
38.14697266,-97.54291000
38.17749023,-103.71720000
38.20800781,-101.41390000
38.23852539,-102.88450000
38.26904297,-95.15604000
38.29956055,-93.56495000
38.33007813,-96.29446000
38.36059570,-99.07807000
38.39111328,-95.83416000
38.42163086,-92.20816000
38.45214844,-91.08228000
38.48266602,-92.83405000
38.51318359,-97.64748000
38.54370117,-100.85280000
38.57421875,-97.06454000
38.60473633,-95.67015000
38.63525391,-97.43851000
38.66577148,-103.63950000
38.69628906,-98.78356000
38.72680664,-92.82180000
38.75732422,-91.35423000
38.78784180,-92.06967000
38.81835938,-92.47107000
38.84887695,-92.70455000
38.87939453,-93.72818000
38.90991211,-94.96535000
38.94042969,-96.14925000
38.97094727,-97.52562000
39.00146484,-98.39107000
39.03198242,-96.48654000
39.06250000,-94.24704000
39.09301758,-94.59186000
39.12353516,-98.63575000
39.15405273,-106.17310000
39.18457031,-105.79790000
39.21508789,-112.33760000
39.24560547,-98.01718000
39.27612305,-93.74699000
39.30664063,-94.95128000
39.33715820,-101.86520000
39.36767578,-100.63700000
39.39819336,-96.81713000
39.42871094,-95.55441000
39.45922852,-92.41936000
39.48974609,-90.20047000
39.52026367,-90.03386000
39.55078125,-91.07465000
39.58129883,-93.09284000
39.61181641,-94.30801000
39.64233398,-91.88663000
39.67285156,-91.28800000
39.70336914,-94.61398000
39.73388672,-96.51320000
39.76440430,-93.28511000
39.79492188,-93.91780000
39.82543945,-95.66328000
39.85595703,-94.19933000
39.88647461,-94.99912000
39.91699219,-100.37160000
39.94750977,-103.23880000
39.97802734,-99.08307000
40.00854492,-96.36964000
40.03906250,-92.41444000
40.06958008,-88.80194000
40.10009766,-87.19666000
40.13061523,-88.36829000
40.16113281,-93.11371000
40.19165039,-92.13986000
40.22216797,-89.28020000
40.25268555,-90.87398000
40.28320313,-94.34410000
40.31372070,-94.84100000
40.34423828,-94.47136000
40.37475586,-96.27028000
40.40527344,-98.53874000
40.43579102,-93.27972000
40.46630859,-92.34692000
40.49682617,-96.55128000
40.52734375,-100.66790000
40.55786133,-93.91158000
40.58837891,-89.90384000
40.61889648,-88.29357000
40.64941406,-88.72536000
40.67993164,-90.71739000
40.71044922,-92.77490000
40.74096680,-92.52458000
40.77148438,-89.48775000
40.80200195,-86.22578000
40.83251953,-84.57298000
40.86303711,-84.85818000
40.89355469,-86.94772000
40.92407227,-89.19687000
40.95458984,-88.63034000
40.98510742,-87.59940000
41.01562500,-87.54182000
41.04614258,-88.94993000
41.07666016,-94.58977000
41.10717773,-100.63520000
41.13769531,-91.18386000
41.16821289,-90.02139000
41.19873047,-92.33322000
41.22924805,-92.58495000
41.25976563,-89.33640000
41.29028320,-87.49816000
41.32080078,-87.86788000
41.35131836,-90.28680000
41.38183594,-93.88634000
41.41235352,-96.04219000
41.44287109,-93.69191000
41.47338867,-89.41537000
41.50390625,-86.34862000
41.53442383,-85.36508000
41.56494141,-86.75616000
41.59545898,-90.62054000
41.62597656,-95.51073000
41.65649414,-96.77257000
41.68701172,-96.00686000
41.71752930,-100.36840000
41.74804688,-103.33470000
41.77856445,-98.12301000
41.80908203,-101.00940000
41.83959961,-99.25360000
41.87011719,-96.04148000
41.90063477,-94.27892000
41.93115234,-92.71751000
41.96166992,-92.20850000
41.99218750,-92.08526000
42.02270508,-90.83026000
42.05322266,-90.56904000
42.08374023,-92.95615000
42.11425781,-92.22454000
42.14477539,-89.34544000
42.17529297,-89.57099000
42.20581055,-92.55006000
42.23632813,-88.11731000
42.26684570,-83.43036000
42.29736328,-82.07307000
42.32788086,-83.35555000
42.35839844,-86.85728000
42.38891602,-91.17699000
42.41943359,-91.67261000
42.44995117,-91.43653000
42.48046875,-94.33357000
42.51098633,-99.31294000
42.54150391,-94.76563000
42.57202148,-90.82518000
42.60253906,-88.01675000
42.63305664,-86.62521000
42.66357422,-87.97641000
42.69409180,-93.35476000
42.72460938,-98.33945000
42.75512695,-99.28590000
42.78564453,-106.06270000
42.81616211,-94.55369000
42.84667969,-92.32939000
42.87719727,-91.40166000
42.90771484,-88.33957000
42.93823242,-87.08472000
42.96875000,-89.14049000
42.99926758,-94.97101000
43.02978516,-101.06070000
43.06030273,-101.33610000
43.09082031,-94.94534000
43.12133789,-89.68176000
43.15185547,-86.68661000
43.18237305,-85.36579000
43.21289063,-85.57064000
43.24340820,-87.82780000
43.27392578,-93.37399000
43.30444336,-105.57220000
43.33496094,-100.84680000
43.36547852,-96.71991000
43.39599609,-96.55495000
43.42651367,-99.40586000
43.45703125,-97.68375000
43.48754883,-93.97910000
43.51806641,-91.37328000
43.54858398,-90.57465000
43.57910156,-92.40968000
43.60961914,-96.11184000
43.64013672,-96.50283000
43.67065430,-91.82934000
43.70117188,-91.50784000
43.73168945,-98.79627000
43.76220703,-97.60788000
43.79272461,-92.03475000
43.82324219,-91.10390000
43.85375977,-91.30944000
43.88427734,-91.84361000
43.91479492,-91.37902000
43.94531250,-90.49468000
43.97583008,-89.99359000
44.00634766,-90.82985000
44.03686523,-94.30320000
44.06738281,-97.84713000
44.09790039,-95.91857000
44.12841797,-95.12962000
44.15893555,-97.20242000
44.18945313,-103.95500000
44.21997070,-109.97540000
44.25048828,-110.76300000
44.28100586,-98.36983000
44.31152344,-93.42412000
44.34204102,-93.03074000
44.37255859,-95.48087000
44.40307617,-96.64104000
44.43359375,-93.88584000
44.46411133,-92.43568000
44.49462891,-92.89570000
44.52514648,-93.94106000
44.55566406,-94.27331000
44.58618164,-94.54794000
44.61669922,-95.59964000
44.64721680,-95.31472000
44.67773438,-94.04209000
44.70825195,-94.51814000
44.73876953,-94.94855000
44.76928711,-93.70172000
44.79980469,-92.99586000
44.83032227,-93.17392000
44.86083984,-93.85008000
44.89135742,-95.67468000
44.92187500,-98.62042000
44.95239258,-96.62737000
44.98291016,-93.86123000
45.01342773,-93.67443000
45.04394531,-95.17075000
45.07446289,-96.28170000
45.10498047,-95.70674000
45.13549805,-95.19508000
45.16601563,-94.88171000
45.19653320,-94.62422000
45.22705078,-96.14806000
45.25756836,-102.22210000
45.28808594,-108.24220000
45.31860352,-98.05521000
45.34912109,-96.54720000
45.37963867,-96.73726000
45.41015625,-93.00211000
45.44067383,-91.55167000
45.47119141,-94.97669000
45.50170898,-113.47890000
45.53222656,-100.24750000
45.56274414,-97.91935000
45.59326172,-98.70389000
45.62377930,-97.93509000
45.65429688,-94.79459000
45.68481445,-92.23149000
45.71533203,-92.30805000
45.74584961,-97.09923000
45.77636719,-105.08060000
45.80688477,-92.75743000
45.83740234,-89.33128000
45.86791992,-88.58567000
45.89843750,-88.50132000
45.92895508,-88.68158000
45.95947266,-90.28518000
45.98999023,-94.64363000
46.02050781,-107.35890000
46.05102539,-100.55150000
46.08154297,-95.38528000
46.11206055,-96.07454000
46.14257813,-100.74280000
46.17309570,-99.40471000
46.20361328,-97.57251000
46.23413086,-99.25313000
46.26464844,-97.27451000
46.29516602,-94.21424000
46.32568359,-93.35687000
46.35620117,-93.95927000
46.38671875,-95.68279000
46.41723633,-99.11029000
46.44775391,-107.14930000
46.47827148,-102.36420000
46.50878906,-97.07240000
46.53930664,-97.23253000
46.56982422,-102.37670000
46.60034180,-109.15770000
46.63085938,-100.35430000
46.66137695,-97.22564000
46.69189453,-96.91428000
46.72241211,-96.69137000
46.75292969,-95.91915000
46.78344727,-95.45635000
46.81396484,-95.93639000
46.84448242,-96.25591000
46.87500000,-96.13747000
46.90551758,-97.22778000
46.93603516,-96.74319000
46.96655273,-92.13400000
46.99707031,-88.91920000
47.02758789,-88.53705000
47.05810547,-91.00381000
47.08862305,-95.22105000
47.11914063,-96.39845000
47.14965820,-95.15321000
47.18017578,-94.44781000
47.21069336,-94.82489000
47.24121094,-96.94856000
47.27172852,-101.53360000
47.30224609,-101.57440000
47.33276367,-98.29044000
47.36328125,-98.91898000
47.39379883,-103.80750000
47.42431641,-99.89996000
47.45483398,-94.88243000
47.48535156,-94.06304000
47.51586914,-97.18758000
47.54638672,-101.01980000
47.57690430,-97.60027000
47.60742188,-96.21467000
47.63793945,-97.10600000
47.66845703,-99.26040000
47.69897461,-97.61305000
47.72949219,-93.40515000
47.76000977,-91.42692000
47.79052734,-92.43813000
47.82104492,-97.31334000
47.85156250,-103.46580000
47.88208008,-101.27160000
47.91259766,-104.61970000
47.94311523,-111.41890000
47.97363281,-105.20870000
48.00415039,-116.96230000
48.03466797,-98.30768000
48.06518555,-93.25515000
48.09570313,-91.92200000
48.12622070,-92.00638000
48.15673828,-92.09563000
48.18725586,-91.41580000
48.21777344,-91.57517000
48.24829102,-94.27084000
48.27880859,-97.23626000
48.30932617,-97.47604000
48.33984375,-102.61910000
48.37036133,-98.99041000
48.40087891,-95.54924000
48.43139648,-99.43413000
48.46191406,-103.43140000
48.49243164,-95.73838000
48.52294922,-94.63692000
48.55346680,-96.89197000
48.58398438,-98.84660000
48.61450195,-96.89426000
48.64501953,-94.32666000
48.67553711,-94.06586000
48.70605469,-98.55457000
48.73657227,-105.92300000
48.76708984,-94.78425000
48.79760742,-90.86068000
48.82812500,-89.03443000
48.85864258,-88.30098000
48.88916016,-88.85257000
48.91967773,-90.89049000
48.95019531,-93.35020000
48.98071289,-95.11200000
49.01123047,-97.89421000
49.04174805,-99.58920000
49.07226563,-97.38526000
49.10278320,-96.62132000
49.13330078,-97.14905000
49.16381836,-98.02377000
49.19433594,-101.62740000
49.22485352,-115.62910000
49.25537109,-106.68040000
49.28588867,-101.56860000
49.31640625,-97.28828000
49.34692383,-94.04011000
49.37744141,-92.98624000
49.40795898,-92.53066000
49.43847656,-91.53314000
49.46899414,-90.90600000
49.49951172,-90.79896000
49.53002930,-91.18513000
49.56054688,-92.64630000
49.59106445,-96.00871000
49.62158203,-97.68441000
49.65209961,-94.34342000
49.68261719,-92.43594000
49.71313477,-90.70789000
49.74365234,-89.35251000
49.77416992,-90.03072000
49.80468750,-93.28818000
49.83520508,-98.19991000
49.86572266,-99.95203000
49.89624023,-98.73615000
49.92675781,-97.60484000
49.95727539,-97.04640000
49.98779297,-97.64445000
50.01831055,-101.27510000
