Frequency,Channel A
(MHz),(dBu)

0.00000000,-26.79869000
0.03051758,-27.09557000
0.06103516,-32.06582000
0.09155273,-41.55682000
0.12207031,-61.49118000
0.15258789,-59.47761000
0.18310547,-60.64743000
0.21362305,-62.10706000
0.24414063,-66.26487000
0.27465820,-77.14391000
0.30517578,-75.74166000
0.33569336,-68.09295000
0.36621094,-62.57850000
0.39672852,-61.93370000
0.42724609,-66.73464000
0.45776367,-64.28046000
0.48828125,-59.06838000
0.51879883,-57.23206000
0.54931641,-57.37895000
0.57983398,-59.60945000
0.61035156,-65.64793000
0.64086914,-73.89484000
0.67138672,-60.91688000
0.70190430,-58.36928000
0.73242188,-60.76389000
0.76293945,-68.35450000
0.79345703,-75.47745000
0.82397461,-71.04518000
0.85449219,-68.29857000
0.88500977,-67.03530000
0.91552734,-65.02757000
0.94604492,-63.89170000
0.97656250,-66.37765000
1.00708008,-70.28684000
1.03759766,-65.81876000
1.06811523,-64.71215000
1.09863281,-66.34765000
1.12915039,-67.95450000
1.15966797,-70.42833000
1.19018555,-79.74187000
1.22070313,-72.59413000
1.25122070,-69.41328000
1.28173828,-72.25404000
1.31225586,-74.20369000
1.34277344,-71.33666000
1.37329102,-73.84564000
1.40380859,-88.67547000
1.43432617,-78.85577000
1.46484375,-80.64483000
1.49536133,-78.73228000
1.52587891,-71.99855000
1.55639648,-72.35645000
1.58691406,-78.41579000
1.61743164,-75.10357000
1.64794922,-74.49941000
1.67846680,-74.19474000
1.70898438,-74.22597000
1.73950195,-78.51575000
1.77001953,-77.49509000
1.80053711,-76.95065000
1.83105469,-78.79797000
1.86157227,-83.43697000
1.89208984,-81.41720000
1.92260742,-75.31048000
1.95312500,-73.41228000
1.98364258,-73.95151000
2.01416016,-80.11547000
2.04467773,-82.36695000
2.07519531,-76.42770000
2.10571289,-74.25267000
2.13623047,-72.12956000
2.16674805,-71.50784000
2.19726563,-73.55814000
2.22778320,-79.55376000
2.25830078,-85.96577000
2.28881836,-97.42064000
2.31933594,-80.21078000
2.34985352,-76.05710000
2.38037109,-77.08810000
2.41088867,-80.36024000
2.44140625,-77.21860000
2.47192383,-75.66377000
2.50244141,-79.15565000
2.53295898,-94.19296000
2.56347656,-80.86818000
2.59399414,-79.39320000
2.62451172,-80.45486000
2.65502930,-81.57166000
2.68554688,-91.37543000
2.71606445,-83.61489000
2.74658203,-80.81290000
2.77709961,-79.83062000
2.80761719,-75.42170000
2.83813477,-74.65083000
2.86865234,-75.12263000
2.89916992,-76.14908000
2.92968750,-81.15149000
2.96020508,-83.42200000
2.99072266,-78.68250000
3.02124023,-73.74282000
3.05175781,-72.06255000
3.08227539,-76.25909000
3.11279297,-86.61264000
3.14331055,-79.65356000
3.17382813,-80.72129000
3.20434570,-79.40591000
3.23486328,-73.99959000
3.26538086,-70.74561000
3.29589844,-70.63315000
3.32641602,-74.42056000
3.35693359,-83.66619000
3.38745117,-87.53841000
3.41796875,-83.41514000
3.44848633,-79.18435000
3.47900391,-83.00363000
3.50952148,-78.83515000
3.54003906,-72.32403000
3.57055664,-71.46495000
3.60107422,-74.55413000
3.63159180,-83.34747000
3.66210938,-86.26456000
3.69262695,-78.98279000
3.72314453,-80.47733000
3.75366211,-77.03088000
3.78417969,-74.58617000
3.81469727,-78.97304000
3.84521484,-82.65942000
3.87573242,-75.73689000
3.90625000,-75.86129000
3.93676758,-82.80750000
3.96728516,-81.06177000
3.99780273,-78.12994000
4.02832031,-79.30038000
4.05883789,-85.39307000
4.08935547,-84.86562000
4.11987305,-78.68430000
4.15039063,-80.75015000
4.18090820,-82.67510000
4.21142578,-86.76734000
4.24194336,-82.51620000
4.27246094,-79.13390000
4.30297852,-79.06238000
4.33349609,-76.00940000
4.36401367,-73.19185000
4.39453125,-72.85334000
4.42504883,-75.86823000
4.45556641,-81.88423000
4.48608398,-83.51758000
4.51660156,-81.67345000
4.54711914,-81.73935000
4.57763672,-79.14233000
4.60815430,-76.32922000
4.63867188,-75.96251000
4.66918945,-77.99017000
4.69970703,-81.75864000
4.73022461,-87.34058000
4.76074219,-90.16049000
4.79125977,-87.36449000
4.82177734,-80.76302000
4.85229492,-77.14684000
4.88281250,-78.10025000
4.91333008,-85.68956000
4.94384766,-93.40800000
4.97436523,-91.44521000
5.00488281,-96.62331000
5.03540039,-95.67725000
5.06591797,-82.45575000
5.09643555,-77.35496000
5.12695313,-78.31725000
5.15747070,-84.17060000
5.18798828,-82.95932000
5.21850586,-80.76117000
5.24902344,-79.94718000
5.27954102,-81.27885000
5.31005859,-83.98223000
5.34057617,-88.87074000
5.37109375,-96.52264000
5.40161133,-84.47719000
5.43212891,-81.09740000
5.46264648,-81.10093000
5.49316406,-82.58789000
5.52368164,-83.67998000
5.55419922,-84.46242000
5.58471680,-85.99352000
5.61523438,-81.75412000
5.64575195,-79.78577000
5.67626953,-79.94077000
5.70678711,-78.29470000
5.73730469,-76.98375000
5.76782227,-80.04977000
5.79833984,-84.62066000
5.82885742,-80.28017000
5.85937500,-77.89651000
5.88989258,-78.30019000
5.92041016,-79.84218000
5.95092773,-78.73683000
5.98144531,-79.95983000
6.01196289,-81.35953000
6.04248047,-79.01658000
6.07299805,-82.91066000
6.10351563,-79.79397000
6.13403320,-75.53537000
6.16455078,-75.67058000
6.19506836,-77.27204000
6.22558594,-77.59436000
6.25610352,-80.85502000
6.28662109,-84.35178000
6.31713867,-75.60014000
6.34765625,-73.98381000
6.37817383,-77.07141000
6.40869141,-85.95488000
6.43920898,-82.05970000
6.46972656,-78.92932000
6.50024414,-78.25671000
6.53076172,-79.32753000
6.56127930,-83.74153000
6.59179688,-92.12981000
6.62231445,-82.16418000
6.65283203,-78.27672000
6.68334961,-78.39555000
6.71386719,-81.11378000
6.74438477,-83.96735000
6.77490234,-82.52995000
6.80541992,-78.98603000
6.83593750,-77.16655000
6.86645508,-78.40838000
6.89697266,-84.42950000
6.92749023,-94.29617000
6.95800781,-83.94631000
6.98852539,-81.69069000
7.01904297,-82.32495000
7.04956055,-85.71512000
7.08007813,-91.54665000
7.11059570,-87.82661000
7.14111328,-84.41909000
7.17163086,-84.48899000
7.20214844,-88.58034000
7.23266602,-99.58315000
7.26318359,-92.58271000
7.29370117,-88.98114000
7.32421875,-87.97154000
7.35473633,-87.35201000
7.38525391,-88.64883000
7.41577148,-97.45422000
7.44628906,-94.08875000
7.47680664,-88.12984000
7.50732422,-88.40411000
7.53784180,-91.11966000
7.56835938,-89.26421000
7.59887695,-85.13332000
7.62939453,-82.20378000
7.65991211,-80.81799000
7.69042969,-81.34998000
7.72094727,-84.18042000
7.75146484,-87.41289000
7.78198242,-86.60620000
7.81250000,-87.03987000
7.84301758,-91.20183000
7.87353516,-106.87330000
7.90405273,-91.73690000
7.93457031,-85.20387000
7.96508789,-82.64545000
7.99560547,-81.68281000
8.02612305,-81.97117000
8.05664063,-85.27187000
8.08715820,-92.91679000
8.11767578,-86.66024000
8.14819336,-83.30832000
8.17871094,-83.08734000
8.20922852,-84.96751000
8.23974609,-88.94650000
8.27026367,-95.63796000
8.30078125,-98.06580000
8.33129883,-92.18542000
8.36181641,-90.16731000
8.39233398,-91.22452000
8.42285156,-89.89627000
8.45336914,-84.83048000
8.48388672,-81.79397000
8.51440430,-81.05518000
8.54492188,-82.28538000
8.57543945,-85.20001000
8.60595703,-89.44775000
8.63647461,-92.68783000
8.66699219,-92.28366000
8.69750977,-93.72834000
8.72802734,-89.92862000
8.75854492,-85.71375000
8.78906250,-86.59628000
8.81958008,-93.95275000
8.85009766,-95.57445000
8.88061523,-93.15350000
8.91113281,-96.52660000
8.94165039,-94.30340000
8.97216797,-87.60594000
9.00268555,-83.00784000
9.03320313,-80.80746000
9.06372070,-81.05973000
9.09423828,-84.56017000
9.12475586,-97.13531000
9.15527344,-88.97641000
9.18579102,-83.63236000
9.21630859,-82.22969000
9.24682617,-82.91959000
9.27734375,-85.52911000
9.30786133,-88.27106000
9.33837891,-88.87694000
9.36889648,-92.23955000
9.39941406,-105.53890000
9.42993164,-87.65756000
9.46044922,-83.14751000
9.49096680,-83.03447000
9.52148438,-87.40425000
9.55200195,-101.50350000
9.58251953,-89.52190000
9.61303711,-86.67357000
9.64355469,-86.59748000
9.67407227,-87.17559000
9.70458984,-89.09988000
9.73510742,-93.71955000
9.76562500,-92.16913000
9.79614258,-86.06143000
9.82666016,-83.27923000
9.85717773,-83.14114000
9.88769531,-85.71939000
9.91821289,-91.61205000
9.94873047,-96.50822000
9.97924805,-94.16451000
10.00976563,-88.64900000
10.04028320,-86.33788000
10.07080078,-86.32477000
10.10131836,-82.49642000
10.13183594,-79.43932000
10.16235352,-79.10152000
10.19287109,-81.37921000
10.22338867,-86.05867000
10.25390625,-86.80222000
10.28442383,-85.73811000
10.31494141,-86.63168000
10.34545898,-86.29494000
10.37597656,-86.10741000
10.40649414,-87.82030000
10.43701172,-91.78959000
10.46752930,-103.57160000
10.49804688,-88.20593000
10.52856445,-82.28112000
10.55908203,-81.19434000
10.58959961,-82.86269000
10.62011719,-85.67989000
10.65063477,-89.40735000
10.68115234,-91.18405000
10.71166992,-87.85963000
10.74218750,-87.77474000
10.77270508,-92.15683000
10.80322266,-96.16138000
10.83374023,-112.70600000
10.86425781,-90.33253000
10.89477539,-84.88101000
10.92529297,-82.41111000
10.95581055,-81.63558000
10.98632813,-83.24409000
11.01684570,-88.94049000
11.04736328,-94.52302000
11.07788086,-87.26368000
11.10839844,-85.22775000
11.13891602,-83.30640000
11.16943359,-81.18047000
11.19995117,-79.89238000
11.23046875,-78.75652000
11.26098633,-78.45166000
11.29150391,-79.96603000
11.32202148,-83.15616000
11.35253906,-87.00310000
11.38305664,-91.54977000
11.41357422,-97.41156000
11.44409180,-89.38038000
11.47460938,-86.01744000
11.50512695,-85.37799000
11.53564453,-84.81948000
11.56616211,-82.87416000
11.59667969,-80.54047000
11.62719727,-80.58698000
11.65771484,-83.35579000
11.68823242,-86.03636000
11.71875000,-84.47829000
11.74926758,-84.69257000
11.77978516,-89.08168000
11.81030273,-111.97990000
11.84082031,-89.86744000
11.87133789,-85.79025000
11.90185547,-85.08424000
11.93237305,-85.59880000
11.96289063,-84.77750000
11.99340820,-80.14248000
12.02392578,-78.56965000
12.05444336,-80.56602000
12.08496094,-83.80072000
12.11547852,-85.91869000
12.14599609,-87.40646000
12.17651367,-80.89989000
12.20703125,-77.89368000
12.23754883,-77.78886000
12.26806641,-79.54819000
12.29858398,-82.72836000
12.32910156,-85.89174000
12.35961914,-85.77330000
12.39013672,-83.59290000
12.42065430,-82.94987000
12.45117188,-83.86938000
12.48168945,-84.13346000
12.51220703,-85.38892000
12.54272461,-92.33635000
12.57324219,-88.58292000
12.60375977,-82.33700000
12.63427734,-81.37053000
12.66479492,-84.55777000
12.69531250,-100.05480000
12.72583008,-85.90890000
12.75634766,-81.81517000
12.78686523,-84.80731000
12.81738281,-105.58260000
12.84790039,-85.44757000
12.87841797,-86.37601000
12.90893555,-97.90285000
12.93945313,-83.05222000
12.96997070,-80.82770000
13.00048828,-85.14930000
13.03100586,-85.55363000
13.06152344,-79.63615000
13.09204102,-79.48729000
13.12255859,-84.86655000
13.15307617,-109.72770000
13.18359375,-88.53072000
13.21411133,-82.07956000
13.24462891,-76.02431000
13.27514648,-72.57249000
13.30566406,-71.35585000
13.33618164,-72.15102000
13.36669922,-74.79586000
13.39721680,-78.97002000
13.42773438,-83.09555000
13.45825195,-82.21028000
13.48876953,-75.48618000
13.51928711,-69.57825000
13.54980469,-67.00591000
13.58032227,-68.55222000
13.61083984,-76.55767000
13.64135742,-76.52161000
13.67187500,-73.61040000
13.70239258,-77.58365000
13.73291016,-86.58571000
13.76342773,-82.08412000
13.79394531,-80.77284000
13.82446289,-82.38326000
13.85498047,-88.65535000
13.88549805,-87.43970000
13.91601563,-81.08482000
13.94653320,-81.29237000
13.97705078,-87.51878000
14.00756836,-81.93684000
14.03808594,-76.80648000
14.06860352,-75.38348000
14.09912109,-76.51833000
14.12963867,-80.06741000
14.16015625,-83.24605000
14.19067383,-79.40897000
14.22119141,-76.28661000
14.25170898,-75.40540000
14.28222656,-77.39292000
14.31274414,-85.46012000
14.34326172,-81.58553000
14.37377930,-74.63810000
14.40429688,-72.32213000
14.43481445,-72.70348000
14.46533203,-75.14987000
14.49584961,-79.00285000
14.52636719,-82.58697000
14.55688477,-83.28023000
14.58740234,-82.54366000
14.61791992,-82.64105000
14.64843750,-87.37342000
14.67895508,-90.47630000
14.70947266,-80.26639000
14.73999023,-77.82130000
14.77050781,-78.90343000
14.80102539,-83.80767000
14.83154297,-92.06856000
14.86206055,-81.71487000
14.89257813,-77.94534000
14.92309570,-77.08102000
14.95361328,-78.21394000
14.98413086,-81.18092000
15.01464844,-82.67518000
15.04516602,-80.66990000
15.07568359,-79.49741000
15.10620117,-79.27237000
15.13671875,-79.62160000
15.16723633,-79.89743000
15.19775391,-78.59616000
15.22827148,-77.36452000
15.25878906,-78.45564000
15.28930664,-83.46793000
15.31982422,-90.74159000
15.35034180,-85.35393000
15.38085938,-84.68410000
15.41137695,-87.31658000
15.44189453,-91.64586000
15.47241211,-89.79362000
15.50292969,-85.14612000
15.53344727,-84.64018000
15.56396484,-89.96429000
15.59448242,-91.38644000
15.62500000,-85.94994000
15.65551758,-83.88101000
15.68603516,-81.90976000
15.71655273,-80.49393000
15.74707031,-80.68924000
15.77758789,-83.74217000
15.80810547,-90.65662000
15.83862305,-86.09685000
15.86914063,-82.20952000
15.89965820,-81.47983000
15.93017578,-83.00687000
15.96069336,-85.74699000
15.99121094,-86.86008000
16.02172852,-87.04108000
16.05224609,-87.67622000
16.08276367,-89.17248000
16.11328125,-93.56056000
16.14379883,-95.86031000
16.17431641,-91.19954000
16.20483398,-89.84065000
16.23535156,-92.14180000
16.26586914,-101.82260000
16.29638672,-93.02616000
16.32690430,-87.74292000
16.35742188,-85.56057000
16.38793945,-84.34991000
16.41845703,-84.30752000
16.44897461,-87.20074000
16.47949219,-101.52700000
16.51000977,-89.86768000
16.54052734,-84.65955000
16.57104492,-83.70361000
16.60156250,-84.69350000
16.63208008,-86.63987000
16.66259766,-88.93014000
16.69311523,-90.82923000
16.72363281,-92.16076000
16.75415039,-90.27165000
16.78466797,-86.08611000
16.81518555,-83.91938000
16.84570313,-83.54499000
16.87622070,-84.36586000
16.90673828,-85.74928000
16.93725586,-87.46059000
16.96777344,-91.90483000
16.99829102,-104.32380000
17.02880859,-110.98420000
17.05932617,-100.73260000
17.08984375,-92.97391000
17.12036133,-94.37351000
17.15087891,-101.34210000
17.18139648,-92.55515000
17.21191406,-90.99323000
17.24243164,-93.46859000
17.27294922,-99.27077000
17.30346680,-105.59210000
17.33398438,-98.99995000
17.36450195,-96.82243000
17.39501953,-100.20170000
17.42553711,-110.85670000
17.45605469,-94.98005000
17.48657227,-91.36234000
17.51708984,-93.45661000
17.54760742,-103.41920000
17.57812500,-95.67003000
17.60864258,-92.06733000
17.63916016,-92.10328000
17.66967773,-95.70668000
17.70019531,-93.85767000
17.73071289,-83.67171000
17.76123047,-76.88706000
17.79174805,-73.14805000
17.82226563,-72.45881000
17.85278320,-75.08049000
17.88330078,-81.91148000
17.91381836,-98.40674000
17.94433594,-93.27562000
17.97485352,-88.67944000
18.00537109,-86.62811000
18.03588867,-87.64526000
18.06640625,-94.18987000
18.09692383,-100.58900000
18.12744141,-91.28040000
18.15795898,-89.10191000
18.18847656,-89.80098000
18.21899414,-93.20805000
18.24951172,-103.59370000
18.28002930,-98.10493000
18.31054688,-91.57823000
18.34106445,-90.54735000
18.37158203,-92.36451000
18.40209961,-95.12927000
18.43261719,-93.17382000
18.46313477,-90.27744000
18.49365234,-90.60326000
18.52416992,-94.44165000
18.55468750,-102.69060000
18.58520508,-125.55930000
18.61572266,-110.74700000
18.64624023,-107.73900000
18.67675781,-110.78740000
18.70727539,-111.05640000
18.73779297,-101.68930000
18.76831055,-99.39460000
18.79882813,-100.00220000
18.82934570,-100.31880000
18.85986328,-101.64120000
18.89038086,-103.36120000
18.92089844,-98.86394000
18.95141602,-96.41966000
18.98193359,-96.92117000
19.01245117,-100.87270000
19.04296875,-107.00360000
19.07348633,-99.60132000
19.10400391,-98.04166000
19.13452148,-101.88680000
19.16503906,-99.89667000
19.19555664,-92.80629000
19.22607422,-90.55632000
19.25659180,-91.49105000
19.28710938,-94.81861000
19.31762695,-101.81290000
19.34814453,-109.57230000
19.37866211,-99.90897000
19.40917969,-97.82531000
19.43969727,-95.86237000
19.47021484,-94.47876000
19.50073242,-95.45898000
19.53125000,-97.16154000
19.56176758,-94.79804000
19.59228516,-90.46765000
19.62280273,-87.85979000
19.65332031,-88.32977000
19.68383789,-94.07869000
19.71435547,-103.97090000
19.74487305,-92.03175000
19.77539063,-89.86760000
19.80590820,-90.40847000
19.83642578,-91.78941000
19.86694336,-91.85757000
19.89746094,-91.80198000
19.92797852,-93.43413000
19.95849609,-94.82462000
19.98901367,-96.37332000
20.01953125,-106.82110000
20.05004883,-98.83273000
20.08056641,-92.40286000
20.11108398,-91.78631000
20.14160156,-96.10263000
20.17211914,-111.43920000
20.20263672,-96.05148000
20.23315430,-94.43604000
20.26367188,-97.60254000
20.29418945,-97.81015000
20.32470703,-96.46171000
20.35522461,-96.61225000
20.38574219,-95.95358000
20.41625977,-94.67580000
20.44677734,-94.15649000
20.47729492,-95.32799000
20.50781250,-96.70740000
20.53833008,-94.57645000
20.56884766,-92.50019000
20.59936523,-93.74699000
20.62988281,-103.91160000
20.66040039,-94.53653000
20.69091797,-89.22693000
20.72143555,-89.00321000
20.75195313,-92.16319000
20.78247070,-96.51965000
20.81298828,-94.75603000
20.84350586,-92.58466000
20.87402344,-93.22792000
20.90454102,-97.20525000
20.93505859,-106.07450000
20.96557617,-104.74020000
20.99609375,-96.53151000
21.02661133,-91.66274000
21.05712891,-88.47697000
21.08764648,-87.31363000
21.11816406,-89.47194000
21.14868164,-101.00510000
21.17919922,-94.39548000
21.20971680,-89.00768000
21.24023438,-89.03812000
21.27075195,-91.88774000
21.30126953,-96.68980000
21.33178711,-103.35350000
21.36230469,-110.61590000
21.39282227,-109.20460000
21.42333984,-104.35030000
21.45385742,-101.78010000
21.48437500,-104.51520000
21.51489258,-110.66560000
21.54541016,-96.49472000
21.57592773,-93.00401000
21.60644531,-93.14584000
21.63696289,-94.63734000
21.66748047,-97.14806000
21.69799805,-95.72766000
21.72851563,-91.28261000
21.75903320,-89.64886000
21.78955078,-90.05054000
21.82006836,-91.73128000
21.85058594,-93.69452000
21.88110352,-93.30348000
21.91162109,-91.50809000
21.94213867,-90.89333000
21.97265625,-91.50327000
22.00317383,-92.29783000
22.03369141,-92.95718000
22.06420898,-94.68792000
22.09472656,-95.80756000
22.12524414,-92.35860000
22.15576172,-90.88742000
22.18627930,-93.31307000
22.21679688,-101.62210000
22.24731445,-100.87920000
22.27783203,-94.61167000
22.30834961,-91.86888000
22.33886719,-91.98249000
22.36938477,-96.09184000
22.39990234,-99.41924000
22.43041992,-93.78075000
22.46093750,-91.88912000
22.49145508,-92.32912000
22.52197266,-93.23607000
22.55249023,-93.06939000
22.58300781,-93.20496000
22.61352539,-94.48892000
22.64404297,-93.80431000
22.67456055,-91.38681000
22.70507813,-90.31399000
22.73559570,-91.21312000
22.76611328,-94.50009000
22.79663086,-102.06860000
22.82714844,-108.44220000
22.85766602,-99.93384000
22.88818359,-97.47397000
22.91870117,-98.19804000
22.94921875,-101.78950000
22.97973633,-100.71250000
23.01025391,-100.29510000
23.04077148,-108.61160000
23.07128906,-105.26470000
23.10180664,-110.62400000
23.13232422,-98.88791000
23.16284180,-91.06742000
23.19335938,-88.77224000
23.22387695,-89.76054000
23.25439453,-93.73810000
23.28491211,-99.42773000
23.31542969,-99.36205000
23.34594727,-97.03946000
23.37646484,-94.80610000
23.40698242,-94.58354000
23.43750000,-98.06961000
23.46801758,-108.15200000
23.49853516,-103.13010000
23.52905273,-98.95712000
23.55957031,-97.40360000
23.59008789,-96.64082000
23.62060547,-96.44324000
23.65112305,-96.98672000
23.68164063,-97.63000000
23.71215820,-97.19443000
23.74267578,-96.85602000
23.77319336,-98.07328000
23.80371094,-100.95270000
23.83422852,-104.44360000
23.86474609,-105.08110000
23.89526367,-101.93320000
23.92578125,-100.46740000
23.95629883,-103.93720000
23.98681641,-107.32750000
24.01733398,-99.11627000
24.04785156,-98.29465000
24.07836914,-103.79200000
24.10888672,-132.78370000
24.13940430,-110.01280000
24.16992188,-101.82780000
24.20043945,-96.43695000
24.23095703,-94.24625000
24.26147461,-94.57466000
24.29199219,-99.10587000
24.32250977,-103.43410000
24.35302734,-96.65905000
24.38354492,-96.24561000
24.41406250,-100.38910000
24.44458008,-107.24610000
24.47509766,-119.12390000
24.50561523,-103.83330000
24.53613281,-97.34238000
24.56665039,-96.67004000
24.59716797,-99.00733000
24.62768555,-104.66650000
24.65820313,-103.13250000
24.68872070,-99.78827000
24.71923828,-99.52840000
24.74975586,-94.75247000
24.78027344,-92.42092000
24.81079102,-93.61740000
24.84130859,-96.19041000
24.87182617,-96.55257000
24.90234375,-95.79094000
24.93286133,-95.67422000
24.96337891,-96.87810000
24.99389648,-98.39237000
25.02441406,-97.37572000
25.05493164,-96.86776000
25.08544922,-98.15372000
25.11596680,-100.42330000
25.14648438,-103.77330000
25.17700195,-106.54320000
25.20751953,-104.24810000
25.23803711,-101.28010000
25.26855469,-100.55920000
25.29907227,-101.05870000
25.32958984,-101.32190000
25.36010742,-104.03170000
25.39062500,-118.88740000
25.42114258,-103.30200000
25.45166016,-101.26180000
25.48217773,-106.97250000
25.51269531,-110.28320000
25.54321289,-104.03890000
25.57373047,-99.80327000
25.60424805,-93.97403000
25.63476563,-91.58827000
25.66528320,-92.52975000
25.69580078,-96.30455000
25.72631836,-100.69740000
25.75683594,-98.05795000
25.78735352,-93.78152000
25.81787109,-91.16917000
25.84838867,-90.50742000
25.87890625,-92.29901000
25.90942383,-99.20168000
25.93994141,-101.31630000
25.97045898,-93.51231000
26.00097656,-92.05666000
26.03149414,-92.90717000
26.06201172,-94.30215000
26.09252930,-95.92609000
26.12304688,-95.56304000
26.15356445,-92.24982000
26.18408203,-91.41239000
26.21459961,-93.72865000
26.24511719,-96.33774000
26.27563477,-95.21695000
26.30615234,-94.80598000
26.33666992,-96.92949000
26.36718750,-99.22207000
26.39770508,-100.64050000
26.42822266,-101.41380000
26.45874023,-97.25360000
26.48925781,-95.54445000
26.51977539,-94.64367000
26.55029297,-92.30882000
26.58081055,-91.38985000
26.61132813,-93.61841000
26.64184570,-99.94210000
26.67236328,-97.52449000
26.70288086,-92.57068000
26.73339844,-90.46177000
26.76391602,-89.71730000
26.79443359,-90.50752000
26.82495117,-94.52744000
26.85546875,-106.00710000
26.88598633,-100.52450000
26.91650391,-101.23710000
26.94702148,-112.36250000
26.97753906,-103.70390000
27.00805664,-104.18760000
27.03857422,-106.52340000
27.06909180,-100.99240000
27.09960938,-95.01049000
27.13012695,-92.51420000
27.16064453,-92.45479000
27.19116211,-93.57102000
27.22167969,-95.12502000
27.25219727,-93.47695000
27.28271484,-89.47664000
27.31323242,-87.65248000
27.34375000,-88.41264000
27.37426758,-91.33468000
27.40478516,-94.78791000
27.43530273,-96.33210000
27.46582031,-97.93785000
27.49633789,-99.80205000
27.52685547,-100.23740000
27.55737305,-101.16270000
27.58789063,-110.05470000
27.61840820,-103.48060000
27.64892578,-98.30051000
27.67944336,-99.76706000
27.70996094,-100.41090000
27.74047852,-96.73306000
27.77099609,-95.89092000
27.80151367,-95.67567000
27.83203125,-94.37167000
27.86254883,-93.56430000
27.89306641,-95.48768000
27.92358398,-97.99916000
27.95410156,-94.34242000
27.98461914,-92.07750000
28.01513672,-91.69270000
28.04565430,-92.46811000
28.07617188,-94.44293000
28.10668945,-97.95811000
28.13720703,-103.70760000
28.16772461,-111.61270000
28.19824219,-99.65605000
28.22875977,-95.27773000
28.25927734,-94.29124000
28.28979492,-94.11162000
28.32031250,-94.72859000
28.35083008,-97.91584000
28.38134766,-97.03192000
28.41186523,-93.94581000
28.44238281,-93.75993000
28.47290039,-95.36597000
28.50341797,-97.83159000
28.53393555,-101.24700000
28.56445313,-102.15350000
28.59497070,-98.73158000
28.62548828,-97.35503000
28.65600586,-97.01070000
28.68652344,-94.45961000
28.71704102,-91.71368000
28.74755859,-90.49306000
28.77807617,-90.28129000
28.80859375,-90.48408000
28.83911133,-92.18709000
28.86962891,-97.01395000
28.90014648,-93.27287000
28.93066406,-88.83874000
28.96118164,-88.29565000
28.99169922,-90.34674000
29.02221680,-92.22234000
29.05273438,-90.15808000
29.08325195,-88.09686000
29.11376953,-88.25317000
29.14428711,-91.36574000
29.17480469,-99.75270000
29.20532227,-100.66130000
29.23583984,-95.42640000
29.26635742,-94.02391000
29.29687500,-93.36381000
29.32739258,-92.98061000
29.35791016,-93.69598000
29.38842773,-95.90179000
29.41894531,-99.59610000
29.44946289,-106.33390000
29.47998047,-104.48900000
29.51049805,-99.06094000
29.54101563,-98.20677000
29.57153320,-99.75750000
29.60205078,-100.52620000
29.63256836,-98.70428000
29.66308594,-97.14114000
29.69360352,-97.76289000
29.72412109,-95.78259000
29.75463867,-90.60956000
29.78515625,-88.65332000
29.81567383,-90.83881000
29.84619141,-99.57228000
29.87670898,-99.51579000
29.90722656,-96.68072000
29.93774414,-99.78603000
29.96826172,-98.36562000
29.99877930,-93.63720000
30.02929688,-91.89174000
30.05981445,-92.52186000
30.09033203,-93.94887000
30.12084961,-92.59750000
30.15136719,-90.20753000
30.18188477,-89.38602000
30.21240234,-90.20679000
30.24291992,-92.10717000
30.27343750,-94.63371000
30.30395508,-96.76296000
30.33447266,-98.20446000
30.36499023,-99.71336000
30.39550781,-94.50961000
30.42602539,-91.58258000
30.45654297,-92.12016000
30.48706055,-94.83133000
30.51757813,-96.41763000
30.54809570,-94.31319000
30.57861328,-91.30219000
30.60913086,-89.27734000
30.63964844,-89.24425000
30.67016602,-91.89085000
30.70068359,-95.11432000
30.73120117,-93.07249000
30.76171875,-91.80864000
30.79223633,-91.87325000
30.82275391,-90.78559000
30.85327148,-89.62456000
30.88378906,-89.74261000
30.91430664,-90.42882000
30.94482422,-90.64549000
30.97534180,-90.80403000
31.00585938,-91.36097000
31.03637695,-91.30619000
31.06689453,-91.72936000
31.09741211,-92.89687000
31.12792969,-91.69568000
31.15844727,-90.27751000
31.18896484,-90.12452000
31.21948242,-90.64348000
31.25000000,-92.63847000
31.28051758,-98.26987000
31.31103516,-108.04980000
31.34155273,-95.13206000
31.37207031,-91.27998000
31.40258789,-91.56460000
31.43310547,-95.97092000
31.46362305,-104.01030000
31.49414063,-98.16559000
31.52465820,-94.73839000
31.55517578,-93.53613000
31.58569336,-94.15671000
31.61621094,-97.95038000
31.64672852,-100.25050000
31.67724609,-93.73501000
31.70776367,-91.39954000
31.73828125,-92.35161000
31.76879883,-94.42285000
31.79931641,-94.13922000
31.82983398,-94.24301000
31.86035156,-94.76562000
31.89086914,-93.51709000
31.92138672,-92.23748000
31.95190430,-92.31815000
31.98242188,-94.12034000
32.01293945,-96.10992000
32.04345703,-94.22209000
32.07397461,-90.58564000
32.10449219,-88.43472000
32.13500977,-88.46832000
32.16552734,-90.50246000
32.19604492,-92.20264000
32.22656250,-90.22012000
32.25708008,-88.01841000
32.28759766,-87.69646000
32.31811523,-89.21058000
32.34863281,-92.44003000
32.37915039,-98.36742000
32.40966797,-109.04280000
32.44018555,-96.54519000
32.47070313,-92.89816000
32.50122070,-93.70413000
32.53173828,-93.91388000
32.56225586,-93.09226000
32.59277344,-93.51839000
32.62329102,-93.31429000
32.65380859,-95.09849000
32.68432617,-101.51070000
32.71484375,-101.63530000
32.74536133,-94.87472000
32.77587891,-92.37964000
32.80639648,-93.19202000
32.83691406,-97.07383000
32.86743164,-100.55820000
32.89794922,-97.10805000
32.92846680,-93.53731000
32.95898438,-91.77933000
32.98950195,-92.19215000
33.02001953,-93.67641000
33.05053711,-94.25804000
33.08105469,-95.26823000
33.11157227,-98.21371000
33.14208984,-96.37085000
33.17260742,-90.46083000
33.20312500,-87.69357000
33.23364258,-88.06667000
33.26416016,-90.78795000
33.29467773,-92.71928000
33.32519531,-92.59897000
33.35571289,-91.91384000
33.38623047,-90.57845000
33.41674805,-89.65976000
33.44726563,-89.77467000
33.47778320,-91.08607000
33.50830078,-94.43787000
33.53881836,-104.84380000
33.56933594,-101.13990000
33.59985352,-94.85101000
33.63037109,-94.84711000
33.66088867,-96.60575000
33.69140625,-93.55109000
33.72192383,-91.11340000
33.75244141,-91.80547000
33.78295898,-95.31666000
33.81347656,-97.70843000
33.84399414,-94.92250000
33.87451172,-92.17664000
33.90502930,-90.36842000
33.93554688,-89.80742000
33.96606445,-91.40511000
33.99658203,-95.78828000
34.02709961,-98.67274000
34.05761719,-95.55963000
34.08813477,-94.13052000
34.11865234,-95.36542000
34.14916992,-99.77650000
34.17968750,-111.25110000
34.21020508,-104.24760000
34.24072266,-97.98001000
34.27124023,-95.06305000
34.30175781,-93.00485000
34.33227539,-91.60022000
34.36279297,-91.49306000
34.39331055,-92.08632000
34.42382813,-90.99776000
34.45434570,-88.46870000
34.48486328,-86.92729000
34.51538086,-86.96408000
34.54589844,-88.20720000
34.57641602,-89.48309000
34.60693359,-89.76570000
34.63745117,-89.70481000
34.66796875,-89.28010000
34.69848633,-89.16210000
34.72900391,-90.98793000
34.75952148,-95.36613000
34.79003906,-96.67435000
34.82055664,-95.37257000
34.85107422,-96.34871000
34.88159180,-97.98386000
34.91210938,-98.47673000
34.94262695,-97.20154000
34.97314453,-95.46141000
35.00366211,-93.93477000
35.03417969,-91.80271000
35.06469727,-89.27534000
35.09521484,-87.64404000
35.12573242,-87.42850000
35.15625000,-88.19904000
35.18676758,-88.50272000
35.21728516,-87.50656000
35.24780273,-86.57691000
35.27832031,-86.70064000
35.30883789,-87.96994000
35.33935547,-90.26076000
35.36987305,-92.72508000
35.40039063,-92.54060000
35.43090820,-91.54216000
35.46142578,-92.82043000
35.49194336,-97.52913000
35.52246094,-103.58980000
35.55297852,-100.02300000
35.58349609,-96.95424000
35.61401367,-94.60828000
35.64453125,-92.80115000
35.67504883,-92.12238000
35.70556641,-92.27385000
35.73608398,-92.25662000
35.76660156,-91.98569000
35.79711914,-91.88847000
35.82763672,-91.70658000
35.85815430,-91.11207000
35.88867188,-90.16754000
35.91918945,-89.18060000
35.94970703,-89.09188000
35.98022461,-91.26832000
36.01074219,-96.63685000
36.04125977,-97.69658000
36.07177734,-94.82654000
36.10229492,-95.25464000
36.13281250,-97.56207000
36.16333008,-94.90346000
36.19384766,-92.90948000
36.22436523,-93.33060000
36.25488281,-93.55099000
36.28540039,-92.76951000
36.31591797,-92.31082000
36.34643555,-93.20241000
36.37695313,-94.98074000
36.40747070,-93.86229000
36.43798828,-91.75607000
36.46850586,-90.80504000
36.49902344,-90.49947000
36.52954102,-90.73856000
36.56005859,-91.75980000
36.59057617,-93.62804000
36.62109375,-96.81384000
36.65161133,-100.22560000
36.68212891,-97.03584000
36.71264648,-94.52373000
36.74316406,-93.86460000
36.77368164,-94.45242000
36.80419922,-97.00420000
36.83471680,-99.88281000
36.86523438,-98.10225000
36.89575195,-95.87051000
36.92626953,-94.90806000
36.95678711,-95.88319000
36.98730469,-99.39214000
37.01782227,-101.54500000
37.04833984,-99.99696000
37.07885742,-100.62930000
37.10937500,-102.77510000
37.13989258,-102.23900000
37.17041016,-99.83959000
37.20092773,-95.46780000
37.23144531,-92.43855000
37.26196289,-92.27319000
37.29248047,-95.87035000
37.32299805,-100.33630000
37.35351563,-94.88725000
37.38403320,-92.90758000
37.41455078,-93.69223000
37.44506836,-94.61013000
37.47558594,-95.18846000
37.50610352,-97.92024000
37.53662109,-101.44700000
37.56713867,-96.22505000
37.59765625,-92.33311000
37.62817383,-90.90565000
37.65869141,-91.08891000
37.68920898,-92.26292000
37.71972656,-94.06731000
37.75024414,-96.18385000
37.78076172,-97.18398000
37.81127930,-96.01550000
37.84179688,-94.58179000
37.87231445,-94.66637000
37.90283203,-97.33319000
37.93334961,-103.30070000
37.96386719,-109.72280000
37.99438477,-108.33800000
38.02490234,-101.43730000
38.05541992,-98.67940000
38.08593750,-99.58344000
38.11645508,-103.26670000
38.14697266,-107.34890000
38.17749023,-108.99680000
38.20800781,-105.70290000
38.23852539,-104.00340000
38.26904297,-99.17401000
38.29956055,-93.12614000
38.33007813,-90.64862000
38.36059570,-91.01306000
38.39111328,-92.95585000
38.42163086,-94.79794000
38.45214844,-94.79137000
38.48266602,-93.49918000
38.51318359,-92.36427000
38.54370117,-91.36794000
38.57421875,-90.69398000
38.60473633,-90.93875000
38.63525391,-91.97063000
38.66577148,-92.97624000
38.69628906,-94.93820000
38.72680664,-96.28098000
38.75732422,-94.93999000
38.78784180,-97.36642000
38.81835938,-109.95070000
38.84887695,-106.47620000
38.87939453,-106.25920000
38.90991211,-97.03171000
38.94042969,-92.07810000
38.97094727,-92.18690000
39.00146484,-96.88737000
39.03198242,-98.60292000
39.06250000,-92.74966000
39.09301758,-89.99612000
39.12353516,-89.49281000
39.15405273,-89.78809000
39.18457031,-90.20168000
39.21508789,-91.87471000
39.24560547,-94.33803000
39.27612305,-93.63113000
39.30664063,-92.29712000
39.33715820,-94.07375000
39.36767578,-103.83880000
39.39819336,-100.61090000
39.42871094,-94.08461000
39.45922852,-92.87637000
39.48974609,-93.20587000
39.52026367,-94.59921000
39.55078125,-98.74847000
39.58129883,-106.62440000
39.61181641,-106.57710000
39.64233398,-106.53440000
39.67285156,-112.15800000
39.70336914,-111.60910000
39.73388672,-100.56230000
39.76440430,-94.69231000
39.79492188,-91.70790000
39.82543945,-91.13286000
39.85595703,-91.95954000
39.88647461,-93.79753000
39.91699219,-97.86220000
39.94750977,-101.90580000
39.97802734,-94.54282000
40.00854492,-90.28610000
40.03906250,-88.96198000
40.06958008,-89.31265000
40.10009766,-90.23309000
40.13061523,-91.21109000
40.16113281,-91.43180000
40.19165039,-90.74680000
40.22216797,-90.19935000
40.25268555,-90.45604000
40.28320313,-91.33824000
40.31372070,-91.56668000
40.34423828,-91.19205000
40.37475586,-91.34544000
40.40527344,-90.94962000
40.43579102,-88.41866000
40.46630859,-85.96753000
40.49682617,-85.25494000
40.52734375,-86.25057000
40.55786133,-88.35112000
40.58837891,-91.35570000
40.61889648,-96.43784000
40.64941406,-104.14320000
40.67993164,-104.90940000
40.71044922,-95.72394000
40.74096680,-90.57804000
40.77148438,-88.87379000
40.80200195,-89.01196000
40.83251953,-90.52013000
40.86303711,-92.67769000
40.89355469,-91.92816000
40.92407227,-90.43207000
40.95458984,-90.87757000
40.98510742,-93.33916000
41.01562500,-96.73953000
41.04614258,-95.08748000
41.07666016,-91.34204000
41.10717773,-90.26641000
41.13769531,-90.96036000
41.16821289,-90.89406000
41.19873047,-89.31715000
41.22924805,-87.28794000
41.25976563,-86.04626000
41.29028320,-86.60539000
41.32080078,-89.09908000
41.35131836,-90.59203000
41.38183594,-89.44528000
41.41235352,-89.71231000
41.44287109,-90.67562000
41.47338867,-88.94302000
41.50390625,-87.27792000
41.53442383,-87.38872000
41.56494141,-88.26613000
41.59545898,-88.35845000
41.62597656,-88.15994000
41.65649414,-89.30017000
41.68701172,-93.19261000
41.71752930,-97.21500000
41.74804688,-89.25606000
41.77856445,-85.29489000
41.80908203,-85.24623000
41.83959961,-88.93685000
41.87011719,-94.16817000
41.90063477,-92.62959000
41.93115234,-92.80994000
41.96166992,-98.90936000
41.99218750,-100.23640000
42.02270508,-94.63095000
42.05322266,-97.98631000
42.08374023,-107.23100000
42.11425781,-95.39301000
42.14477539,-96.53192000
42.17529297,-115.02660000
42.20581055,-97.21997000
42.23632813,-91.15243000
42.26684570,-87.09480000
42.29736328,-85.48853000
42.32788086,-86.52060000
42.35839844,-89.09445000
42.38891602,-90.52396000
42.41943359,-89.58945000
42.44995117,-88.76335000
42.48046875,-90.77898000
42.51098633,-96.79108000
42.54150391,-93.28721000
42.57202148,-91.45184000
42.60253906,-96.12850000
42.63305664,-101.06630000
42.66357422,-92.43999000
42.69409180,-89.30459000
42.72460938,-89.03720000
42.75512695,-93.24447000
42.78564453,-101.56300000
42.81616211,-89.82648000
42.84667969,-87.53951000
42.87719727,-90.61176000
42.90771484,-100.80330000
42.93823242,-90.27097000
42.96875000,-86.76990000
42.99926758,-87.23219000
43.02978516,-90.36966000
43.06030273,-93.37691000
43.09082031,-92.46655000
43.12133789,-90.59608000
43.15185547,-90.24990000
43.18237305,-92.16856000
43.21289063,-96.24760000
43.24340820,-100.71120000
43.27392578,-102.45840000
43.30444336,-102.45920000
43.33496094,-99.34074000
43.36547852,-96.12885000
43.39599609,-93.12348000
43.42651367,-88.90679000
43.45703125,-86.00240000
43.48754883,-84.53676000
43.51806641,-83.90221000
43.54858398,-84.39900000
43.57910156,-86.83122000
43.60961914,-90.79301000
43.64013672,-92.66138000
43.67065430,-94.12513000
43.70117188,-98.01091000
43.73168945,-102.36490000
43.76220703,-103.52760000
43.79272461,-105.38670000
43.82324219,-104.14070000
43.85375977,-94.80943000
43.88427734,-90.97903000
43.91479492,-90.99519000
43.94531250,-94.06351000
43.97583008,-96.19195000
44.00634766,-94.63304000
44.03686523,-94.45546000
44.06738281,-95.77592000
44.09790039,-96.32381000
44.12841797,-95.74898000
44.15893555,-96.15953000
44.18945313,-98.04143000
44.21997070,-99.96354000
44.25048828,-97.40131000
44.28100586,-93.12155000
44.31152344,-90.49983000
44.34204102,-89.98153000
44.37255859,-92.17517000
44.40307617,-99.85884000
44.43359375,-103.61000000
44.46411133,-94.74251000
44.49462891,-92.28847000
44.52514648,-91.55952000
44.55566406,-90.85880000
44.58618164,-89.93172000
44.61669922,-89.68095000
44.64721680,-90.63895000
44.67773438,-92.59489000
44.70825195,-94.85133000
44.73876953,-98.42570000
44.76928711,-105.04670000
44.79980469,-99.58707000
44.83032227,-94.11774000
44.86083984,-91.38508000
44.89135742,-91.21999000
44.92187500,-94.09036000
44.95239258,-100.89550000
44.98291016,-99.94320000
45.01342773,-95.07584000
45.04394531,-93.53650000
45.07446289,-94.54322000
45.10498047,-96.70326000
45.13549805,-97.49564000
45.16601563,-98.99666000
45.19653320,-104.55380000
45.22705078,-110.78400000
45.25756836,-98.52328000
45.28808594,-97.10852000
45.31860352,-102.90350000
45.34912109,-107.47260000
45.37963867,-96.98979000
45.41015625,-93.80337000
45.44067383,-93.36612000
45.47119141,-94.50226000
45.50170898,-94.99741000
45.53222656,-94.07497000
45.56274414,-93.99207000
45.59326172,-95.06784000
45.62377930,-95.62511000
45.65429688,-95.33273000
45.68481445,-95.74566000
45.71533203,-97.40736000
45.74584961,-98.88500000
45.77636719,-97.13688000
45.80688477,-94.55000000
45.83740234,-94.18021000
45.86791992,-96.29920000
45.89843750,-99.01128000
45.92895508,-97.95834000
45.95947266,-94.73370000
45.98999023,-92.12249000
46.02050781,-91.13076000
46.05102539,-91.89000000
46.08154297,-93.94698000
46.11206055,-97.15089000
46.14257813,-100.73360000
46.17309570,-101.02070000
46.20361328,-99.04190000
46.23413086,-97.79909000
46.26464844,-99.10547000
46.29516602,-104.36010000
46.32568359,-108.75770000
46.35620117,-101.58720000
46.38671875,-98.76476000
46.41723633,-96.73301000
46.44775391,-94.48109000
46.47827148,-92.85172000
46.50878906,-92.61716000
46.53930664,-95.05936000
46.56982422,-103.76120000
46.60034180,-109.25970000
46.63085938,-103.69310000
46.66137695,-101.19520000
46.69189453,-97.62955000
46.72241211,-98.48462000
46.75292969,-104.94110000
46.78344727,-102.58150000
46.81396484,-98.07341000
46.84448242,-97.32393000
46.87500000,-99.22568000
46.90551758,-103.95920000
46.93603516,-109.84900000
46.96655273,-107.01640000
46.99707031,-102.14960000
47.02758789,-97.05108000
47.05810547,-93.06542000
47.08862305,-90.80345000
47.11914063,-90.43435000
47.14965820,-91.85106000
47.18017578,-94.20615000
47.21069336,-96.20010000
47.24121094,-98.55954000
47.27172852,-103.67170000
47.30224609,-99.31398000
47.33276367,-95.12634000
47.36328125,-95.22305000
47.39379883,-99.57101000
47.42431641,-122.65180000
47.45483398,-98.86172000
47.48535156,-93.83819000
47.51586914,-92.61002000
47.54638672,-94.26604000
47.57690430,-100.59450000
47.60742188,-105.12170000
47.63793945,-94.05708000
47.66845703,-90.81300000
47.69897461,-90.77033000
47.72949219,-93.37460000
47.76000977,-99.21539000
47.79052734,-110.70750000
47.82104492,-108.10010000
47.85156250,-104.32460000
47.88208008,-106.01310000
47.91259766,-99.84611000
47.94311523,-92.86500000
47.97363281,-89.41533000
48.00415039,-88.01595000
48.03466797,-87.75662000
48.06518555,-88.04990000
48.09570313,-88.79221000
48.12622070,-90.36832000
48.15673828,-93.25648000
48.18725586,-98.13052000
48.21777344,-97.78663000
48.24829102,-91.41458000
48.27880859,-88.21307000
48.30932617,-87.80495000
48.33984375,-89.88956000
48.37036133,-93.50484000
48.40087891,-96.17202000
48.43139648,-100.40460000
48.46191406,-98.38986000
48.49243164,-94.14249000
48.52294922,-94.42298000
48.55346680,-97.70430000
48.58398438,-101.58170000
48.61450195,-103.98070000
48.64501953,-107.93750000
48.67553711,-109.90240000
48.70605469,-101.68130000
48.73657227,-97.98183000
48.76708984,-95.45926000
48.79760742,-93.06027000
48.82812500,-91.74995000
48.85864258,-92.02563000
48.88916016,-94.29129000
48.91967773,-100.68950000
48.95019531,-96.19109000
48.98071289,-89.74721000
49.01123047,-87.65695000
49.04174805,-88.37280000
49.07226563,-90.84636000
49.10278320,-92.49462000
49.13330078,-91.33318000
49.16381836,-90.25154000
49.19433594,-91.68616000
49.22485352,-98.61508000
49.25537109,-104.57690000
49.28588867,-95.25110000
49.31640625,-93.81309000
49.34692383,-95.38535000
49.37744141,-97.92773000
49.40795898,-97.17671000
49.43847656,-97.68861000
49.46899414,-97.51518000
49.49951172,-94.17442000
49.53002930,-92.61512000
49.56054688,-92.48938000
49.59106445,-93.08990000
49.62158203,-94.79308000
49.65209961,-98.83514000
49.68261719,-95.93137000
49.71313477,-90.59717000
49.74365234,-89.42473000
49.77416992,-92.67238000
49.80468750,-104.76740000
49.83520508,-95.57481000
49.86572266,-92.75381000
49.89624023,-94.93916000
49.92675781,-100.31470000
49.95727539,-101.57890000
49.98779297,-97.07996000
50.01831055,-92.93359000
