Frequency,Channel A
(MHz),(dBu)

0.00000000,-22.78628000
0.03051758,-23.15428000
0.06103516,-28.36810000
0.09155273,-38.38546000
0.12207031,-60.93496000
0.15258789,-59.08468000
0.18310547,-57.78698000
0.21362305,-59.51548000
0.24414063,-61.81210000
0.27465820,-60.72892000
0.30517578,-60.25638000
0.33569336,-60.07332000
0.36621094,-59.57908000
0.39672852,-59.03389000
0.42724609,-59.44500000
0.45776367,-60.27005000
0.48828125,-61.07460000
0.51879883,-65.31978000
0.54931641,-76.45654000
0.57983398,-60.89079000
0.61035156,-56.32410000
0.64086914,-53.29530000
0.67138672,-51.86819000
0.70190430,-52.93561000
0.73242188,-57.07863000
0.76293945,-66.66676000
0.79345703,-70.76214000
0.82397461,-64.14084000
0.85449219,-64.95274000
0.88500977,-74.59753000
0.91552734,-69.64711000
0.94604492,-62.46460000
0.97656250,-60.25809000
1.00708008,-60.29448000
1.03759766,-62.39327000
1.06811523,-66.26266000
1.09863281,-66.00008000
1.12915039,-63.89945000
1.15966797,-64.03770000
1.19018555,-65.47783000
1.22070313,-65.54898000
1.25122070,-63.37424000
1.28173828,-61.63919000
1.31225586,-61.65547000
1.34277344,-64.19122000
1.37329102,-68.36691000
1.40380859,-65.27236000
1.43432617,-62.84836000
1.46484375,-64.13750000
1.49536133,-69.61549000
1.52587891,-73.35291000
1.55639648,-70.10978000
1.58691406,-69.57404000
1.61743164,-68.98971000
1.64794922,-68.26588000
1.67846680,-68.67507000
1.70898438,-68.95982000
1.73950195,-67.96742000
1.77001953,-67.49080000
1.80053711,-66.71753000
1.83105469,-65.24183000
1.86157227,-64.68961000
1.89208984,-64.61776000
1.92260742,-64.39940000
1.95312500,-65.00733000
1.98364258,-67.08389000
2.01416016,-72.04764000
2.04467773,-79.32450000
2.07519531,-67.81199000
2.10571289,-64.02383000
2.13623047,-63.40459000
2.16674805,-64.08525000
2.19726563,-64.34402000
2.22778320,-64.71085000
2.25830078,-66.80466000
2.28881836,-70.72314000
2.31933594,-73.15148000
2.34985352,-73.24967000
2.38037109,-70.96306000
2.41088867,-68.22957000
2.44140625,-67.67264000
2.47192383,-68.62255000
2.50244141,-69.15636000
2.53295898,-69.34423000
2.56347656,-69.54517000
2.59399414,-69.43843000
2.62451172,-70.85364000
2.65502930,-72.43781000
2.68554688,-68.20700000
2.71606445,-65.34396000
2.74658203,-65.03616000
2.77709961,-66.36111000
2.80761719,-68.30295000
2.83813477,-70.54073000
2.86865234,-71.29451000
2.89916992,-69.06043000
2.92968750,-67.65973000
2.96020508,-67.17143000
2.99072266,-65.50073000
3.02124023,-63.47104000
3.05175781,-63.02091000
3.08227539,-65.29955000
3.11279297,-72.93862000
3.14331055,-73.89917000
3.17382813,-67.68163000
3.20434570,-66.59373000
3.23486328,-66.40530000
3.26538086,-65.14064000
3.29589844,-63.76511000
3.32641602,-62.82277000
3.35693359,-62.68513000
3.38745117,-63.69414000
3.41796875,-64.99255000
3.44848633,-64.93668000
3.47900391,-63.89111000
3.50952148,-62.51945000
3.54003906,-61.36996000
3.57055664,-60.95479000
3.60107422,-61.29589000
3.63159180,-62.36919000
3.66210938,-63.71219000
3.69262695,-63.34867000
3.72314453,-61.70817000
3.75366211,-60.65377000
3.78417969,-60.06097000
3.81469727,-59.49699000
3.84521484,-59.26895000
3.87573242,-59.65799000
3.90625000,-60.43052000
3.93676758,-61.19855000
3.96728516,-62.02443000
3.99780273,-63.14828000
4.02832031,-63.32201000
4.05883789,-61.39752000
4.08935547,-59.75832000
4.11987305,-59.77803000
4.15039063,-61.34067000
4.18090820,-63.04539000
4.21142578,-63.99843000
4.24194336,-65.78610000
4.27246094,-67.01447000
4.30297852,-65.13474000
4.33349609,-63.60908000
4.36401367,-63.04157000
4.39453125,-63.12614000
4.42504883,-64.16779000
4.45556641,-66.24934000
4.48608398,-68.92211000
4.51660156,-71.18167000
4.54711914,-70.89905000
4.57763672,-69.46804000
4.60815430,-68.65794000
4.63867188,-68.03832000
4.66918945,-68.10335000
4.69970703,-69.94122000
4.73022461,-73.37399000
4.76074219,-75.40492000
4.79125977,-75.38445000
4.82177734,-73.03230000
4.85229492,-69.80135000
4.88281250,-67.74880000
4.91333008,-66.92541000
4.94384766,-67.45825000
4.97436523,-69.61652000
5.00488281,-73.32317000
5.03540039,-77.68221000
5.06591797,-72.95047000
5.09643555,-67.31840000
5.12695313,-64.75129000
5.15747070,-64.47902000
5.18798828,-65.96635000
5.21850586,-68.94765000
5.24902344,-74.55608000
5.27954102,-104.78460000
5.31005859,-74.80957000
5.34057617,-70.65923000
5.37109375,-69.45290000
5.40161133,-69.18348000
5.43212891,-69.81704000
5.46264648,-72.15504000
5.49316406,-76.16580000
5.52368164,-75.77188000
5.55419922,-72.28870000
5.58471680,-70.69301000
5.61523438,-70.92983000
5.64575195,-73.04766000
5.67626953,-76.13522000
5.70678711,-71.77510000
5.73730469,-66.76978000
5.76782227,-63.94551000
5.79833984,-62.49916000
5.82885742,-61.95567000
5.85937500,-62.44899000
5.88989258,-64.47588000
5.92041016,-68.05077000
5.95092773,-68.48291000
5.98144531,-64.86989000
6.01196289,-62.32198000
6.04248047,-60.90570000
6.07299805,-60.24370000
6.10351563,-60.49428000
6.13403320,-62.13367000
6.16455078,-65.71837000
6.19506836,-70.87806000
6.22558594,-70.06571000
6.25610352,-66.47368000
6.28662109,-64.21713000
6.31713867,-63.07481000
6.34765625,-63.02734000
6.37817383,-64.09970000
6.40869141,-66.39008000
6.43920898,-70.46487000
6.46972656,-77.35892000
6.50024414,-76.82334000
6.53076172,-72.54050000
6.56127930,-70.53161000
6.59179688,-69.56573000
6.62231445,-69.58202000
6.65283203,-70.83569000
6.68334961,-73.54923000
6.71386719,-78.69984000
6.74438477,-92.60735000
6.77490234,-85.36684000
6.80541992,-79.65573000
6.83593750,-76.15002000
6.86645508,-73.88068000
6.89697266,-73.47992000
6.92749023,-75.03684000
6.95800781,-78.51205000
6.98852539,-83.58174000
7.01904297,-85.69899000
7.04956055,-83.37259000
7.08007813,-80.66460000
7.11059570,-78.66273000
7.14111328,-78.22185000
7.17163086,-79.49770000
7.20214844,-82.70822000
7.23266602,-88.75039000
7.26318359,-99.99027000
7.29370117,-103.55530000
7.32421875,-92.36537000
7.35473633,-86.43101000
7.38525391,-84.20840000
7.41577148,-84.18338000
7.44628906,-83.37066000
7.47680664,-81.22654000
7.50732422,-79.92786000
7.53784180,-80.02312000
7.56835938,-81.31786000
7.59887695,-82.85766000
7.62939453,-82.95062000
7.65991211,-81.56367000
7.69042969,-80.49415000
7.72094727,-80.29235000
7.75146484,-80.32458000
7.78198242,-80.48895000
7.81250000,-81.56358000
7.84301758,-84.08920000
7.87353516,-88.31586000
7.90405273,-88.61313000
7.93457031,-83.47702000
7.96508789,-80.53555000
7.99560547,-79.53334000
8.02612305,-80.06741000
8.05664063,-81.71671000
8.08715820,-82.56297000
8.11767578,-83.13316000
8.14819336,-88.92045000
8.17871094,-90.57050000
8.20922852,-81.34483000
8.23974609,-78.78328000
8.27026367,-78.29832000
8.30078125,-78.58791000
8.33129883,-79.85439000
8.36181641,-82.96436000
8.39233398,-88.94909000
8.42285156,-97.32970000
8.45336914,-95.26581000
8.48388672,-87.84844000
8.51440430,-83.16588000
8.54492188,-81.51003000
8.57543945,-82.54945000
8.60595703,-85.87248000
8.63647461,-88.49760000
8.66699219,-87.17244000
8.69750977,-85.10993000
8.72802734,-84.21058000
8.75854492,-84.92965000
8.78906250,-86.61264000
8.81958008,-88.70166000
8.85009766,-91.69833000
8.88061523,-96.42715000
8.91113281,-91.33430000
8.94165039,-83.47778000
8.97216797,-79.20233000
9.00268555,-77.32721000
9.03320313,-77.14204000
9.06372070,-78.07722000
9.09423828,-79.53455000
9.12475586,-80.64545000
9.15527344,-81.12189000
9.18579102,-81.72807000
9.21630859,-82.17156000
9.24682617,-81.83854000
9.27734375,-81.48970000
9.30786133,-81.31568000
9.33837891,-81.17853000
9.36889648,-81.49876000
9.39941406,-82.77233000
9.42993164,-85.22667000
9.46044922,-88.19679000
9.49096680,-88.49025000
9.52148438,-85.39940000
9.55200195,-82.18174000
9.58251953,-80.09487000
9.61303711,-79.20808000
9.64355469,-79.21261000
9.67407227,-79.56147000
9.70458984,-79.87135000
9.73510742,-80.90972000
9.76562500,-84.61787000
9.79614258,-99.23786000
9.82666016,-88.56767000
9.85717773,-83.18285000
9.88769531,-81.37289000
9.91821289,-80.41315000
9.94873047,-79.57742000
9.97924805,-78.64739000
10.00976563,-78.09910000
10.04028320,-78.92216000
10.07080078,-81.21671000
10.10131836,-82.82280000
10.13183594,-81.84482000
10.16235352,-80.19810000
10.19287109,-78.61083000
10.22338867,-76.96371000
10.25390625,-75.69156000
10.28442383,-75.58228000
10.31494141,-77.19482000
10.34545898,-80.99152000
10.37597656,-87.01135000
10.40649414,-84.42973000
10.43701172,-80.25319000
10.46752930,-78.93445000
10.49804688,-79.46544000
10.52856445,-80.05780000
10.55908203,-79.58328000
10.58959961,-80.34805000
10.62011719,-84.97758000
10.65063477,-94.85770000
10.68115234,-85.21897000
10.71166992,-81.94504000
10.74218750,-79.69439000
10.77270508,-76.90644000
10.80322266,-75.17478000
10.83374023,-75.14320000
10.86425781,-76.19897000
10.89477539,-76.96777000
10.92529297,-76.81897000
10.95581055,-76.60978000
10.98632813,-77.29974000
11.01684570,-78.40758000
11.04736328,-77.76468000
11.07788086,-76.77569000
11.10839844,-76.71434000
11.13891602,-76.85632000
11.16943359,-77.30469000
11.19995117,-78.21643000
11.23046875,-78.36293000
11.26098633,-77.36761000
11.29150391,-76.24967000
11.32202148,-75.60124000
11.35253906,-76.54436000
11.38305664,-80.01256000
11.41357422,-86.02869000
11.44409180,-83.43888000
11.47460938,-77.75998000
11.50512695,-75.16141000
11.53564453,-75.22946000
11.56616211,-78.02962000
11.59667969,-83.23852000
11.62719727,-85.41970000
11.65771484,-84.90964000
11.68823242,-82.69154000
11.71875000,-79.49782000
11.74926758,-77.49067000
11.77978516,-76.51673000
11.81030273,-76.29819000
11.84082031,-76.99758000
11.87133789,-78.94108000
11.90185547,-81.43887000
11.93237305,-81.06134000
11.96289063,-79.07978000
11.99340820,-78.86040000
12.02392578,-81.61953000
12.05444336,-84.17766000
12.08496094,-79.22304000
12.11547852,-76.70381000
12.14599609,-76.72982000
12.17651367,-78.53206000
12.20703125,-81.42173000
12.23754883,-81.90990000
12.26806641,-80.46864000
12.29858398,-83.25420000
12.32910156,-97.55214000
12.35961914,-80.24858000
12.39013672,-76.95480000
12.42065430,-76.88817000
12.45117188,-77.29244000
12.48168945,-76.35246000
12.51220703,-74.93345000
12.54272461,-74.71973000
12.57324219,-76.33145000
12.60375977,-79.76527000
12.63427734,-83.15017000
12.66479492,-82.17354000
12.69531250,-79.51522000
12.72583008,-77.32308000
12.75634766,-76.33387000
12.78686523,-76.47054000
12.81738281,-76.62967000
12.84790039,-76.31519000
12.87841797,-76.64873000
12.90893555,-77.76663000
12.93945313,-77.25250000
12.96997070,-75.22658000
13.00048828,-74.24752000
13.03100586,-74.81826000
13.06152344,-76.48682000
13.09204102,-78.11848000
13.12255859,-78.93053000
13.15307617,-79.71305000
13.18359375,-81.01225000
13.21411133,-82.90944000
13.24462891,-85.40056000
13.27514648,-87.41050000
13.30566406,-87.04510000
13.33618164,-84.71591000
13.36669922,-82.84974000
13.39721680,-82.35814000
13.42773438,-83.27788000
13.45825195,-79.14194000
13.48876953,-72.24466000
13.51928711,-67.05008000
13.54980469,-64.88853000
13.58032227,-66.38872000
13.61083984,-73.38720000
13.64135742,-82.44053000
13.67187500,-75.40961000
13.70239258,-76.04470000
13.73291016,-78.08074000
13.76342773,-79.37310000
13.79394531,-79.44897000
13.82446289,-80.01172000
13.85498047,-81.94352000
13.88549805,-85.71751000
13.91601563,-99.10209000
13.94653320,-79.20320000
13.97705078,-73.50107000
14.00756836,-71.42822000
14.03808594,-71.54878000
14.06860352,-73.15009000
14.09912109,-75.85107000
14.12963867,-79.84081000
14.16015625,-85.13284000
14.19067383,-88.61977000
14.22119141,-86.59438000
14.25170898,-82.32457000
14.28222656,-80.66386000
14.31274414,-81.33575000
14.34326172,-83.52823000
14.37377930,-87.00166000
14.40429688,-87.15601000
14.43481445,-82.18950000
14.46533203,-78.93811000
14.49584961,-78.01299000
14.52636719,-80.68817000
14.55688477,-88.96554000
14.58740234,-78.46716000
14.61791992,-74.70827000
14.64843750,-74.72929000
14.67895508,-76.80792000
14.70947266,-79.22633000
14.73999023,-80.30552000
14.77050781,-80.12561000
14.80102539,-79.72215000
14.83154297,-79.55687000
14.86206055,-79.35706000
14.89257813,-78.56761000
14.92309570,-77.22554000
14.95361328,-75.90637000
14.98413086,-75.02821000
15.01464844,-74.76868000
15.04516602,-75.34530000
15.07568359,-77.18425000
15.10620117,-80.85651000
15.13671875,-85.47043000
15.16723633,-84.96807000
15.19775391,-84.31860000
15.22827148,-85.20507000
15.25878906,-83.30167000
15.28930664,-81.43631000
15.31982422,-81.33926000
15.35034180,-82.53017000
15.38085938,-84.40825000
15.41137695,-84.31438000
15.44189453,-82.59659000
15.47241211,-81.78107000
15.50292969,-82.26720000
15.53344727,-84.80330000
15.56396484,-88.28462000
15.59448242,-84.10760000
15.62500000,-80.13580000
15.65551758,-78.39056000
15.68603516,-78.50905000
15.71655273,-80.09709000
15.74707031,-82.91051000
15.77758789,-87.55305000
15.80810547,-89.17443000
15.83862305,-84.96155000
15.86914063,-82.40491000
15.89965820,-80.45322000
15.93017578,-79.28800000
15.96069336,-79.84735000
15.99121094,-82.71011000
16.02172852,-88.16206000
16.05224609,-87.44745000
16.08276367,-83.03392000
16.11328125,-81.68193000
16.14379883,-82.68468000
16.17431641,-84.12292000
16.20483398,-83.89513000
16.23535156,-83.93169000
16.26586914,-85.99781000
16.29638672,-91.43454000
16.32690430,-110.24100000
16.35742188,-95.98423000
16.38793945,-91.44104000
16.41845703,-89.58144000
16.44897461,-88.58261000
16.47949219,-88.17247000
16.51000977,-88.95303000
16.54052734,-89.84970000
16.57104492,-87.24097000
16.60156250,-85.37678000
16.63208008,-86.73608000
16.66259766,-92.10416000
16.69311523,-92.23217000
16.72363281,-87.41970000
16.75415039,-85.35976000
16.78466797,-83.58511000
16.81518555,-81.86749000
16.84570313,-81.45349000
16.87622070,-82.12598000
16.90673828,-82.54005000
16.93725586,-83.04017000
16.96777344,-85.57291000
16.99829102,-92.87477000
17.02880859,-101.53620000
17.05932617,-89.70930000
17.08984375,-84.57350000
17.12036133,-81.23260000
17.15087891,-79.83152000
17.18139648,-80.30944000
17.21191406,-82.18933000
17.24243164,-84.64935000
17.27294922,-87.15329000
17.30346680,-89.98512000
17.33398438,-93.60620000
17.36450195,-98.00874000
17.39501953,-105.55080000
17.42553711,-102.77770000
17.45605469,-95.16212000
17.48657227,-92.60949000
17.51708984,-89.99701000
17.54760742,-86.23662000
17.57812500,-84.20388000
17.60864258,-84.84975000
17.63916016,-88.86463000
17.66967773,-88.06390000
17.70019531,-81.79795000
17.73071289,-78.77252000
17.76123047,-76.44706000
17.79174805,-73.90871000
17.82226563,-73.13292000
17.85278320,-75.11134000
17.88330078,-80.09026000
17.91381836,-87.01035000
17.94433594,-89.19287000
17.97485352,-89.07169000
18.00537109,-91.95477000
18.03588867,-102.64870000
18.06640625,-91.03911000
18.09692383,-86.92353000
18.12744141,-86.59187000
18.15795898,-87.17350000
18.18847656,-86.46776000
18.21899414,-86.50072000
18.24951172,-89.26004000
18.28002930,-93.79459000
18.31054688,-93.80428000
18.34106445,-94.15145000
18.37158203,-92.28637000
18.40209961,-88.92641000
18.43261719,-88.91556000
18.46313477,-91.83167000
18.49365234,-90.43620000
18.52416992,-88.25488000
18.55468750,-89.49982000
18.58520508,-93.34955000
18.61572266,-92.95715000
18.64624023,-90.89995000
18.67675781,-92.29768000
18.70727539,-95.81211000
18.73779297,-94.98300000
18.76831055,-94.63052000
18.79882813,-93.15297000
18.82934570,-90.74029000
18.85986328,-90.62664000
18.89038086,-92.59619000
18.92089844,-95.24277000
18.95141602,-96.89597000
18.98193359,-97.30210000
19.01245117,-97.07595000
19.04296875,-96.18038000
19.07348633,-94.65890000
19.10400391,-92.62531000
19.13452148,-90.59296000
19.16503906,-89.40570000
19.19555664,-89.64062000
19.22607422,-91.56166000
19.25659180,-95.11798000
19.28710938,-102.87840000
19.31762695,-107.97270000
19.34814453,-99.46764000
19.37866211,-100.67130000
19.40917969,-109.30410000
19.43969727,-100.14870000
19.47021484,-99.25248000
19.50073242,-99.57869000
19.53125000,-95.17751000
19.56176758,-94.92361000
19.59228516,-97.42592000
19.62280273,-93.13453000
19.65332031,-86.45516000
19.68383789,-82.86388000
19.71435547,-82.40803000
19.74487305,-84.69086000
19.77539063,-85.48824000
19.80590820,-83.69903000
19.83642578,-84.62466000
19.86694336,-88.93360000
19.89746094,-90.12630000
19.92797852,-88.71169000
19.95849609,-89.46174000
19.98901367,-88.10904000
20.01953125,-87.53535000
20.05004883,-89.36326000
20.08056641,-87.52013000
20.11108398,-84.71291000
20.14160156,-84.95625000
20.17211914,-88.95284000
20.20263672,-100.02990000
20.23315430,-103.27350000
20.26367188,-102.05380000
20.29418945,-104.84030000
20.32470703,-94.97864000
20.35522461,-93.24184000
20.38574219,-99.59923000
20.41625977,-97.24805000
20.44677734,-90.95432000
20.47729492,-92.36695000
20.50781250,-106.55410000
20.53833008,-98.98543000
20.56884766,-98.75372000
20.59936523,-92.56764000
20.62988281,-87.25555000
20.66040039,-86.82303000
20.69091797,-91.25053000
20.72143555,-106.15140000
20.75195313,-94.44271000
20.78247070,-92.69520000
20.81298828,-96.80618000
20.84350586,-105.17620000
20.87402344,-106.25340000
20.90454102,-102.47960000
20.93505859,-92.56234000
20.96557617,-91.08189000
20.99609375,-95.60497000
21.02661133,-98.72603000
21.05712891,-91.42387000
21.08764648,-88.99158000
21.11816406,-89.30730000
21.14868164,-91.86247000
21.17919922,-95.57266000
21.20971680,-96.64140000
21.24023438,-93.00475000
21.27075195,-90.50934000
21.30126953,-91.78387000
21.33178711,-96.82204000
21.36230469,-100.55010000
21.39282227,-96.89060000
21.42333984,-93.77908000
21.45385742,-96.41987000
21.48437500,-107.41030000
21.51489258,-94.62472000
21.54541016,-92.15257000
21.57592773,-93.19312000
21.60644531,-94.34737000
21.63696289,-94.38069000
21.66748047,-95.56918000
21.69799805,-93.60571000
21.72851563,-90.05353000
21.75903320,-89.31784000
21.78955078,-91.56559000
21.82006836,-94.28259000
21.85058594,-92.82809000
21.88110352,-92.47398000
21.91162109,-94.78946000
21.94213867,-104.06860000
21.97265625,-95.80954000
22.00317383,-87.70163000
22.03369141,-84.89455000
22.06420898,-85.32772000
22.09472656,-87.96680000
22.12524414,-87.93666000
22.15576172,-86.15816000
22.18627930,-87.15206000
22.21679688,-91.31138000
22.24731445,-91.65748000
22.27783203,-89.42180000
22.30834961,-88.99950000
22.33886719,-88.08904000
22.36938477,-89.25922000
22.39990234,-97.69675000
22.43041992,-96.08517000
22.46093750,-91.30614000
22.49145508,-93.21829000
22.52197266,-94.50891000
22.55249023,-90.44600000
22.58300781,-88.70067000
22.61352539,-89.47578000
22.64404297,-91.83610000
22.67456055,-94.82684000
22.70507813,-97.86114000
22.73559570,-93.99696000
22.76611328,-91.32445000
22.79663086,-92.67567000
22.82714844,-96.00684000
22.85766602,-94.54585000
22.88818359,-94.70793000
22.91870117,-99.53620000
22.94921875,-97.16615000
22.97973633,-94.06036000
23.01025391,-97.63406000
23.04077148,-109.45020000
23.07128906,-95.42229000
23.10180664,-95.21386000
23.13232422,-103.56500000
23.16284180,-101.31900000
23.19335938,-95.24867000
23.22387695,-92.62453000
23.25439453,-90.70827000
23.28491211,-88.73651000
23.31542969,-87.22688000
23.34594727,-87.30735000
23.37646484,-89.74832000
23.40698242,-94.89534000
23.43750000,-98.50247000
23.46801758,-96.35863000
23.49853516,-93.41125000
23.52905273,-91.60702000
23.55957031,-90.62059000
23.59008789,-89.72444000
23.62060547,-89.37217000
23.65112305,-90.33382000
23.68164063,-93.64697000
23.71215820,-99.40103000
23.74267578,-98.63496000
23.77319336,-98.43987000
23.80371094,-100.42630000
23.83422852,-99.82489000
23.86474609,-101.03900000
23.89526367,-104.90350000
23.92578125,-98.68755000
23.95629883,-95.56184000
23.98681641,-96.67072000
24.01733398,-102.92730000
24.04785156,-101.95870000
24.07836914,-94.69455000
24.10888672,-90.80170000
24.13940430,-88.55254000
24.16992188,-88.05812000
24.20043945,-89.67711000
24.23095703,-92.85263000
24.26147461,-93.32211000
24.29199219,-92.48086000
24.32250977,-95.20482000
24.35302734,-109.32370000
24.38354492,-99.50278000
24.41406250,-95.03857000
24.44458008,-94.62515000
24.47509766,-95.63466000
24.50561523,-97.44588000
24.53613281,-99.01743000
24.56665039,-100.22020000
24.59716797,-107.77790000
24.62768555,-99.89575000
24.65820313,-93.37767000
24.68872070,-91.61465000
24.71923828,-91.59600000
24.74975586,-91.59135000
24.78027344,-92.74410000
24.81079102,-97.65094000
24.84130859,-110.72340000
24.87182617,-102.11380000
24.90234375,-103.44500000
24.93286133,-102.42890000
24.96337891,-94.55048000
24.99389648,-90.07286000
25.02441406,-87.12666000
25.05493164,-85.31543000
25.08544922,-84.92734000
25.11596680,-86.18666000
25.14648438,-89.02882000
25.17700195,-92.87395000
25.20751953,-96.72474000
25.23803711,-101.38210000
25.26855469,-113.41310000
25.29907227,-104.62470000
25.32958984,-97.57220000
25.36010742,-93.89134000
25.39062500,-91.81174000
25.42114258,-91.26698000
25.45166016,-92.19119000
25.48217773,-92.01077000
25.51269531,-90.15861000
25.54321289,-90.06596000
25.57373047,-91.63223000
25.60424805,-91.60195000
25.63476563,-90.32288000
25.66528320,-89.94376000
25.69580078,-90.43331000
25.72631836,-91.55223000
25.75683594,-92.78632000
25.78735352,-92.74372000
25.81787109,-93.29260000
25.84838867,-98.78355000
25.87890625,-97.32754000
25.90942383,-91.05290000
25.93994141,-89.65640000
25.97045898,-90.44292000
26.00097656,-91.88824000
26.03149414,-93.03098000
26.06201172,-94.26276000
26.09252930,-96.23177000
26.12304688,-95.87019000
26.15356445,-92.46037000
26.18408203,-90.37347000
26.21459961,-91.01493000
26.24511719,-96.25084000
26.27563477,-98.04893000
26.30615234,-91.11255000
26.33666992,-89.20461000
26.36718750,-89.39325000
26.39770508,-90.51952000
26.42822266,-93.04745000
26.45874023,-96.80511000
26.48925781,-94.78493000
26.51977539,-90.18314000
26.55029297,-87.64244000
26.58081055,-86.86180000
26.61132813,-86.91796000
26.64184570,-86.87509000
26.67236328,-86.95504000
26.70288086,-87.88960000
26.73339844,-90.09858000
26.76391602,-93.91221000
26.79443359,-98.22147000
26.82495117,-97.09866000
26.85546875,-94.97583000
26.88598633,-94.59133000
26.91650391,-94.68766000
26.94702148,-93.95930000
26.97753906,-93.05920000
27.00805664,-92.75422000
27.03857422,-92.40340000
27.06909180,-90.97012000
27.09960938,-89.38391000
27.13012695,-88.63189000
27.16064453,-88.73870000
27.19116211,-89.47220000
27.22167969,-90.60097000
27.25219727,-91.98566000
27.28271484,-92.64459000
27.31323242,-91.44611000
27.34375000,-89.74705000
27.37426758,-88.41765000
27.40478516,-87.82893000
27.43530273,-88.25802000
27.46582031,-89.40375000
27.49633789,-90.45319000
27.52685547,-91.09681000
27.55737305,-91.29601000
27.58789063,-90.90060000
27.61840820,-90.62482000
27.64892578,-91.27773000
27.67944336,-92.67608000
27.70996094,-93.81329000
27.74047852,-95.59657000
27.77099609,-101.72320000
27.80151367,-111.50200000
27.83203125,-99.45358000
27.86254883,-97.40947000
27.89306641,-97.59644000
27.92358398,-97.12243000
27.95410156,-95.32129000
27.98461914,-93.57026000
28.01513672,-91.56616000
28.04565430,-89.45772000
28.07617188,-88.72935000
28.10668945,-90.21346000
28.13720703,-93.62729000
28.16772461,-94.96021000
28.19824219,-93.18810000
28.22875977,-92.53315000
28.25927734,-92.99168000
28.28979492,-93.22862000
28.32031250,-94.14475000
28.35083008,-97.78182000
28.38134766,-102.83260000
28.41186523,-102.85400000
28.44238281,-105.66170000
28.47290039,-101.34950000
28.50341797,-95.56465000
28.53393555,-92.80547000
28.56445313,-91.49789000
28.59497070,-89.41487000
28.62548828,-86.64451000
28.65600586,-85.53918000
28.68652344,-87.02983000
28.71704102,-90.52417000
28.74755859,-91.35635000
28.77807617,-90.12107000
28.80859375,-90.35838000
28.83911133,-92.17941000
28.86962891,-94.38644000
28.90014648,-95.21117000
28.93066406,-96.74413000
28.96118164,-101.25700000
28.99169922,-100.90350000
29.02221680,-95.46672000
29.05273438,-93.21571000
29.08325195,-93.08997000
29.11376953,-93.61993000
29.14428711,-93.85010000
29.17480469,-94.43386000
29.20532227,-96.79294000
29.23583984,-103.06090000
29.26635742,-98.43130000
29.29687500,-93.02718000
29.32739258,-90.91173000
29.35791016,-90.14212000
29.38842773,-90.04605000
29.41894531,-90.91019000
29.44946289,-92.86765000
29.47998047,-94.31186000
29.51049805,-95.04081000
29.54101563,-98.82846000
29.57153320,-101.17220000
29.60205078,-92.52486000
29.63256836,-88.40133000
29.66308594,-87.11198000
29.69360352,-87.84939000
29.72412109,-89.29592000
29.75463867,-89.70559000
29.78515625,-89.66336000
29.81567383,-90.00716000
29.84619141,-91.00893000
29.87670898,-91.84882000
29.90722656,-90.80086000
29.93774414,-89.42809000
29.96826172,-89.04713000
29.99877930,-89.93945000
30.02929688,-91.92630000
30.05981445,-93.21133000
30.09033203,-91.75534000
30.12084961,-89.70773000
30.15136719,-88.89484000
30.18188477,-89.87881000
30.21240234,-91.98308000
30.24291992,-92.23195000
30.27343750,-90.26038000
30.30395508,-88.32899000
30.33447266,-87.39238000
30.36499023,-87.58786000
30.39550781,-88.68058000
30.42602539,-90.55637000
30.45654297,-94.08702000
30.48706055,-101.95920000
30.51757813,-98.30962000
30.54809570,-92.53059000
30.57861328,-89.61994000
30.60913086,-87.73746000
30.63964844,-86.76112000
30.67016602,-87.02805000
30.70068359,-88.55740000
30.73120117,-90.38625000
30.76171875,-90.95765000
30.79223633,-90.92103000
30.82275391,-91.40994000
30.85327148,-91.54422000
30.88378906,-90.75908000
30.91430664,-90.66830000
30.94482422,-92.23418000
30.97534180,-95.05833000
31.00585938,-97.12399000
31.03637695,-97.46335000
31.06689453,-94.42812000
31.09741211,-91.36987000
31.12792969,-90.08624000
31.15844727,-89.96258000
31.18896484,-90.79114000
31.21948242,-92.75890000
31.25000000,-94.49063000
31.28051758,-94.20592000
31.31103516,-94.27538000
31.34155273,-96.34243000
31.37207031,-100.45520000
31.40258789,-107.08590000
31.43310547,-115.82360000
31.46362305,-106.60540000
31.49414063,-110.37030000
31.52465820,-95.77653000
31.55517578,-90.49214000
31.58569336,-89.11831000
31.61621094,-89.58939000
31.64672852,-89.81538000
31.67724609,-89.59879000
31.70776367,-89.87296000
31.73828125,-90.05469000
31.76879883,-90.32425000
31.79931641,-92.40101000
31.82983398,-97.89211000
31.86035156,-105.47060000
31.89086914,-100.89520000
31.92138672,-95.08276000
31.95190430,-90.57186000
31.98242188,-88.34612000
32.01293945,-88.04790000
32.04345703,-89.29112000
32.07397461,-91.40320000
32.10449219,-92.63486000
32.13500977,-92.32388000
32.16552734,-91.27282000
32.19604492,-89.90834000
32.22656250,-88.46060000
32.25708008,-87.40549000
32.28759766,-87.04761000
32.31811523,-87.05598000
32.34863281,-86.93617000
32.37915039,-86.71143000
32.40966797,-86.88214000
32.44018555,-87.63450000
32.47070313,-88.38069000
32.50122070,-88.83613000
32.53173828,-90.07236000
32.56225586,-92.65463000
32.59277344,-93.59567000
32.62329102,-91.96185000
32.65380859,-90.76325000
32.68432617,-89.22568000
32.71484375,-86.46625000
32.74536133,-84.26614000
32.77587891,-83.94115000
32.80639648,-85.39931000
32.83691406,-86.96571000
32.86743164,-86.69247000
32.89794922,-86.28368000
32.92846680,-87.07343000
32.95898438,-88.83645000
32.98950195,-90.94368000
33.02001953,-92.94662000
33.05053711,-94.26555000
33.08105469,-94.12799000
33.11157227,-92.92332000
33.14208984,-91.81248000
33.17260742,-90.84421000
33.20312500,-88.95833000
33.23364258,-86.36868000
33.26416016,-84.41314000
33.29467773,-83.67421000
33.32519531,-84.02960000
33.35571289,-84.95683000
33.38623047,-85.96054000
33.41674805,-86.59010000
33.44726563,-86.02972000
33.47778320,-84.69769000
33.50830078,-84.01504000
33.53881836,-84.80893000
33.56933594,-87.51687000
33.59985352,-91.68587000
33.63037109,-92.46072000
33.66088867,-90.83617000
33.69140625,-90.48371000
33.72192383,-90.35936000
33.75244141,-89.53566000
33.78295898,-89.41880000
33.81347656,-90.64809000
33.84399414,-90.99914000
33.87451172,-89.48038000
33.90502930,-88.12463000
33.93554688,-87.23076000
33.96606445,-86.70668000
33.99658203,-86.56620000
34.02709961,-86.39031000
34.05761719,-86.01768000
34.08813477,-86.17030000
34.11865234,-87.44344000
34.14916992,-89.54639000
34.17968750,-90.40547000
34.21020508,-89.54628000
34.24072266,-89.25647000
34.27124023,-89.90810000
34.30175781,-90.22354000
34.33227539,-89.02035000
34.36279297,-87.40075000
34.39331055,-86.87272000
34.42382813,-87.82891000
34.45434570,-89.74083000
34.48486328,-90.42561000
34.51538086,-88.33917000
34.54589844,-86.45565000
34.57641602,-85.87300000
34.60693359,-86.01486000
34.63745117,-85.62350000
34.66796875,-84.15025000
34.69848633,-82.87341000
34.72900391,-82.95430000
34.75952148,-84.51680000
34.79003906,-86.10600000
34.82055664,-85.73472000
34.85107422,-84.67090000
34.88159180,-84.34991000
34.91210938,-85.03043000
34.94262695,-86.23643000
34.97314453,-87.03948000
35.00366211,-87.48088000
35.03417969,-88.51521000
35.06469727,-90.57050000
35.09521484,-93.17684000
35.12573242,-93.46361000
35.15625000,-89.19704000
35.18676758,-85.25687000
35.21728516,-83.16548000
35.24780273,-82.69025000
35.27832031,-83.40981000
35.30883789,-84.80447000
35.33935547,-85.97503000
35.36987305,-85.77912000
35.40039063,-84.55707000
35.43090820,-83.56291000
35.46142578,-83.41416000
35.49194336,-84.32809000
35.52246094,-86.37788000
35.55297852,-89.10867000
35.58349609,-90.56958000
35.61401367,-89.89867000
35.64453125,-89.03068000
35.67504883,-88.97576000
35.70556641,-89.82804000
35.73608398,-90.90897000
35.76660156,-91.00084000
35.79711914,-89.85750000
35.82763672,-88.42419000
35.85815430,-87.58292000
35.88867188,-87.53174000
35.91918945,-87.92091000
35.94970703,-88.75903000
35.98022461,-89.88216000
36.01074219,-88.71880000
36.04125977,-85.92564000
36.07177734,-84.21596000
36.10229492,-83.87768000
36.13281250,-84.51350000
36.16333008,-85.73856000
36.19384766,-87.27261000
36.22436523,-88.81897000
36.25488281,-90.34779000
36.28540039,-92.33604000
36.31591797,-94.98475000
36.34643555,-97.49629000
36.37695313,-98.87383000
36.40747070,-96.85719000
36.43798828,-93.63898000
36.46850586,-92.09122000
36.49902344,-92.28111000
36.52954102,-93.85026000
36.56005859,-95.55954000
36.59057617,-94.38594000
36.62109375,-91.78549000
36.65161133,-90.21700000
36.68212891,-90.16251000
36.71264648,-91.59837000
36.74316406,-94.25197000
36.77368164,-96.54956000
36.80419922,-95.64335000
36.83471680,-94.49973000
36.86523438,-95.43960000
36.89575195,-97.75544000
36.92626953,-98.17943000
36.95678711,-95.47431000
36.98730469,-92.83024000
37.01782227,-91.26519000
37.04833984,-90.09136000
37.07885742,-89.01297000
37.10937500,-88.34026000
37.13989258,-88.31407000
37.17041016,-89.26678000
37.20092773,-91.77177000
37.23144531,-96.89571000
37.26196289,-108.02950000
37.29248047,-99.50450000
37.32299805,-94.63196000
37.35351563,-92.34390000
37.38403320,-90.75309000
37.41455078,-89.62788000
37.44506836,-89.34907000
37.47558594,-89.98097000
37.50610352,-91.01121000
37.53662109,-91.85498000
37.56713867,-92.65901000
37.59765625,-93.99767000
37.62817383,-95.69558000
37.65869141,-96.36578000
37.68920898,-95.68661000
37.71972656,-94.22049000
37.75024414,-91.92229000
37.78076172,-89.68361000
37.81127930,-88.57903000
37.84179688,-88.56152000
37.87231445,-88.76693000
37.90283203,-88.55747000
37.93334961,-88.22845000
37.96386719,-88.19879000
37.99438477,-88.35477000
38.02490234,-88.60526000
38.05541992,-89.05309000
38.08593750,-89.28107000
38.11645508,-89.28288000
38.14697266,-90.01662000
38.17749023,-92.51328000
38.20800781,-98.82375000
38.23852539,-113.50800000
38.26904297,-99.51820000
38.29956055,-95.84884000
38.33007813,-95.05253000
38.36059570,-97.47627000
38.39111328,-105.03880000
38.42163086,-103.29540000
38.45214844,-98.96460000
38.48266602,-98.15244000
38.51318359,-98.12013000
38.54370117,-98.50035000
38.57421875,-99.54854000
38.60473633,-101.51350000
38.63525391,-106.63220000
38.66577148,-108.19360000
38.69628906,-98.98419000
38.72680664,-93.81340000
38.75732422,-91.43070000
38.78784180,-91.35083000
38.81835938,-93.11963000
38.84887695,-95.97783000
38.87939453,-98.50430000
38.90991211,-100.24610000
38.94042969,-100.61210000
38.97094727,-96.52626000
39.00146484,-95.08823000
39.03198242,-97.72607000
39.06250000,-97.22253000
39.09301758,-93.38187000
39.12353516,-92.55057000
39.15405273,-94.06712000
39.18457031,-96.76311000
39.21508789,-98.33151000
39.24560547,-94.61129000
39.27612305,-90.67275000
39.30664063,-88.97121000
39.33715820,-89.21802000
39.36767578,-90.96455000
39.39819336,-92.47173000
39.42871094,-91.69324000
39.45922852,-91.62988000
39.48974609,-95.52383000
39.52026367,-102.81820000
39.55078125,-91.72860000
39.58129883,-87.74966000
39.61181641,-86.92636000
39.64233398,-88.44273000
39.67285156,-92.42645000
39.70336914,-99.33845000
39.73388672,-106.89830000
39.76440430,-104.58150000
39.79492188,-98.63281000
39.82543945,-96.94765000
39.85595703,-98.70377000
39.88647461,-100.43730000
39.91699219,-101.85700000
39.94750977,-113.52420000
39.97802734,-100.01270000
40.00854492,-92.91206000
40.03906250,-91.68773000
40.06958008,-93.49039000
40.10009766,-93.92796000
40.13061523,-94.39030000
40.16113281,-97.60856000
40.19165039,-101.75880000
40.22216797,-102.93040000
40.25268555,-102.91290000
40.28320313,-103.05420000
40.31372070,-99.49887000
40.34423828,-94.68419000
40.37475586,-91.53299000
40.40527344,-89.41626000
40.43579102,-87.95465000
40.46630859,-87.91068000
40.49682617,-90.84494000
40.52734375,-101.70220000
40.55786133,-99.23679000
40.58837891,-93.28310000
40.61889648,-92.79003000
40.64941406,-96.25652000
40.67993164,-113.23570000
40.71044922,-96.30650000
40.74096680,-90.10381000
40.77148438,-88.95314000
40.80200195,-92.27576000
40.83251953,-94.96271000
40.86303711,-90.69804000
40.89355469,-90.09495000
40.92407227,-93.05167000
40.95458984,-97.89616000
40.98510742,-96.36668000
41.01562500,-93.60013000
41.04614258,-90.68795000
41.07666016,-88.64602000
41.10717773,-87.24562000
41.13769531,-85.50204000
41.16821289,-84.02534000
41.19873047,-83.12148000
41.22924805,-82.86561000
41.25976563,-83.97354000
41.29028320,-87.22434000
41.32080078,-92.69873000
41.35131836,-96.01780000
41.38183594,-93.30589000
41.41235352,-90.46281000
41.44287109,-89.47921000
41.47338867,-91.13968000
41.50390625,-97.05261000
41.53442383,-106.95620000
41.56494141,-91.77921000
41.59545898,-86.91390000
41.62597656,-85.44699000
41.65649414,-86.83543000
41.68701172,-91.48625000
41.71752930,-97.79428000
41.74804688,-94.70351000
41.77856445,-94.80444000
41.80908203,-104.15800000
41.83959961,-91.98312000
41.87011719,-87.74192000
41.90063477,-88.13348000
41.93115234,-90.84454000
41.96166992,-91.47454000
41.99218750,-89.99638000
42.02270508,-89.58128000
42.05322266,-90.15766000
42.08374023,-90.93954000
42.11425781,-91.00201000
42.14477539,-90.98032000
42.17529297,-90.68796000
42.20581055,-88.94859000
42.23632813,-89.08226000
42.26684570,-93.43269000
42.29736328,-106.42890000
42.32788086,-108.26370000
42.35839844,-101.19640000
42.38891602,-95.62740000
42.41943359,-92.62566000
42.44995117,-92.09203000
42.48046875,-91.95630000
42.51098633,-90.76587000
42.54150391,-90.81982000
42.57202148,-92.51131000
42.60253906,-90.92603000
42.63305664,-87.74010000
42.66357422,-87.19795000
42.69409180,-90.99807000
42.72460938,-115.41940000
42.75512695,-93.84221000
42.78564453,-93.56255000
42.81616211,-105.54070000
42.84667969,-95.81143000
42.87719727,-89.20235000
42.90771484,-87.25488000
42.93823242,-88.56708000
42.96875000,-92.67411000
42.99926758,-95.94626000
43.02978516,-90.68695000
43.06030273,-88.02060000
43.09082031,-87.74285000
43.12133789,-86.90611000
43.15185547,-84.99371000
43.18237305,-83.44009000
43.21289063,-82.79960000
43.24340820,-83.60650000
43.27392578,-86.63388000
43.30444336,-91.02798000
43.33496094,-88.99354000
43.36547852,-86.93908000
43.39599609,-87.91650000
43.42651367,-92.31963000
43.45703125,-101.23340000
43.48754883,-90.31567000
43.51806641,-84.91541000
43.54858398,-83.19266000
43.57910156,-84.40926000
43.60961914,-88.88115000
43.64013672,-95.91609000
43.67065430,-92.68086000
43.70117188,-90.06856000
43.73168945,-90.42712000
43.76220703,-93.85587000
43.79272461,-96.91596000
43.82324219,-91.61721000
43.85375977,-89.92486000
43.88427734,-94.13997000
43.91479492,-96.94289000
43.94531250,-89.90070000
43.97583008,-89.35619000
44.00634766,-91.23193000
44.03686523,-91.78887000
44.06738281,-93.01279000
44.09790039,-97.19186000
44.12841797,-107.27350000
44.15893555,-101.55830000
44.18945313,-93.12061000
44.21997070,-89.25127000
44.25048828,-88.21854000
44.28100586,-89.60135000
44.31152344,-93.28976000
44.34204102,-99.54952000
44.37255859,-110.88690000
44.40307617,-99.01366000
44.43359375,-94.05022000
44.46411133,-93.36844000
44.49462891,-96.13766000
44.52514648,-101.01250000
44.55566406,-99.44588000
44.58618164,-96.12476000
44.61669922,-93.94859000
44.64721680,-92.90363000
44.67773438,-93.62852000
44.70825195,-97.65277000
44.73876953,-102.34300000
44.76928711,-94.84828000
44.79980469,-91.82591000
44.83032227,-91.48441000
44.86083984,-91.13056000
44.89135742,-89.11839000
44.92187500,-88.23595000
44.95239258,-88.85600000
44.98291016,-88.99207000
45.01342773,-89.00395000
45.04394531,-89.78461000
45.07446289,-91.83887000
45.10498047,-97.10278000
45.13549805,-98.81142000
45.16601563,-93.85265000
45.19653320,-92.00684000
45.22705078,-92.05357000
45.25756836,-92.12897000
45.28808594,-91.27167000
45.31860352,-91.74923000
45.34912109,-94.98799000
45.37963867,-98.63679000
45.41015625,-97.47277000
45.44067383,-96.66709000
45.47119141,-97.58374000
45.50170898,-99.83285000
45.53222656,-95.65784000
45.56274414,-91.27985000
45.59326172,-90.01791000
45.62377930,-91.66218000
45.65429688,-96.71251000
45.68481445,-107.41470000
45.71533203,-97.38062000
45.74584961,-93.72754000
45.77636719,-94.81147000
45.80688477,-98.65518000
45.83740234,-96.73668000
45.86791992,-95.41569000
45.89843750,-99.20310000
45.92895508,-97.64091000
45.95947266,-92.56174000
45.98999023,-90.64925000
46.02050781,-90.36284000
46.05102539,-92.14115000
46.08154297,-97.54630000
46.11206055,-98.61456000
46.14257813,-93.66739000
46.17309570,-92.00107000
46.20361328,-92.02661000
46.23413086,-93.24020000
46.26464844,-97.30554000
46.29516602,-113.74100000
46.32568359,-100.58160000
46.35620117,-97.82307000
46.38671875,-99.15692000
46.41723633,-100.51290000
46.44775391,-101.09390000
46.47827148,-101.53600000
46.50878906,-97.32825000
46.53930664,-93.32175000
46.56982422,-91.99197000
46.60034180,-93.50072000
46.63085938,-97.77104000
46.66137695,-101.06840000
46.69189453,-96.76660000
46.72241211,-92.56768000
46.75292969,-90.45694000
46.78344727,-90.38713000
46.81396484,-92.15309000
46.84448242,-93.90794000
46.87500000,-92.04517000
46.90551758,-90.36295000
46.93603516,-91.39137000
46.96655273,-95.00309000
46.99707031,-96.82605000
47.02758789,-96.79568000
47.05810547,-96.85192000
47.08862305,-93.99185000
47.11914063,-92.62573000
47.14965820,-94.61351000
47.18017578,-102.40670000
47.21069336,-101.92130000
47.24121094,-94.78982000
47.27172852,-93.10490000
47.30224609,-94.00170000
47.33276367,-95.00960000
47.36328125,-95.02396000
47.39379883,-96.50967000
47.42431641,-98.83414000
47.45483398,-95.56977000
47.48535156,-93.86063000
47.51586914,-97.10285000
47.54638672,-109.00800000
47.57690430,-100.95870000
47.60742188,-99.95166000
47.63793945,-103.56020000
47.66845703,-103.26580000
47.69897461,-99.08169000
47.72949219,-96.67464000
47.76000977,-97.02184000
47.79052734,-102.94500000
47.82104492,-102.85750000
47.85156250,-93.42548000
47.88208008,-90.36122000
47.91259766,-90.51934000
47.94311523,-93.27800000
47.97363281,-98.11319000
48.00415039,-103.03670000
48.03466797,-102.91670000
48.06518555,-99.14194000
48.09570313,-100.04360000
48.12622070,-109.61840000
48.15673828,-99.33308000
48.18725586,-95.80562000
48.21777344,-96.70257000
48.24829102,-99.71895000
48.27880859,-104.30600000
48.30932617,-104.78990000
48.33984375,-96.90383000
48.37036133,-95.12740000
48.40087891,-97.59518000
48.43139648,-103.25180000
48.46191406,-106.06440000
48.49243164,-99.09278000
48.52294922,-94.27036000
48.55346680,-92.00175000
48.58398438,-91.36855000
48.61450195,-91.95969000
48.64501953,-93.41501000
48.67553711,-95.34328000
48.70605469,-97.29997000
48.73657227,-98.00019000
48.76708984,-97.23442000
48.79760742,-96.85928000
48.82812500,-96.58067000
48.85864258,-95.54325000
48.88916016,-94.48231000
48.91967773,-94.20579000
48.95019531,-94.76058000
48.98071289,-95.17837000
49.01123047,-95.23256000
49.04174805,-96.49728000
49.07226563,-98.99767000
49.10278320,-99.37951000
49.13330078,-96.28625000
49.16381836,-92.59071000
49.19433594,-89.59751000
49.22485352,-88.21830000
49.25537109,-89.12202000
49.28588867,-92.76608000
49.31640625,-99.25536000
49.34692383,-103.06000000
49.37744141,-98.72376000
49.40795898,-96.34041000
49.43847656,-96.99284000
49.46899414,-99.41011000
49.49951172,-99.03259000
49.53002930,-96.17015000
49.56054688,-94.93124000
49.59106445,-95.54679000
49.62158203,-97.09138000
49.65209961,-97.01012000
49.68261719,-96.69450000
49.71313477,-100.21390000
49.74365234,-109.69560000
49.77416992,-98.61350000
49.80468750,-94.49970000
49.83520508,-93.45610000
49.86572266,-94.93913000
49.89624023,-100.82850000
49.92675781,-98.98757000
49.95727539,-91.86237000
49.98779297,-89.20517000
50.01831055,-89.00897000
