Frequency,Channel A
(MHz),(dBu)

0.00000000,-25.88834000
0.03051758,-26.22776000
0.06103516,-31.30013000
0.09155273,-40.54897000
0.12207031,-53.40460000
0.15258789,-66.86777000
0.18310547,-68.92320000
0.21362305,-67.31332000
0.24414063,-64.74498000
0.27465820,-64.83353000
0.30517578,-66.34971000
0.33569336,-67.50711000
0.36621094,-81.02518000
0.39672852,-66.33459000
0.42724609,-63.24722000
0.45776367,-68.72731000
0.48828125,-69.56369000
0.51879883,-60.62343000
0.54931641,-59.31946000
0.57983398,-61.89278000
0.61035156,-66.27583000
0.64086914,-63.43153000
0.67138672,-61.43744000
0.70190430,-61.52963000
0.73242188,-61.84905000
0.76293945,-62.17946000
0.79345703,-63.50225000
0.82397461,-66.12973000
0.85449219,-68.46863000
0.88500977,-65.42587000
0.91552734,-63.42022000
0.94604492,-65.76883000
0.97656250,-69.59584000
1.00708008,-64.25610000
1.03759766,-62.05898000
1.06811523,-62.67573000
1.09863281,-64.56016000
1.12915039,-67.01194000
1.15966797,-70.49241000
1.19018555,-72.71519000
1.22070313,-72.08096000
1.25122070,-70.76350000
1.28173828,-67.93163000
1.31225586,-66.37424000
1.34277344,-68.37044000
1.37329102,-78.33279000
1.40380859,-74.46683000
1.43432617,-66.81285000
1.46484375,-63.79329000
1.49536133,-64.00679000
1.52587891,-68.96930000
1.55639648,-76.44277000
1.58691406,-66.89590000
1.61743164,-63.93933000
1.64794922,-63.88601000
1.67846680,-67.30909000
1.70898438,-81.70551000
1.73950195,-70.86862000
1.77001953,-67.12660000
1.80053711,-67.76643000
1.83105469,-68.58570000
1.86157227,-68.70264000
1.89208984,-72.05878000
1.92260742,-86.00340000
1.95312500,-74.62850000
1.98364258,-68.91252000
2.01416016,-67.17780000
2.04467773,-68.36175000
2.07519531,-72.97581000
2.10571289,-81.05759000
2.13623047,-68.07828000
2.16674805,-63.78593000
2.19726563,-64.05605000
2.22778320,-69.33165000
2.25830078,-95.16265000
2.28881836,-72.80669000
2.31933594,-69.00555000
2.34985352,-67.49357000
2.38037109,-68.59557000
2.41088867,-73.97165000
2.44140625,-80.98085000
2.47192383,-71.99620000
2.50244141,-68.65741000
2.53295898,-67.76967000
2.56347656,-68.83703000
2.59399414,-72.12253000
2.62451172,-74.70490000
2.65502930,-73.13148000
2.68554688,-72.92494000
2.71606445,-73.60381000
2.74658203,-73.79357000
2.77709961,-74.78404000
2.80761719,-73.54951000
2.83813477,-70.02043000
2.86865234,-67.58484000
2.89916992,-66.12115000
2.92968750,-65.58154000
2.96020508,-66.25404000
2.99072266,-68.15757000
3.02124023,-70.74592000
3.05175781,-70.43637000
3.08227539,-67.58544000
3.11279297,-66.68420000
3.14331055,-67.90775000
3.17382813,-68.77336000
3.20434570,-67.88603000
3.23486328,-67.47426000
3.26538086,-67.87029000
3.29589844,-68.55527000
3.32641602,-68.23438000
3.35693359,-67.30494000
3.38745117,-68.00690000
3.41796875,-68.79530000
3.44848633,-67.26009000
3.47900391,-66.63361000
3.50952148,-66.70648000
3.54003906,-66.38846000
3.57055664,-66.54344000
3.60107422,-66.16813000
3.63159180,-65.56609000
3.66210938,-66.30293000
3.69262695,-65.96352000
3.72314453,-63.56030000
3.75366211,-62.31900000
3.78417969,-63.05620000
3.81469727,-64.70493000
3.84521484,-64.83553000
3.87573242,-65.00582000
3.90625000,-66.10216000
3.93676758,-66.19453000
3.96728516,-66.18255000
3.99780273,-65.74660000
4.02832031,-64.63554000
4.05883789,-64.68534000
4.08935547,-65.97357000
4.11987305,-66.90222000
4.15039063,-65.54025000
4.18090820,-64.30846000
4.21142578,-65.23384000
4.24194336,-67.50767000
4.27246094,-68.84289000
4.30297852,-69.22292000
4.33349609,-67.98656000
4.36401367,-67.28027000
4.39453125,-68.47310000
4.42504883,-68.81339000
4.45556641,-67.90895000
4.48608398,-68.78564000
4.51660156,-70.76841000
4.54711914,-71.39939000
4.57763672,-72.23411000
4.60815430,-75.07904000
4.63867188,-75.34277000
4.66918945,-71.48344000
4.69970703,-70.15023000
4.73022461,-71.53014000
4.76074219,-73.09337000
4.79125977,-72.91882000
4.82177734,-74.59768000
4.85229492,-79.42850000
4.88281250,-77.89674000
4.91333008,-74.00026000
4.94384766,-72.47325000
4.97436523,-71.93915000
5.00488281,-71.75005000
5.03540039,-72.87714000
5.06591797,-75.66080000
5.09643555,-75.51225000
5.12695313,-73.46227000
5.15747070,-73.15948000
5.18798828,-74.42171000
5.21850586,-75.76236000
5.24902344,-74.25831000
5.27954102,-73.35313000
5.31005859,-75.34766000
5.34057617,-78.02618000
5.37109375,-77.51427000
5.40161133,-77.97543000
5.43212891,-80.02846000
5.46264648,-78.47955000
5.49316406,-75.60467000
5.52368164,-74.63579000
5.55419922,-74.61791000
5.58471680,-72.74496000
5.61523438,-70.32106000
5.64575195,-69.80782000
5.67626953,-69.45697000
5.70678711,-66.93309000
5.73730469,-64.98901000
5.76782227,-64.68045000
5.79833984,-65.13137000
5.82885742,-64.63363000
5.85937500,-63.71247000
5.88989258,-63.87639000
5.92041016,-64.58835000
5.95092773,-64.55653000
5.98144531,-64.56239000
6.01196289,-64.98983000
6.04248047,-65.19292000
6.07299805,-65.25594000
6.10351563,-65.62957000
6.13403320,-66.47887000
6.16455078,-67.03790000
6.19506836,-66.89336000
6.22558594,-67.24917000
6.25610352,-68.08749000
6.28662109,-68.85522000
6.31713867,-69.37128000
6.34765625,-68.99647000
6.37817383,-68.98138000
6.40869141,-70.45776000
6.43920898,-72.48846000
6.46972656,-74.01717000
6.50024414,-75.34388000
6.53076172,-75.79395000
6.56127930,-77.26464000
6.59179688,-80.17585000
6.62231445,-81.53573000
6.65283203,-80.96626000
6.68334961,-77.28557000
6.71386719,-74.23454000
6.74438477,-73.65308000
6.77490234,-74.89663000
6.80541992,-76.67300000
6.83593750,-78.10918000
6.86645508,-79.96517000
6.89697266,-84.64333000
6.92749023,-93.96466000
6.95800781,-88.63008000
6.98852539,-87.21432000
7.01904297,-84.05803000
7.04956055,-83.41882000
7.08007813,-88.78893000
7.11059570,-88.22005000
7.14111328,-82.37666000
7.17163086,-80.45567000
7.20214844,-80.74170000
7.23266602,-83.53937000
7.26318359,-89.01491000
7.29370117,-91.03881000
7.32421875,-88.76912000
7.35473633,-86.52504000
7.38525391,-87.93889000
7.41577148,-93.42525000
7.44628906,-90.72860000
7.47680664,-87.54517000
7.50732422,-87.54803000
7.53784180,-89.35675000
7.56835938,-90.24201000
7.59887695,-88.34863000
7.62939453,-84.87888000
7.65991211,-83.51926000
7.69042969,-85.87879000
7.72094727,-93.93877000
7.75146484,-87.64977000
7.78198242,-83.61901000
7.81250000,-84.86813000
7.84301758,-93.53822000
7.87353516,-88.93871000
7.90405273,-85.41447000
7.93457031,-88.49356000
7.96508789,-92.10975000
7.99560547,-85.79141000
8.02612305,-84.44519000
8.05664063,-88.51055000
8.08715820,-93.67047000
8.11767578,-86.19255000
8.14819336,-85.03902000
8.17871094,-85.91740000
8.20922852,-84.43439000
8.23974609,-84.44378000
8.27026367,-87.28268000
8.30078125,-91.42831000
8.33129883,-92.89133000
8.36181641,-89.71352000
8.39233398,-86.82133000
8.42285156,-85.52348000
8.45336914,-84.90579000
8.48388672,-84.30626000
8.51440430,-83.08829000
8.54492188,-82.52045000
8.57543945,-84.74824000
8.60595703,-91.38536000
8.63647461,-96.64725000
8.66699219,-105.75570000
8.69750977,-89.14372000
8.72802734,-84.22928000
8.75854492,-83.83949000
8.78906250,-86.24328000
8.81958008,-92.12317000
8.85009766,-97.36865000
8.88061523,-87.32780000
8.91113281,-85.37117000
8.94165039,-89.18982000
8.97216797,-101.02820000
9.00268555,-94.33276000
9.03320313,-95.27203000
9.06372070,-91.62363000
9.09423828,-87.10183000
9.12475586,-85.43672000
9.15527344,-86.42364000
9.18579102,-89.72067000
9.21630859,-90.29932000
9.24682617,-90.17766000
9.27734375,-94.68680000
9.30786133,-111.26490000
9.33837891,-91.69098000
9.36889648,-85.44865000
9.39941406,-83.10178000
9.42993164,-84.37059000
9.46044922,-91.45140000
9.49096680,-97.73351000
9.52148438,-89.45872000
9.55200195,-91.76794000
9.58251953,-119.37790000
9.61303711,-96.10760000
9.64355469,-106.17270000
9.67407227,-93.48899000
9.70458984,-88.37826000
9.73510742,-87.37527000
9.76562500,-86.76293000
9.79614258,-87.63663000
9.82666016,-91.64771000
9.85717773,-88.01489000
9.88769531,-83.72446000
9.91821289,-82.47387000
9.94873047,-83.84698000
9.97924805,-89.39088000
10.00976563,-88.40103000
10.04028320,-85.69484000
10.07080078,-90.30585000
10.10131836,-88.86501000
10.13183594,-81.47958000
10.16235352,-78.78118000
10.19287109,-78.91663000
10.22338867,-82.59149000
10.25390625,-93.38837000
10.28442383,-90.30537000
10.31494141,-87.97798000
10.34545898,-87.08093000
10.37597656,-85.84023000
10.40649414,-89.94250000
10.43701172,-94.77952000
10.46752930,-85.69905000
10.49804688,-85.24522000
10.52856445,-86.75679000
10.55908203,-83.98448000
10.58959961,-82.22522000
10.62011719,-83.20789000
10.65063477,-85.58605000
10.68115234,-88.01468000
10.71166992,-96.51909000
10.74218750,-90.97268000
10.77270508,-87.26469000
10.80322266,-87.67889000
10.83374023,-87.20872000
10.86425781,-87.74770000
10.89477539,-85.60394000
10.92529297,-82.69318000
10.95581055,-82.32938000
10.98632813,-83.37602000
11.01684570,-83.69683000
11.04736328,-83.79281000
11.07788086,-85.14252000
11.10839844,-84.93526000
11.13891602,-82.11208000
11.16943359,-80.91457000
11.19995117,-79.90894000
11.23046875,-78.07207000
11.26098633,-77.78980000
11.29150391,-79.73421000
11.32202148,-83.01845000
11.35253906,-86.65313000
11.38305664,-91.76292000
11.41357422,-88.58560000
11.44409180,-84.21973000
11.47460938,-84.22926000
11.50512695,-90.41976000
11.53564453,-85.10014000
11.56616211,-78.38812000
11.59667969,-77.36603000
11.62719727,-81.39651000
11.65771484,-99.89235000
11.68823242,-90.88286000
11.71875000,-95.98221000
11.74926758,-83.55617000
11.77978516,-80.11933000
11.81030273,-84.37354000
11.84082031,-91.96209000
11.87133789,-80.94409000
11.90185547,-81.15541000
11.93237305,-88.97424000
11.96289063,-93.14938000
11.99340820,-85.12016000
12.02392578,-82.33714000
12.05444336,-81.32185000
12.08496094,-79.82384000
12.11547852,-77.93507000
12.14599609,-78.32086000
12.17651367,-81.35044000
12.20703125,-85.50528000
12.23754883,-84.66004000
12.26806641,-81.18931000
12.29858398,-79.72541000
12.32910156,-79.40038000
12.35961914,-79.54076000
12.39013672,-81.11031000
12.42065430,-84.06810000
12.45117188,-86.73819000
12.48168945,-90.39025000
12.51220703,-94.11588000
12.54272461,-95.69900000
12.57324219,-82.87582000
12.60375977,-78.21112000
12.63427734,-77.40216000
12.66479492,-78.80734000
12.69531250,-81.32516000
12.72583008,-84.14115000
12.75634766,-82.77576000
12.78686523,-81.37651000
12.81738281,-84.51804000
12.84790039,-82.88702000
12.87841797,-78.05991000
12.90893555,-77.96859000
12.93945313,-81.58271000
12.96997070,-83.72031000
13.00048828,-80.47566000
13.03100586,-78.33848000
13.06152344,-78.90842000
13.09204102,-84.82372000
13.12255859,-95.67340000
13.15307617,-84.79675000
13.18359375,-86.27054000
13.21411133,-94.29246000
13.24462891,-84.65639000
13.27514648,-80.32433000
13.30566406,-79.91122000
13.33618164,-82.67181000
13.36669922,-88.66876000
13.39721680,-88.06301000
13.42773438,-87.22205000
13.45825195,-87.08356000
13.48876953,-73.16463000
13.51928711,-66.90621000
13.54980469,-64.68021000
13.58032227,-66.28223000
13.61083984,-73.51901000
13.64135742,-76.25455000
13.67187500,-72.29013000
13.70239258,-73.65419000
13.73291016,-76.55681000
13.76342773,-78.83305000
13.79394531,-77.18751000
13.82446289,-76.23862000
13.85498047,-77.87381000
13.88549805,-78.82063000
13.91601563,-78.07494000
13.94653320,-79.96781000
13.97705078,-87.80894000
14.00756836,-86.30141000
14.03808594,-83.67090000
14.06860352,-89.67498000
14.09912109,-92.23893000
14.12963867,-86.94153000
14.16015625,-90.85309000
14.19067383,-86.14982000
14.22119141,-80.10455000
14.25170898,-77.15773000
14.28222656,-76.07760000
14.31274414,-77.12450000
14.34326172,-80.82803000
14.37377930,-86.84753000
14.40429688,-90.18144000
14.43481445,-88.51067000
14.46533203,-86.91570000
14.49584961,-86.77461000
14.52636719,-85.03182000
14.55688477,-80.71881000
14.58740234,-78.13619000
14.61791992,-77.88919000
14.64843750,-79.21887000
14.67895508,-80.61669000
14.70947266,-81.25813000
14.73999023,-82.36542000
14.77050781,-84.57359000
14.80102539,-83.96069000
14.83154297,-81.83846000
14.86206055,-81.03325000
14.89257813,-81.24859000
14.92309570,-82.58492000
14.95361328,-85.43681000
14.98413086,-89.94579000
15.01464844,-92.02831000
15.04516602,-89.19292000
15.07568359,-84.71095000
15.10620117,-79.78967000
15.13671875,-78.04179000
15.16723633,-79.12628000
15.19775391,-81.77263000
15.22827148,-84.63058000
15.25878906,-84.82520000
15.28930664,-82.81422000
15.31982422,-83.40240000
15.35034180,-86.09345000
15.38085938,-84.56903000
15.41137695,-81.25821000
15.44189453,-80.06227000
15.47241211,-81.12788000
15.50292969,-81.98203000
15.53344727,-81.62286000
15.56396484,-82.89529000
15.59448242,-86.65276000
15.62500000,-90.10662000
15.65551758,-90.00957000
15.68603516,-89.62228000
15.71655273,-92.44057000
15.74707031,-88.65204000
15.77758789,-85.49249000
15.80810547,-85.13002000
15.83862305,-85.44167000
15.86914063,-90.09121000
15.89965820,-96.78940000
15.93017578,-86.77937000
15.96069336,-87.57858000
15.99121094,-97.02684000
16.02172852,-103.57330000
16.05224609,-97.46266000
16.08276367,-91.90253000
16.11328125,-93.47466000
16.14379883,-107.14520000
16.17431641,-95.58972000
16.20483398,-92.17381000
16.23535156,-94.22886000
16.26586914,-102.61580000
16.29638672,-91.73404000
16.32690430,-91.90594000
16.35742188,-96.59191000
16.38793945,-87.40356000
16.41845703,-84.89880000
16.44897461,-84.33595000
16.47949219,-84.98979000
16.51000977,-89.41399000
16.54052734,-101.00240000
16.57104492,-94.54446000
16.60156250,-95.65186000
16.63208008,-101.21150000
16.66259766,-90.56523000
16.69311523,-85.34877000
16.72363281,-85.21368000
16.75415039,-87.73592000
16.78466797,-88.84756000
16.81518555,-93.16949000
16.84570313,-98.00549000
16.87622070,-95.32574000
16.90673828,-97.19731000
16.93725586,-94.85764000
16.96777344,-95.25107000
16.99829102,-96.50551000
17.02880859,-93.66881000
17.05932617,-91.12778000
17.08984375,-90.60214000
17.12036133,-93.24516000
17.15087891,-99.49895000
17.18139648,-98.22746000
17.21191406,-93.98651000
17.24243164,-94.28076000
17.27294922,-101.43470000
17.30346680,-105.97620000
17.33398438,-98.90561000
17.36450195,-90.59502000
17.39501953,-85.04297000
17.42553711,-83.68751000
17.45605469,-86.27724000
17.48657227,-93.08063000
17.51708984,-91.25736000
17.54760742,-89.57228000
17.57812500,-93.20977000
17.60864258,-97.12671000
17.63916016,-90.92819000
17.66967773,-89.47246000
17.70019531,-90.43168000
17.73071289,-83.92848000
17.76123047,-77.78755000
17.79174805,-74.88807000
17.82226563,-74.90780000
17.85278320,-77.60806000
17.88330078,-82.28198000
17.91381836,-86.37811000
17.94433594,-89.30306000
17.97485352,-91.62349000
18.00537109,-89.47369000
18.03588867,-89.55766000
18.06640625,-92.44757000
18.09692383,-95.71571000
18.12744141,-104.00930000
18.15795898,-98.14464000
18.18847656,-96.58077000
18.21899414,-101.94620000
18.24951172,-104.92150000
18.28002930,-95.96796000
18.31054688,-91.00406000
18.34106445,-90.51091000
18.37158203,-92.87985000
18.40209961,-96.10684000
18.43261719,-100.78100000
18.46313477,-101.29490000
18.49365234,-106.41100000
18.52416992,-97.70020000
18.55468750,-92.87471000
18.58520508,-94.77500000
18.61572266,-101.59810000
18.64624023,-103.94630000
18.67675781,-103.75320000
18.70727539,-99.97418000
18.73779297,-98.52298000
18.76831055,-93.65114000
18.79882813,-92.46159000
18.82934570,-95.49020000
18.85986328,-99.40178000
18.89038086,-99.05715000
18.92089844,-98.80713000
18.95141602,-97.81257000
18.98193359,-96.26662000
19.01245117,-95.77029000
19.04296875,-96.11888000
19.07348633,-96.61556000
19.10400391,-98.80120000
19.13452148,-105.61660000
19.16503906,-105.16820000
19.19555664,-100.35450000
19.22607422,-99.76727000
19.25659180,-101.35580000
19.28710938,-107.90760000
19.31762695,-101.65860000
19.34814453,-96.53741000
19.37866211,-97.90167000
19.40917969,-95.70245000
19.43969727,-91.73605000
19.47021484,-91.16136000
19.50073242,-92.65521000
19.53125000,-93.99567000
19.56176758,-93.44978000
19.59228516,-92.38557000
19.62280273,-91.15654000
19.65332031,-89.57978000
19.68383789,-88.29163000
19.71435547,-88.04290000
19.74487305,-89.53555000
19.77539063,-94.01880000
19.80590820,-104.21500000
19.83642578,-97.97343000
19.86694336,-92.83035000
19.89746094,-90.34222000
19.92797852,-90.37700000
19.95849609,-94.52721000
19.98901367,-106.26980000
20.01953125,-99.50935000
20.05004883,-95.27390000
20.08056641,-94.12685000
20.11108398,-98.96545000
20.14160156,-98.63900000
20.17211914,-93.26410000
20.20263672,-92.83769000
20.23315430,-93.26534000
20.26367188,-94.96126000
20.29418945,-97.14745000
20.32470703,-93.92566000
20.35522461,-92.03857000
20.38574219,-90.43976000
20.41625977,-89.44210000
20.44677734,-89.35230000
20.47729492,-89.92020000
20.50781250,-91.52052000
20.53833008,-93.13539000
20.56884766,-94.92838000
20.59936523,-99.41512000
20.62988281,-97.37393000
20.66040039,-92.66105000
20.69091797,-91.48157000
20.72143555,-93.09516000
20.75195313,-97.18851000
20.78247070,-100.46190000
20.81298828,-99.23749000
20.84350586,-99.52687000
20.87402344,-100.73960000
20.90454102,-102.76840000
20.93505859,-113.27640000
20.96557617,-98.47978000
20.99609375,-92.74276000
21.02661133,-91.43675000
21.05712891,-92.24216000
21.08764648,-93.23167000
21.11816406,-92.70461000
21.14868164,-90.83604000
21.17919922,-90.15594000
21.20971680,-92.25696000
21.24023438,-97.54546000
21.27075195,-101.30730000
21.30126953,-111.10600000
21.33178711,-100.45890000
21.36230469,-95.03908000
21.39282227,-95.36121000
21.42333984,-97.40730000
21.45385742,-98.59692000
21.48437500,-103.49150000
21.51489258,-101.01350000
21.54541016,-97.26608000
21.57592773,-96.11942000
21.60644531,-94.27392000
21.63696289,-94.40149000
21.66748047,-98.28134000
21.69799805,-108.20380000
21.72851563,-104.27080000
21.75903320,-97.55264000
21.78955078,-95.36726000
21.82006836,-95.46577000
21.85058594,-94.15856000
21.88110352,-91.46458000
21.91162109,-91.26572000
21.94213867,-97.01065000
21.97265625,-100.74960000
22.00317383,-90.59212000
22.03369141,-89.10524000
22.06420898,-92.27164000
22.09472656,-98.69557000
22.12524414,-93.74299000
22.15576172,-91.18568000
22.18627930,-91.75850000
22.21679688,-93.62259000
22.24731445,-94.05576000
22.27783203,-92.48420000
22.30834961,-91.66378000
22.33886719,-93.05370000
22.36938477,-94.30850000
22.39990234,-92.65358000
22.43041992,-92.00332000
22.46093750,-93.05955000
22.49145508,-94.33755000
22.52197266,-94.32972000
22.55249023,-93.58647000
22.58300781,-93.38310000
22.61352539,-94.79484000
22.64404297,-98.28159000
22.67456055,-100.50380000
22.70507813,-100.83780000
22.73559570,-102.97750000
22.76611328,-97.38506000
22.79663086,-92.94323000
22.82714844,-92.34195000
22.85766602,-93.87564000
22.88818359,-93.06871000
22.91870117,-91.62559000
22.94921875,-91.43195000
22.97973633,-92.02760000
23.01025391,-92.51033000
23.04077148,-93.16711000
23.07128906,-94.34852000
23.10180664,-93.98158000
23.13232422,-93.71062000
23.16284180,-94.32657000
23.19335938,-95.15161000
23.22387695,-98.87505000
23.25439453,-107.49270000
23.28491211,-105.32820000
23.31542969,-108.28880000
23.34594727,-116.85100000
23.37646484,-103.25530000
23.40698242,-101.70160000
23.43750000,-108.44820000
23.46801758,-105.80700000
23.49853516,-104.03710000
23.52905273,-110.32600000
23.55957031,-100.85680000
23.59008789,-100.05020000
23.62060547,-102.35750000
23.65112305,-98.65483000
23.68164063,-95.16091000
23.71215820,-93.12730000
23.74267578,-93.36793000
23.77319336,-96.75487000
23.80371094,-105.75910000
23.83422852,-104.93490000
23.86474609,-97.80063000
23.89526367,-94.63375000
23.92578125,-93.59323000
23.95629883,-94.54029000
23.98681641,-96.77435000
24.01733398,-98.44323000
24.04785156,-100.35050000
24.07836914,-102.87530000
24.10888672,-103.86970000
24.13940430,-101.17930000
24.16992188,-96.39355000
24.20043945,-94.08608000
24.23095703,-93.70369000
24.26147461,-93.31815000
24.29199219,-94.96667000
24.32250977,-102.73120000
24.35302734,-102.33010000
24.38354492,-97.15862000
24.41406250,-95.80823000
24.44458008,-96.91261000
24.47509766,-102.42500000
24.50561523,-94.40237000
24.53613281,-90.62007000
24.56665039,-91.31310000
24.59716797,-94.81894000
24.62768555,-98.24411000
24.65820313,-98.10075000
24.68872070,-97.82600000
24.71923828,-100.74300000
24.74975586,-102.07710000
24.78027344,-96.44467000
24.81079102,-92.61947000
24.84130859,-91.56243000
24.87182617,-93.03875000
24.90234375,-95.56976000
24.93286133,-97.55676000
24.96337891,-99.47704000
24.99389648,-99.73293000
25.02441406,-98.63603000
25.05493164,-95.84296000
25.08544922,-92.99889000
25.11596680,-92.23155000
25.14648438,-94.01450000
25.17700195,-99.22290000
25.20751953,-111.25080000
25.23803711,-109.79430000
25.26855469,-99.82140000
25.29907227,-95.99072000
25.32958984,-94.83299000
25.36010742,-93.92999000
25.39062500,-93.15797000
25.42114258,-94.23913000
25.45166016,-97.96785000
25.48217773,-105.07860000
25.51269531,-105.30260000
25.54321289,-98.08298000
25.57373047,-97.03491000
25.60424805,-100.54340000
25.63476563,-96.59317000
25.66528320,-93.77402000
25.69580078,-96.88580000
25.72631836,-104.72190000
25.75683594,-95.37640000
25.78735352,-91.41879000
25.81787109,-89.92196000
25.84838867,-91.30008000
25.87890625,-96.86692000
25.90942383,-101.32130000
25.93994141,-99.73795000
25.97045898,-101.30580000
26.00097656,-96.68442000
26.03149414,-92.01549000
26.06201172,-89.64262000
26.09252930,-89.32053000
26.12304688,-90.66872000
26.15356445,-93.38811000
26.18408203,-96.16881000
26.21459961,-95.63268000
26.24511719,-95.42148000
26.27563477,-98.84070000
26.30615234,-103.67000000
26.33666992,-98.17331000
26.36718750,-93.54969000
26.39770508,-92.85035000
26.42822266,-96.06373000
26.45874023,-97.99269000
26.48925781,-96.74987000
26.51977539,-98.13829000
26.55029297,-102.08260000
26.58081055,-110.21670000
26.61132813,-110.07960000
26.64184570,-103.29040000
26.67236328,-94.64894000
26.70288086,-90.77853000
26.73339844,-90.17244000
26.76391602,-91.00681000
26.79443359,-92.13429000
26.82495117,-94.77216000
26.85546875,-98.53478000
26.88598633,-98.64190000
26.91650391,-100.15960000
26.94702148,-103.44140000
26.97753906,-103.63210000
27.00805664,-96.92056000
27.03857422,-92.33337000
27.06909180,-90.91708000
27.09960938,-91.66467000
27.13012695,-93.44647000
27.16064453,-95.34673000
27.19116211,-100.72630000
27.22167969,-105.12140000
27.25219727,-94.12735000
27.28271484,-92.42310000
27.31323242,-94.83615000
27.34375000,-95.30610000
27.37426758,-92.21371000
27.40478516,-91.66282000
27.43530273,-93.21741000
27.46582031,-93.41210000
27.49633789,-92.15697000
27.52685547,-92.38174000
27.55737305,-94.08751000
27.58789063,-94.94559000
27.61840820,-94.48448000
27.64892578,-95.13920000
27.67944336,-95.89873000
27.70996094,-96.47812000
27.74047852,-99.43877000
27.77099609,-105.71660000
27.80151367,-104.59400000
27.83203125,-103.97030000
27.86254883,-104.61420000
27.89306641,-101.90430000
27.92358398,-108.72900000
27.95410156,-99.08334000
27.98461914,-91.12561000
28.01513672,-89.16889000
28.04565430,-91.29161000
28.07617188,-98.44840000
28.10668945,-96.56205000
28.13720703,-91.07109000
28.16772461,-89.89839000
28.19824219,-91.71416000
28.22875977,-94.55326000
28.25927734,-94.70271000
28.28979492,-92.99731000
28.32031250,-91.90646000
28.35083008,-91.88097000
28.38134766,-90.84253000
28.41186523,-89.15114000
28.44238281,-88.94875000
28.47290039,-90.82139000
28.50341797,-93.82729000
28.53393555,-93.67413000
28.56445313,-90.66016000
28.59497070,-88.53367000
28.62548828,-88.98982000
28.65600586,-93.21220000
28.68652344,-96.64189000
28.71704102,-94.42649000
28.74755859,-97.96782000
28.77807617,-103.34090000
28.80859375,-96.17181000
28.83911133,-94.14552000
28.86962891,-93.11843000
28.90014648,-91.22634000
28.93066406,-88.71247000
28.96118164,-87.09131000
28.99169922,-87.07230000
29.02221680,-88.30113000
29.05273438,-89.64100000
29.08325195,-91.00697000
29.11376953,-93.10318000
29.14428711,-94.38007000
29.17480469,-94.63650000
29.20532227,-93.70805000
29.23583984,-93.57112000
29.26635742,-98.09421000
29.29687500,-114.65660000
29.32739258,-96.62766000
29.35791016,-92.11609000
29.38842773,-89.25950000
29.41894531,-87.44805000
29.44946289,-87.23836000
29.47998047,-88.93607000
29.51049805,-92.19905000
29.54101563,-94.09913000
29.57153320,-91.57352000
29.60205078,-88.74693000
29.63256836,-87.36642000
29.66308594,-87.55806000
29.69360352,-88.99361000
29.72412109,-90.51781000
29.75463867,-91.29707000
29.78515625,-92.26083000
29.81567383,-93.62180000
29.84619141,-94.53703000
29.87670898,-93.46508000
29.90722656,-91.96758000
29.93774414,-91.82407000
29.96826172,-92.46283000
29.99877930,-93.70155000
30.02929688,-95.87180000
30.05981445,-96.28526000
30.09033203,-94.50379000
30.12084961,-93.33279000
30.15136719,-92.49452000
30.18188477,-90.95346000
30.21240234,-88.21970000
30.24291992,-86.09864000
30.27343750,-85.77626000
30.30395508,-87.26590000
30.33447266,-90.23409000
30.36499023,-94.97699000
30.39550781,-104.07150000
30.42602539,-98.44221000
30.45654297,-93.89404000
30.48706055,-92.68939000
30.51757813,-92.07854000
30.54809570,-91.04660000
30.57861328,-90.82047000
30.60913086,-92.09893000
30.63964844,-93.58931000
30.67016602,-92.60891000
30.70068359,-91.44232000
30.73120117,-92.36630000
30.76171875,-96.40117000
30.79223633,-109.11670000
30.82275391,-94.63324000
30.85327148,-88.44179000
30.88378906,-86.00697000
30.91430664,-85.91951000
30.94482422,-87.83738000
30.97534180,-91.66386000
31.00585938,-93.93475000
31.03637695,-92.03431000
31.06689453,-92.29389000
31.09741211,-96.86745000
31.12792969,-109.80920000
31.15844727,-95.08582000
31.18896484,-90.59193000
31.21948242,-90.08323000
31.25000000,-92.87303000
31.28051758,-92.52525000
31.31103516,-87.81471000
31.34155273,-85.90371000
31.37207031,-86.41654000
31.40258789,-88.56849000
31.43310547,-92.07455000
31.46362305,-97.00566000
31.49414063,-94.13247000
31.52465820,-89.74097000
31.55517578,-88.03420000
31.58569336,-88.17470000
31.61621094,-89.19974000
31.64672852,-90.18987000
31.67724609,-91.78406000
31.70776367,-94.90706000
31.73828125,-95.36866000
31.76879883,-93.95769000
31.79931641,-93.58762000
31.82983398,-92.29896000
31.86035156,-90.82760000
31.89086914,-89.94063000
31.92138672,-89.17406000
31.95190430,-88.40147000
31.98242188,-88.25355000
32.01293945,-88.92055000
32.04345703,-89.88454000
32.07397461,-90.80906000
32.10449219,-91.74013000
32.13500977,-91.41639000
32.16552734,-89.68192000
32.19604492,-88.38599000
32.22656250,-87.88954000
32.25708008,-87.31942000
32.28759766,-86.72394000
32.31811523,-87.16605000
32.34863281,-88.81712000
32.37915039,-90.64375000
32.40966797,-91.22176000
32.44018555,-90.89957000
32.47070313,-91.68248000
32.50122070,-95.53841000
32.53173828,-98.85490000
32.56225586,-93.90073000
32.59277344,-91.51785000
32.62329102,-89.88374000
32.65380859,-88.23476000
32.68432617,-88.04561000
32.71484375,-89.84070000
32.74536133,-92.90191000
32.77587891,-94.55230000
32.80639648,-92.48390000
32.83691406,-90.29172000
32.86743164,-89.49169000
32.89794922,-90.02819000
32.92846680,-91.09035000
32.95898438,-90.92225000
32.98950195,-90.38367000
33.02001953,-91.02318000
33.05053711,-93.30197000
33.08105469,-99.10585000
33.11157227,-105.96680000
33.14208984,-96.70398000
33.17260742,-93.51079000
33.20312500,-92.46028000
33.23364258,-92.57369000
33.26416016,-92.58007000
33.29467773,-91.18674000
33.32519531,-89.53516000
33.35571289,-88.12530000
33.38623047,-86.27751000
33.41674805,-84.21603000
33.44726563,-82.84631000
33.47778320,-82.61908000
33.50830078,-83.64506000
33.53881836,-85.66852000
33.56933594,-86.83127000
33.59985352,-85.77933000
33.63037109,-85.40849000
33.66088867,-87.22501000
33.69140625,-90.84012000
33.72192383,-92.73029000
33.75244141,-91.02779000
33.78295898,-89.79343000
33.81347656,-90.17158000
33.84399414,-92.15889000
33.87451172,-93.53578000
33.90502930,-90.54340000
33.93554688,-88.03204000
33.96606445,-87.32596000
33.99658203,-87.57523000
34.02709961,-87.66365000
34.05761719,-87.12256000
34.08813477,-86.30855000
34.11865234,-85.69876000
34.14916992,-85.66284000
34.17968750,-86.19032000
34.21020508,-86.53797000
34.24072266,-86.32101000
34.27124023,-86.23642000
34.30175781,-86.41051000
34.33227539,-86.34871000
34.36279297,-86.00872000
34.39331055,-85.81918000
34.42382813,-86.19199000
34.45434570,-87.69087000
34.48486328,-91.20266000
34.51538086,-93.16349000
34.54589844,-89.13609000
34.57641602,-87.34489000
34.60693359,-87.88615000
34.63745117,-88.82453000
34.66796875,-88.44810000
34.69848633,-87.59415000
34.72900391,-87.12379000
34.75952148,-86.90563000
34.79003906,-85.88508000
34.82055664,-84.00597000
34.85107422,-82.66173000
34.88159180,-82.53140000
34.91210938,-83.31414000
34.94262695,-84.09721000
34.97314453,-84.55431000
35.00366211,-85.22176000
35.03417969,-86.23069000
35.06469727,-87.14191000
35.09521484,-87.84875000
35.12573242,-89.22578000
35.15625000,-92.26098000
35.18676758,-95.35277000
35.21728516,-94.49116000
35.24780273,-93.95834000
35.27832031,-94.93900000
35.30883789,-94.69133000
35.33935547,-91.35480000
35.36987305,-88.18954000
35.40039063,-86.36751000
35.43090820,-85.68333000
35.46142578,-85.71275000
35.49194336,-86.08862000
35.52246094,-86.50539000
35.55297852,-86.86864000
35.58349609,-87.38388000
35.61401367,-88.20305000
35.64453125,-89.38611000
35.67504883,-91.09924000
35.70556641,-93.14348000
35.73608398,-92.95454000
35.76660156,-91.37498000
35.79711914,-91.40054000
35.82763672,-93.01406000
35.85815430,-94.88731000
35.88867188,-95.83167000
35.91918945,-95.60322000
35.94970703,-93.42876000
35.98022461,-91.09039000
36.01074219,-89.76693000
36.04125977,-88.92280000
36.07177734,-88.05854000
36.10229492,-87.92458000
36.13281250,-89.64059000
36.16333008,-93.64293000
36.19384766,-95.35606000
36.22436523,-92.52397000
36.25488281,-90.83953000
36.28540039,-90.64361000
36.31591797,-91.86273000
36.34643555,-93.58453000
36.37695313,-92.82301000
36.40747070,-90.82149000
36.43798828,-90.06456000
36.46850586,-90.52197000
36.49902344,-90.65833000
36.52954102,-89.63280000
36.56005859,-88.88912000
36.59057617,-89.52035000
36.62109375,-91.82404000
36.65161133,-92.84501000
36.68212891,-90.09858000
36.71264648,-88.46507000
36.74316406,-88.70787000
36.77368164,-90.17883000
36.80419922,-92.29832000
36.83471680,-94.69009000
36.86523438,-93.67324000
36.89575195,-90.01126000
36.92626953,-87.67002000
36.95678711,-87.00946000
36.98730469,-87.90084000
37.01782227,-89.46166000
37.04833984,-90.51935000
37.07885742,-91.63574000
37.10937500,-92.89661000
37.13989258,-93.45924000
37.17041016,-93.67911000
37.20092773,-94.29943000
37.23144531,-94.95712000
37.26196289,-96.45419000
37.29248047,-101.92440000
37.32299805,-105.91330000
37.35351563,-96.93378000
37.38403320,-94.34922000
37.41455078,-94.03481000
37.44506836,-93.12437000
37.47558594,-91.20692000
37.50610352,-89.49332000
37.53662109,-88.61828000
37.56713867,-88.91669000
37.59765625,-89.91135000
37.62817383,-90.90086000
37.65869141,-92.90432000
37.68920898,-97.45159000
37.71972656,-105.98090000
37.75024414,-108.71290000
37.78076172,-99.69386000
37.81127930,-96.64532000
37.84179688,-97.13933000
37.87231445,-97.78474000
37.90283203,-93.96247000
37.93334961,-90.33852000
37.96386719,-88.69139000
37.99438477,-89.08649000
38.02490234,-90.31322000
38.05541992,-89.51285000
38.08593750,-88.03984000
38.11645508,-87.48505000
38.14697266,-87.97662000
38.17749023,-90.02016000
38.20800781,-92.91450000
38.23852539,-92.88349000
38.26904297,-90.56618000
38.29956055,-88.31916000
38.33007813,-87.57119000
38.36059570,-89.18948000
38.39111328,-93.28650000
38.42163086,-97.30877000
38.45214844,-94.82236000
38.48266602,-92.41096000
38.51318359,-93.37613000
38.54370117,-98.04852000
38.57421875,-100.07310000
38.60473633,-95.81102000
38.63525391,-94.26045000
38.66577148,-95.98550000
38.69628906,-100.52920000
38.72680664,-94.09395000
38.75732422,-89.67200000
38.78784180,-88.90969000
38.81835938,-90.49370000
38.84887695,-92.07406000
38.87939453,-91.90553000
38.90991211,-91.85269000
38.94042969,-93.34350000
38.97094727,-95.47996000
39.00146484,-94.69917000
39.03198242,-94.06259000
39.06250000,-97.58463000
39.09301758,-106.44200000
39.12353516,-94.83642000
39.15405273,-90.80460000
39.18457031,-88.93074000
39.21508789,-87.85713000
39.24560547,-87.91934000
39.27612305,-89.79996000
39.30664063,-94.27914000
39.33715820,-98.42928000
39.36767578,-95.33134000
39.39819336,-92.76663000
39.42871094,-91.20401000
39.45922852,-90.46948000
39.48974609,-91.31160000
39.52026367,-94.64275000
39.55078125,-98.88592000
39.58129883,-99.42962000
39.61181641,-98.83548000
39.64233398,-95.06509000
39.67285156,-93.00999000
39.70336914,-93.34375000
39.73388672,-94.42664000
39.76440430,-95.29543000
39.79492188,-97.85111000
39.82543945,-100.47860000
39.85595703,-95.65747000
39.88647461,-94.55104000
39.91699219,-96.74628000
39.94750977,-96.40378000
39.97802734,-94.27715000
40.00854492,-93.30608000
40.03906250,-93.17484000
40.06958008,-93.83256000
40.10009766,-95.09617000
40.13061523,-96.39701000
40.16113281,-97.24817000
40.19165039,-93.90614000
40.22216797,-89.46811000
40.25268555,-88.55712000
40.28320313,-92.65144000
40.31372070,-95.58546000
40.34423828,-90.26332000
40.37475586,-89.80050000
40.40527344,-90.82671000
40.43579102,-92.36156000
40.46630859,-101.03360000
40.49682617,-98.00375000
40.52734375,-92.87261000
40.55786133,-95.38248000
40.58837891,-105.33680000
40.61889648,-101.46010000
40.64941406,-99.01216000
40.67993164,-97.74387000
40.71044922,-96.11031000
40.74096680,-93.42694000
40.77148438,-91.85013000
40.80200195,-92.69022000
40.83251953,-94.76734000
40.86303711,-96.30876000
40.89355469,-96.61216000
40.92407227,-95.72384000
40.95458984,-97.05307000
40.98510742,-104.53010000
41.01562500,-106.72200000
41.04614258,-101.84760000
41.07666016,-100.79380000
41.10717773,-100.68560000
41.13769531,-101.48660000
41.16821289,-98.81073000
41.19873047,-93.63586000
41.22924805,-90.75148000
41.25976563,-91.94626000
41.29028320,-96.40154000
41.32080078,-88.67708000
41.35131836,-84.13174000
41.38183594,-82.82134000
41.41235352,-83.96389000
41.44287109,-87.81371000
41.47338867,-96.14761000
41.50390625,-110.90640000
41.53442383,-127.05810000
41.56494141,-94.78752000
41.59545898,-87.63565000
41.62597656,-85.43954000
41.65649414,-87.29942000
41.68701172,-95.58266000
41.71752930,-97.68014000
41.74804688,-90.69183000
41.77856445,-89.76834000
41.80908203,-91.76495000
41.83959961,-95.96145000
41.87011719,-102.03060000
41.90063477,-106.01370000
41.93115234,-102.89670000
41.96166992,-103.48980000
41.99218750,-103.59970000
42.02270508,-96.27647000
42.05322266,-92.12426000
42.08374023,-91.02027000
42.11425781,-92.07472000
42.14477539,-94.20407000
42.17529297,-98.18918000
42.20581055,-101.66580000
42.23632813,-93.89682000
42.26684570,-87.85831000
42.29736328,-85.14137000
42.32788086,-85.26908000
42.35839844,-87.79878000
42.38891602,-91.48863000
42.41943359,-93.51176000
42.44995117,-95.44282000
42.48046875,-92.05341000
42.51098633,-85.29770000
42.54150391,-82.25228000
42.57202148,-82.50462000
42.60253906,-85.45979000
42.63305664,-89.05006000
42.66357422,-91.13521000
42.69409180,-93.29385000
42.72460938,-96.06658000
42.75512695,-98.04834000
42.78564453,-97.23499000
42.81616211,-94.58983000
42.84667969,-93.07114000
42.87719727,-95.24873000
42.90771484,-107.90560000
42.93823242,-100.16100000
42.96875000,-94.74877000
42.99926758,-92.84737000
43.02978516,-91.85564000
43.06030273,-91.47101000
43.09082031,-90.81514000
43.12133789,-90.17061000
43.15185547,-90.29740000
43.18237305,-92.19369000
43.21289063,-102.90850000
43.24340820,-94.36199000
43.27392578,-87.77238000
43.30444336,-86.41770000
43.33496094,-87.91895000
43.36547852,-91.23201000
43.39599609,-93.18163000
43.42651367,-92.82948000
43.45703125,-94.03735000
43.48754883,-98.82153000
43.51806641,-109.40300000
43.54858398,-103.75280000
43.57910156,-93.78322000
43.60961914,-88.93011000
43.64013672,-87.81364000
43.67065430,-89.86884000
43.70117188,-94.00161000
43.73168945,-94.39844000
43.76220703,-90.28275000
43.79272461,-87.80773000
43.82324219,-87.80537000
43.85375977,-89.41552000
43.88427734,-91.08623000
43.91479492,-92.15370000
43.94531250,-93.43433000
43.97583008,-95.06240000
44.00634766,-96.70434000
44.03686523,-98.75553000
44.06738281,-101.44360000
44.09790039,-107.20400000
44.12841797,-106.04510000
44.15893555,-95.43694000
44.18945313,-92.35391000
44.21997070,-94.30113000
44.25048828,-100.16840000
44.28100586,-93.53600000
44.31152344,-89.99088000
44.34204102,-90.04416000
44.37255859,-92.76817000
44.40307617,-96.04666000
44.43359375,-96.74374000
44.46411133,-96.70401000
44.49462891,-96.76750000
44.52514648,-96.65440000
44.55566406,-97.35309000
44.58618164,-97.31269000
44.61669922,-93.95919000
44.64721680,-90.92020000
44.67773438,-89.62885000
44.70825195,-90.04427000
44.73876953,-92.40446000
44.76928711,-97.61996000
44.79980469,-100.43650000
44.83032227,-96.10855000
44.86083984,-93.85743000
44.89135742,-93.01477000
44.92187500,-93.35490000
44.95239258,-96.21505000
44.98291016,-104.07930000
45.01342773,-108.76080000
45.04394531,-108.30370000
45.07446289,-96.97601000
45.10498047,-94.76562000
45.13549805,-96.39507000
45.16601563,-93.09723000
45.19653320,-90.37772000
45.22705078,-91.64056000
45.25756836,-97.84008000
45.28808594,-101.01540000
45.31860352,-97.78764000
45.34912109,-101.18240000
45.37963867,-106.68640000
45.41015625,-97.56700000
45.44067383,-94.45715000
45.47119141,-94.07894000
45.50170898,-94.72285000
45.53222656,-94.92255000
45.56274414,-94.42644000
45.59326172,-93.93093000
45.62377930,-92.99682000
45.65429688,-91.15356000
45.68481445,-90.33051000
45.71533203,-92.15493000
45.74584961,-97.32871000
45.77636719,-96.91573000
45.80688477,-92.38139000
45.83740234,-90.94527000
45.86791992,-91.96758000
45.89843750,-94.76826000
45.92895508,-98.27190000
45.95947266,-99.86298000
45.98999023,-97.32407000
46.02050781,-95.04337000
46.05102539,-94.13428000
46.08154297,-93.96705000
46.11206055,-95.88135000
46.14257813,-102.02100000
46.17309570,-112.45900000
46.20361328,-101.71990000
46.23413086,-97.12209000
46.26464844,-98.42262000
46.29516602,-95.54015000
46.32568359,-90.77670000
46.35620117,-89.77147000
46.38671875,-91.65493000
46.41723633,-95.85313000
46.44775391,-100.12390000
46.47827148,-100.28220000
46.50878906,-95.28589000
46.53930664,-91.98869000
46.56982422,-92.50314000
46.60034180,-97.52063000
46.63085938,-104.23640000
46.66137695,-98.88512000
46.69189453,-96.17052000
46.72241211,-94.67048000
46.75292969,-94.01363000
46.78344727,-94.43768000
46.81396484,-96.01830000
46.84448242,-101.09900000
46.87500000,-114.04600000
46.90551758,-100.23210000
46.93603516,-98.33561000
46.96655273,-97.47357000
46.99707031,-97.39030000
47.02758789,-99.90413000
47.05810547,-103.13840000
47.08862305,-99.92039000
47.11914063,-96.47709000
47.14965820,-95.88988000
47.18017578,-100.41160000
47.21069336,-104.56380000
47.24121094,-94.83862000
47.27172852,-94.11668000
47.30224609,-101.05030000
47.33276367,-107.64150000
47.36328125,-102.15770000
47.39379883,-111.16590000
47.42431641,-100.07870000
47.45483398,-95.06299000
47.48535156,-93.50754000
47.51586914,-94.35808000
47.54638672,-97.94211000
47.57690430,-102.87470000
47.60742188,-105.35120000
47.63793945,-108.51600000
47.66845703,-101.24620000
47.69897461,-97.19566000
47.72949219,-96.60247000
47.76000977,-97.84618000
47.79052734,-97.99256000
47.82104492,-95.26242000
47.85156250,-92.14344000
47.88208008,-91.05913000
47.91259766,-93.39829000
47.94311523,-103.09190000
47.97363281,-100.53140000
48.00415039,-94.49600000
48.03466797,-93.50539000
48.06518555,-94.67636000
48.09570313,-95.80040000
48.12622070,-95.77091000
48.15673828,-97.54391000
48.18725586,-103.88910000
48.21777344,-100.30810000
48.24829102,-94.78111000
48.27880859,-94.32159000
48.30932617,-99.01208000
48.33984375,-105.47160000
48.37036133,-96.86146000
48.40087891,-93.39242000
48.43139648,-91.90607000
48.46191406,-91.74567000
48.49243164,-93.96770000
48.52294922,-102.76720000
48.55346680,-100.00000000
48.58398438,-95.08479000
48.61450195,-96.55468000
48.64501953,-102.74800000
48.67553711,-109.79200000
48.70605469,-105.32020000
48.73657227,-99.42538000
48.76708984,-95.82281000
48.79760742,-93.75726000
48.82812500,-92.55176000
48.85864258,-91.16901000
48.88916016,-90.48328000
48.91967773,-91.81969000
48.95019531,-94.68749000
48.98071289,-95.59698000
49.01123047,-94.25040000
49.04174805,-94.44926000
49.07226563,-97.72043000
49.10278320,-100.35680000
49.13330078,-97.11497000
49.16381836,-96.20358000
49.19433594,-96.71770000
49.22485352,-97.09550000
49.25537109,-100.52420000
49.28588867,-105.05950000
49.31640625,-94.00514000
49.34692383,-90.14673000
49.37744141,-89.24622000
49.40795898,-89.84850000
49.43847656,-91.50452000
49.46899414,-95.16440000
49.49951172,-104.09750000
49.53002930,-112.27980000
49.56054688,-108.60950000
49.59106445,-100.02370000
49.62158203,-97.25610000
49.65209961,-99.67113000
49.68261719,-109.05280000
49.71313477,-100.97500000
49.74365234,-99.37989000
49.77416992,-105.27460000
49.80468750,-92.97168000
49.83520508,-88.38245000
49.86572266,-87.75230000
49.89624023,-89.60115000
49.92675781,-92.87950000
49.95727539,-96.66789000
49.98779297,-98.87010000
50.01831055,-95.10876000
