Frequency,Channel A
(MHz),(dBu)

0.00000000,-29.42042000
0.03051758,-29.70023000
0.06103516,-34.58136000
0.09155273,-43.63924000
0.12207031,-59.26212000
0.15258789,-63.93805000
0.18310547,-64.91599000
0.21362305,-66.24274000
0.24414063,-68.20319000
0.27465820,-67.85192000
0.30517578,-65.76717000
0.33569336,-64.05708000
0.36621094,-64.82314000
0.39672852,-67.97103000
0.42724609,-66.44283000
0.45776367,-65.99910000
0.48828125,-73.83873000
0.51879883,-69.40951000
0.54931641,-62.42068000
0.57983398,-60.68353000
0.61035156,-60.53600000
0.64086914,-61.08197000
0.67138672,-63.23377000
0.70190430,-68.62534000
0.73242188,-74.72648000
0.76293945,-70.71637000
0.79345703,-70.07124000
0.82397461,-71.13298000
0.85449219,-75.85619000
0.88500977,-79.52020000
0.91552734,-67.88736000
0.94604492,-65.29664000
0.97656250,-66.77046000
1.00708008,-70.31767000
1.03759766,-70.77452000
1.06811523,-69.51122000
1.09863281,-71.08809000
1.12915039,-76.54250000
1.15966797,-83.78322000
1.19018555,-85.07771000
1.22070313,-82.21015000
1.25122070,-73.70129000
1.28173828,-70.83589000
1.31225586,-71.62543000
1.34277344,-73.85281000
1.37329102,-75.90475000
1.40380859,-80.14423000
1.43432617,-94.05128000
1.46484375,-83.85768000
1.49536133,-73.30809000
1.52587891,-69.13647000
1.55639648,-68.07324000
1.58691406,-67.52353000
1.61743164,-68.08459000
1.64794922,-71.49355000
1.67846680,-76.89482000
1.70898438,-80.36968000
1.73950195,-81.96732000
1.77001953,-82.41280000
1.80053711,-82.65598000
1.83105469,-77.79797000
1.86157227,-76.93668000
1.89208984,-75.52626000
1.92260742,-73.87047000
1.95312500,-72.84293000
1.98364258,-74.28629000
2.01416016,-79.01756000
2.04467773,-85.02837000
2.07519531,-88.81554000
2.10571289,-93.60172000
2.13623047,-82.82635000
2.16674805,-80.55228000
2.19726563,-85.67429000
2.22778320,-86.47515000
2.25830078,-79.47929000
2.28881836,-81.35995000
2.31933594,-89.76990000
2.34985352,-94.64767000
2.38037109,-89.76768000
2.41088867,-83.72941000
2.44140625,-90.44865000
2.47192383,-86.80228000
2.50244141,-83.40112000
2.53295898,-97.54281000
2.56347656,-85.25021000
2.59399414,-81.50706000
2.62451172,-76.66376000
2.65502930,-75.35533000
2.68554688,-75.48219000
2.71606445,-75.67295000
2.74658203,-78.75645000
2.77709961,-100.38980000
2.80761719,-78.72542000
2.83813477,-74.90416000
2.86865234,-74.58700000
2.89916992,-72.79483000
2.92968750,-71.03713000
2.96020508,-72.06194000
2.99072266,-76.84181000
3.02124023,-82.61226000
3.05175781,-81.19711000
3.08227539,-79.94289000
3.11279297,-92.08015000
3.14331055,-81.20393000
3.17382813,-76.43602000
3.20434570,-75.35955000
3.23486328,-77.90005000
3.26538086,-79.85007000
3.29589844,-82.41025000
3.32641602,-87.22553000
3.35693359,-78.74518000
3.38745117,-80.63763000
3.41796875,-96.57433000
3.44848633,-84.77227000
3.47900391,-85.53303000
3.50952148,-81.86779000
3.54003906,-81.13557000
3.57055664,-86.99731000
3.60107422,-81.64574000
3.63159180,-96.17059000
3.66210938,-82.75425000
3.69262695,-85.42690000
3.72314453,-77.87775000
3.75366211,-76.05559000
3.78417969,-78.51072000
3.81469727,-80.23415000
3.84521484,-85.93996000
3.87573242,-80.82021000
3.90625000,-74.02746000
3.93676758,-74.12812000
3.96728516,-83.45343000
3.99780273,-87.27293000
4.02832031,-89.84093000
4.05883789,-81.78000000
4.08935547,-82.59736000
4.11987305,-92.99995000
4.15039063,-82.63153000
4.18090820,-78.94509000
4.21142578,-80.47448000
4.24194336,-91.44699000
4.27246094,-104.16710000
4.30297852,-85.04386000
4.33349609,-79.81808000
4.36401367,-83.03777000
4.39453125,-91.31418000
4.42504883,-85.00340000
4.45556641,-89.63319000
4.48608398,-88.91434000
4.51660156,-82.85873000
4.54711914,-86.73318000
4.57763672,-94.33373000
4.60815430,-87.62638000
4.63867188,-89.67178000
4.66918945,-88.53943000
4.69970703,-93.17244000
4.73022461,-96.41251000
4.76074219,-84.77057000
4.79125977,-78.32021000
4.82177734,-77.70374000
4.85229492,-78.32926000
4.88281250,-77.37883000
4.91333008,-77.21903000
4.94384766,-79.86128000
4.97436523,-89.63632000
5.00488281,-98.92938000
5.03540039,-95.19052000
5.06591797,-88.03624000
5.09643555,-86.93031000
5.12695313,-88.42526000
5.15747070,-92.45892000
5.18798828,-81.87050000
5.21850586,-82.82090000
5.24902344,-92.84807000
5.27954102,-87.66959000
5.31005859,-90.86415000
5.34057617,-84.73607000
5.37109375,-87.13969000
5.40161133,-93.77831000
5.43212891,-86.12667000
5.46264648,-87.96440000
5.49316406,-106.46940000
5.52368164,-87.04263000
5.55419922,-87.52219000
5.58471680,-86.43748000
5.61523438,-78.03481000
5.64575195,-81.60439000
5.67626953,-88.50907000
5.70678711,-79.00886000
5.73730469,-78.15620000
5.76782227,-83.43377000
5.79833984,-83.81943000
5.82885742,-77.77441000
5.85937500,-82.03601000
5.88989258,-81.15559000
5.92041016,-85.47512000
5.95092773,-82.00947000
5.98144531,-88.27651000
6.01196289,-80.91232000
6.04248047,-78.40730000
6.07299805,-86.82872000
6.10351563,-91.93646000
6.13403320,-80.69370000
6.16455078,-80.66389000
6.19506836,-89.92627000
6.22558594,-78.55523000
6.25610352,-82.99533000
6.28662109,-85.69247000
6.31713867,-83.22358000
6.34765625,-95.46093000
6.37817383,-88.19511000
6.40869141,-82.57170000
6.43920898,-85.09750000
6.46972656,-91.57422000
6.50024414,-87.60646000
6.53076172,-88.54753000
6.56127930,-87.25747000
6.59179688,-85.94597000
6.62231445,-81.45171000
6.65283203,-84.07701000
6.68334961,-88.41465000
6.71386719,-85.49438000
6.74438477,-84.11922000
6.77490234,-85.82813000
6.80541992,-92.96873000
6.83593750,-88.21571000
6.86645508,-82.56293000
6.89697266,-81.66992000
6.92749023,-85.11310000
6.95800781,-89.06566000
6.98852539,-89.47572000
7.01904297,-91.49395000
7.04956055,-100.58150000
7.08007813,-90.37157000
7.11059570,-90.71681000
7.14111328,-96.68816000
7.17163086,-94.11444000
7.20214844,-89.18075000
7.23266602,-91.56027000
7.26318359,-89.24500000
7.29370117,-85.11337000
7.32421875,-85.71779000
7.35473633,-85.66347000
7.38525391,-85.60219000
7.41577148,-88.82468000
7.44628906,-89.15290000
7.47680664,-85.21394000
7.50732422,-84.50821000
7.53784180,-87.22836000
7.56835938,-89.28368000
7.59887695,-87.17856000
7.62939453,-86.14897000
7.65991211,-85.52864000
7.69042969,-84.67881000
7.72094727,-83.83279000
7.75146484,-83.18491000
7.78198242,-83.34161000
7.81250000,-85.43853000
7.84301758,-89.67853000
7.87353516,-94.42488000
7.90405273,-92.29325000
7.93457031,-90.31944000
7.96508789,-95.03720000
7.99560547,-102.69310000
8.02612305,-91.12836000
8.05664063,-87.86636000
8.08715820,-87.53098000
8.11767578,-89.99215000
8.14819336,-94.70120000
8.17871094,-95.78503000
8.20922852,-96.03380000
8.23974609,-90.41754000
8.27026367,-88.89718000
8.30078125,-90.68719000
8.33129883,-91.54532000
8.36181641,-88.81992000
8.39233398,-83.31021000
8.42285156,-80.79039000
8.45336914,-81.03726000
8.48388672,-83.78947000
8.51440430,-90.92226000
8.54492188,-97.28561000
8.57543945,-88.51468000
8.60595703,-89.13045000
8.63647461,-98.46764000
8.66699219,-97.34889000
8.69750977,-91.46361000
8.72802734,-87.89407000
8.75854492,-86.30550000
8.78906250,-88.79905000
8.81958008,-98.90583000
8.85009766,-89.23927000
8.88061523,-87.20455000
8.91113281,-88.92167000
8.94165039,-90.63122000
8.97216797,-90.15176000
9.00268555,-89.63467000
9.03320313,-92.08545000
9.06372070,-108.48550000
9.09423828,-96.44340000
9.12475586,-97.28085000
9.15527344,-96.76826000
9.18579102,-92.00696000
9.21630859,-92.48547000
9.24682617,-93.30754000
9.27734375,-89.96029000
9.30786133,-88.71733000
9.33837891,-93.25201000
9.36889648,-102.41840000
9.39941406,-91.37669000
9.42993164,-91.98004000
9.46044922,-92.81956000
9.49096680,-86.36948000
9.52148438,-84.38884000
9.55200195,-84.58022000
9.58251953,-85.05937000
9.61303711,-85.63425000
9.64355469,-86.60739000
9.67407227,-86.37709000
9.70458984,-83.78014000
9.73510742,-82.14262000
9.76562500,-83.60665000
9.79614258,-88.78702000
9.82666016,-94.92145000
9.85717773,-90.67063000
9.88769531,-89.51909000
9.91821289,-91.65437000
9.94873047,-92.83227000
9.97924805,-100.09680000
10.00976563,-108.74540000
10.04028320,-93.91019000
10.07080078,-88.82328000
10.10131836,-90.76402000
10.13183594,-97.33489000
10.16235352,-95.58231000
10.19287109,-95.33452000
10.22338867,-97.30057000
10.25390625,-97.87944000
10.28442383,-94.85249000
10.31494141,-93.49971000
10.34545898,-89.54289000
10.37597656,-85.45827000
10.40649414,-84.71917000
10.43701172,-86.91928000
10.46752930,-86.43340000
10.49804688,-85.73526000
10.52856445,-86.96791000
10.55908203,-86.76133000
10.58959961,-84.55181000
10.62011719,-83.41492000
10.65063477,-83.54172000
10.68115234,-83.97348000
10.71166992,-84.85667000
10.74218750,-84.82782000
10.77270508,-84.22883000
10.80322266,-85.53323000
10.83374023,-88.40276000
10.86425781,-89.58604000
10.89477539,-89.23199000
10.92529297,-91.41939000
10.95581055,-99.11189000
10.98632813,-96.64594000
11.01684570,-88.84179000
11.04736328,-86.73654000
11.07788086,-88.15494000
11.10839844,-90.71125000
11.13891602,-91.92229000
11.16943359,-89.61134000
11.19995117,-86.83792000
11.23046875,-88.95428000
11.26098633,-92.03120000
11.29150391,-89.85078000
11.32202148,-88.79961000
11.35253906,-85.79028000
11.38305664,-83.12079000
11.41357422,-83.62202000
11.44409180,-83.47477000
11.47460938,-81.41225000
11.50512695,-82.01698000
11.53564453,-83.07639000
11.56616211,-82.73222000
11.59667969,-82.27446000
11.62719727,-81.09312000
11.65771484,-80.26756000
11.68823242,-82.60851000
11.71875000,-91.75319000
11.74926758,-88.21431000
11.77978516,-82.87984000
11.81030273,-82.59171000
11.84082031,-85.03566000
11.87133789,-85.61881000
11.90185547,-86.73630000
11.93237305,-86.97381000
11.96289063,-85.43494000
11.99340820,-86.09847000
12.02392578,-89.91286000
12.05444336,-102.14440000
12.08496094,-97.28291000
12.11547852,-91.89841000
12.14599609,-86.02661000
12.17651367,-81.36693000
12.20703125,-80.18095000
12.23754883,-82.08362000
12.26806641,-84.59161000
12.29858398,-82.46911000
12.32910156,-81.16807000
12.35961914,-82.53402000
12.39013672,-84.83759000
12.42065430,-84.02058000
12.45117188,-81.22929000
12.48168945,-79.34532000
12.51220703,-78.75375000
12.54272461,-78.84715000
12.57324219,-79.05614000
12.60375977,-79.48404000
12.63427734,-80.43504000
12.66479492,-81.87168000
12.69531250,-82.76875000
12.72583008,-80.23720000
12.75634766,-77.01250000
12.78686523,-76.32640000
12.81738281,-78.56744000
12.84790039,-82.54901000
12.87841797,-87.99657000
12.90893555,-89.53635000
12.93945313,-85.69847000
12.96997070,-85.64185000
13.00048828,-83.28960000
13.03100586,-82.05593000
13.06152344,-82.85414000
13.09204102,-84.98798000
13.12255859,-85.69296000
13.15307617,-81.60738000
13.18359375,-79.50430000
13.21411133,-80.70632000
13.24462891,-85.39199000
13.27514648,-85.70602000
13.30566406,-83.48843000
13.33618164,-84.18646000
13.36669922,-83.73772000
13.39721680,-83.71005000
13.42773438,-85.50194000
13.45825195,-81.55666000
13.48876953,-73.19678000
13.51928711,-67.76170000
13.54980469,-65.50320000
13.58032227,-66.49391000
13.61083984,-71.35328000
13.64135742,-79.72141000
13.67187500,-82.61121000
13.70239258,-81.92918000
13.73291016,-77.27375000
13.76342773,-76.82600000
13.79394531,-79.74461000
13.82446289,-85.28029000
13.85498047,-90.50838000
13.88549805,-86.69756000
13.91601563,-82.46397000
13.94653320,-79.62122000
13.97705078,-79.04334000
14.00756836,-81.35456000
14.03808594,-84.78017000
14.06860352,-82.15675000
14.09912109,-79.89878000
14.12963867,-78.90871000
14.16015625,-78.38889000
14.19067383,-78.96653000
14.22119141,-80.07732000
14.25170898,-78.48094000
14.28222656,-76.15960000
14.31274414,-75.62783000
14.34326172,-77.87683000
14.37377930,-83.72769000
14.40429688,-78.23930000
14.43481445,-73.32828000
14.46533203,-71.88155000
14.49584961,-72.45835000
14.52636719,-73.61423000
14.55688477,-73.47701000
14.58740234,-72.42294000
14.61791992,-72.65974000
14.64843750,-75.59969000
14.67895508,-82.54617000
14.70947266,-79.50471000
14.73999023,-75.95963000
14.77050781,-76.66302000
14.80102539,-80.15260000
14.83154297,-79.98190000
14.86206055,-77.18749000
14.89257813,-77.22376000
14.92309570,-79.62975000
14.95361328,-78.32445000
14.98413086,-76.09825000
15.01464844,-76.37027000
15.04516602,-78.28065000
15.07568359,-80.39399000
15.10620117,-80.78602000
15.13671875,-80.40884000
15.16723633,-82.41835000
15.19775391,-83.82007000
15.22827148,-81.31827000
15.25878906,-81.48439000
15.28930664,-85.09339000
15.31982422,-78.86009000
15.35034180,-72.24975000
15.38085938,-69.62244000
15.41137695,-69.85538000
15.44189453,-72.72672000
15.47241211,-79.91052000
15.50292969,-86.09782000
15.53344727,-76.36118000
15.56396484,-74.67635000
15.59448242,-77.88969000
15.62500000,-88.91487000
15.65551758,-80.32361000
15.68603516,-77.10892000
15.71655273,-78.03442000
15.74707031,-81.57608000
15.77758789,-83.36845000
15.80810547,-82.24934000
15.83862305,-82.86206000
15.86914063,-84.30222000
15.89965820,-84.80190000
15.93017578,-84.84844000
15.96069336,-85.83569000
15.99121094,-85.78369000
16.02172852,-81.82053000
16.05224609,-80.05302000
16.08276367,-82.10232000
16.11328125,-89.95002000
16.14379883,-96.83949000
16.17431641,-87.31483000
16.20483398,-85.60043000
16.23535156,-87.16927000
16.26586914,-89.21105000
16.29638672,-86.26182000
16.32690430,-85.13020000
16.35742188,-85.19588000
16.38793945,-83.57758000
16.41845703,-82.67808000
16.44897461,-83.92928000
16.47949219,-87.52261000
16.51000977,-94.19849000
16.54052734,-109.55670000
16.57104492,-94.63614000
16.60156250,-87.78050000
16.63208008,-85.33716000
16.66259766,-85.26996000
16.69311523,-86.76514000
16.72363281,-91.52640000
16.75415039,-101.74700000
16.78466797,-89.16617000
16.81518555,-87.63393000
16.84570313,-91.25705000
16.87622070,-94.73304000
16.90673828,-93.11874000
16.93725586,-91.77956000
16.96777344,-90.44247000
16.99829102,-90.46050000
17.02880859,-93.45444000
17.05932617,-116.61230000
17.08984375,-90.39131000
17.12036133,-84.61265000
17.15087891,-83.63290000
17.18139648,-85.68768000
17.21191406,-90.30609000
17.24243164,-100.64320000
17.27294922,-98.30487000
17.30346680,-91.92539000
17.33398438,-91.71520000
17.36450195,-91.44376000
17.39501953,-86.50018000
17.42553711,-84.34816000
17.45605469,-85.94941000
17.48657227,-90.23724000
17.51708984,-91.46075000
17.54760742,-92.66676000
17.57812500,-95.10234000
17.60864258,-95.89917000
17.63916016,-106.81270000
17.66967773,-87.44247000
17.70019531,-80.42159000
17.73071289,-79.72186000
17.76123047,-86.22291000
17.79174805,-81.66673000
17.82226563,-77.30115000
17.85278320,-78.30815000
17.88330078,-83.34567000
17.91381836,-91.54178000
17.94433594,-96.36501000
17.97485352,-94.75025000
18.00537109,-95.39085000
18.03588867,-98.54703000
18.06640625,-96.67428000
18.09692383,-94.63318000
18.12744141,-93.64830000
18.15795898,-94.89234000
18.18847656,-99.67102000
18.21899414,-102.01020000
18.24951172,-98.73534000
18.28002930,-93.87769000
18.31054688,-91.46346000
18.34106445,-91.46637000
18.37158203,-91.70378000
18.40209961,-91.75784000
18.43261719,-93.11826000
18.46313477,-94.38102000
18.49365234,-93.74900000
18.52416992,-94.07891000
18.55468750,-97.47306000
18.58520508,-105.71700000
18.61572266,-119.60050000
18.64624023,-107.51010000
18.67675781,-100.09800000
18.70727539,-98.44482000
18.73779297,-103.81210000
18.76831055,-107.69660000
18.79882813,-101.68220000
18.82934570,-99.98174000
18.85986328,-100.49920000
18.89038086,-105.93700000
18.92089844,-107.84930000
18.95141602,-107.29090000
18.98193359,-110.19840000
19.01245117,-101.54670000
19.04296875,-99.00948000
19.07348633,-99.16444000
19.10400391,-96.72003000
19.13452148,-93.17950000
19.16503906,-92.21136000
19.19555664,-91.12072000
19.22607422,-89.52209000
19.25659180,-89.72503000
19.28710938,-92.12509000
19.31762695,-95.92487000
19.34814453,-99.65668000
19.37866211,-102.94100000
19.40917969,-104.94410000
19.43969727,-110.63930000
19.47021484,-104.49210000
19.50073242,-96.88538000
19.53125000,-94.33528000
19.56176758,-94.79869000
19.59228516,-96.66402000
19.62280273,-98.66751000
19.65332031,-97.94249000
19.68383789,-93.43668000
19.71435547,-91.57116000
19.74487305,-91.74023000
19.77539063,-90.96184000
19.80590820,-90.57115000
19.83642578,-93.19170000
19.86694336,-99.28397000
19.89746094,-98.59771000
19.92797852,-93.24446000
19.95849609,-90.41643000
19.98901367,-90.41779000
20.01953125,-93.42642000
20.05004883,-98.62950000
20.08056641,-104.19210000
20.11108398,-103.72870000
20.14160156,-99.68356000
20.17211914,-99.29167000
20.20263672,-103.31620000
20.23315430,-111.12160000
20.26367188,-103.39310000
20.29418945,-101.17610000
20.32470703,-101.30830000
20.35522461,-110.22460000
20.38574219,-101.33970000
20.41625977,-94.54917000
20.44677734,-93.65681000
20.47729492,-94.72182000
20.50781250,-91.17577000
20.53833008,-88.18303000
20.56884766,-88.27557000
20.59936523,-91.98037000
20.62988281,-101.32600000
20.66040039,-101.22970000
20.69091797,-101.62300000
20.72143555,-98.44070000
20.75195313,-94.82594000
20.78247070,-93.15533000
20.81298828,-92.57486000
20.84350586,-93.38235000
20.87402344,-94.25404000
20.90454102,-96.00325000
20.93505859,-101.46520000
20.96557617,-112.77870000
20.99609375,-99.23137000
21.02661133,-98.43277000
21.05712891,-105.24140000
21.08764648,-107.15840000
21.11816406,-97.02831000
21.14868164,-93.26114000
21.17919922,-92.21238000
21.20971680,-92.06622000
21.24023438,-91.56491000
21.27075195,-91.75457000
21.30126953,-92.78310000
21.33178711,-94.41371000
21.36230469,-97.30887000
21.39282227,-100.37490000
21.42333984,-98.91273000
21.45385742,-97.62694000
21.48437500,-96.41992000
21.51489258,-93.31657000
21.54541016,-90.33749000
21.57592773,-89.15214000
21.60644531,-90.12756000
21.63696289,-93.65396000
21.66748047,-100.21780000
21.69799805,-100.41530000
21.72851563,-98.09714000
21.75903320,-99.12444000
21.78955078,-102.91080000
21.82006836,-105.41830000
21.85058594,-99.94505000
21.88110352,-95.00686000
21.91162109,-91.71485000
21.94213867,-89.96703000
21.97265625,-89.22394000
22.00317383,-89.55352000
22.03369141,-91.79523000
22.06420898,-96.63840000
22.09472656,-101.88300000
22.12524414,-99.51867000
22.15576172,-95.56701000
22.18627930,-94.22662000
22.21679688,-94.95889000
22.24731445,-96.07109000
22.27783203,-95.66819000
22.30834961,-94.75868000
22.33886719,-95.45368000
22.36938477,-96.96418000
22.39990234,-98.33617000
22.43041992,-106.18790000
22.46093750,-104.98890000
22.49145508,-98.54020000
22.52197266,-100.43140000
22.55249023,-105.07840000
22.58300781,-95.51910000
22.61352539,-90.82118000
22.64404297,-89.37500000
22.67456055,-90.89557000
22.70507813,-94.85472000
22.73559570,-97.06257000
22.76611328,-97.42578000
22.79663086,-99.29076000
22.82714844,-98.12933000
22.85766602,-97.73517000
22.88818359,-101.66220000
22.91870117,-101.52050000
22.94921875,-96.62212000
22.97973633,-93.06617000
23.01025391,-90.30386000
23.04077148,-89.22858000
23.07128906,-90.54286000
23.10180664,-94.78275000
23.13232422,-100.37730000
23.16284180,-99.42590000
23.19335938,-100.71830000
23.22387695,-105.98030000
23.25439453,-105.43020000
23.28491211,-104.29100000
23.31542969,-103.23330000
23.34594727,-100.84890000
23.37646484,-98.99886000
23.40698242,-96.61481000
23.43750000,-93.12058000
23.46801758,-90.37903000
23.49853516,-88.92723000
23.52905273,-88.83343000
23.55957031,-90.81023000
23.59008789,-95.63071000
23.62060547,-101.05790000
23.65112305,-102.39570000
23.68164063,-107.03390000
23.71215820,-113.47320000
23.74267578,-101.59550000
23.77319336,-97.80438000
23.80371094,-98.08765000
23.83422852,-101.78100000
23.86474609,-113.44030000
23.89526367,-104.78310000
23.92578125,-98.63956000
23.95629883,-94.36185000
23.98681641,-91.16227000
24.01733398,-91.45482000
24.04785156,-96.33171000
24.07836914,-101.65830000
24.10888672,-98.16887000
24.13940430,-99.96066000
24.16992188,-110.63670000
24.20043945,-105.57440000
24.23095703,-104.24400000
24.26147461,-118.76520000
24.29199219,-100.26860000
24.32250977,-96.29729000
24.35302734,-96.65824000
24.38354492,-99.91031000
24.41406250,-105.44980000
24.44458008,-104.24010000
24.47509766,-99.94087000
24.50561523,-98.37781000
24.53613281,-98.95819000
24.56665039,-103.28100000
24.59716797,-110.85390000
24.62768555,-100.19410000
24.65820313,-97.32189000
24.68872070,-96.65539000
24.71923828,-95.85174000
24.74975586,-94.78128000
24.78027344,-94.18765000
24.81079102,-94.87013000
24.84130859,-97.66296000
24.87182617,-101.33480000
24.90234375,-99.89838000
24.93286133,-96.75508000
24.96337891,-96.65576000
24.99389648,-101.93230000
25.02441406,-106.98650000
25.05493164,-97.14833000
25.08544922,-94.12095000
25.11596680,-92.81234000
25.14648438,-91.74842000
25.17700195,-91.22914000
25.20751953,-91.58481000
25.23803711,-92.66586000
25.26855469,-94.71802000
25.29907227,-99.51070000
25.32958984,-111.93080000
25.36010742,-99.46585000
25.39062500,-96.66209000
25.42114258,-97.68230000
25.45166016,-100.69170000
25.48217773,-108.68880000
25.51269531,-101.73040000
25.54321289,-97.11435000
25.57373047,-95.32273000
25.60424805,-93.10432000
25.63476563,-91.56320000
25.66528320,-92.79950000
25.69580078,-98.63811000
25.72631836,-111.95700000
25.75683594,-116.42170000
25.78735352,-113.33480000
25.81787109,-105.84560000
25.84838867,-102.83720000
25.87890625,-101.95400000
25.90942383,-102.64340000
25.93994141,-104.49230000
25.97045898,-103.37560000
26.00097656,-100.45230000
26.03149414,-101.03930000
26.06201172,-106.08900000
26.09252930,-99.85351000
26.12304688,-95.85901000
26.15356445,-94.86447000
26.18408203,-97.76879000
26.21459961,-108.98730000
26.24511719,-100.83830000
26.27563477,-96.93233000
26.30615234,-96.06815000
26.33666992,-96.67798000
26.36718750,-97.68066000
26.39770508,-98.96579000
26.42822266,-101.93260000
26.45874023,-112.52670000
26.48925781,-104.85020000
26.51977539,-97.14252000
26.55029297,-94.85376000
26.58081055,-95.19788000
26.61132813,-96.11243000
26.64184570,-96.62833000
26.67236328,-97.02759000
26.70288086,-97.67627000
26.73339844,-100.82560000
26.76391602,-115.88890000
26.79443359,-103.26660000
26.82495117,-99.93877000
26.85546875,-101.14890000
26.88598633,-103.62810000
26.91650391,-106.88510000
26.94702148,-103.67040000
26.97753906,-101.21560000
27.00805664,-101.50750000
27.03857422,-104.92300000
27.06909180,-106.44490000
27.09960938,-98.79199000
27.13012695,-95.11806000
27.16064453,-93.22095000
27.19116211,-92.55423000
27.22167969,-93.92546000
27.25219727,-97.54758000
27.28271484,-99.42941000
27.31323242,-98.75862000
27.34375000,-98.72530000
27.37426758,-99.38415000
27.40478516,-101.86620000
27.43530273,-98.37753000
27.46582031,-93.52760000
27.49633789,-91.86916000
27.52685547,-92.91027000
27.55737305,-96.84451000
27.58789063,-104.59770000
27.61840820,-99.07411000
27.64892578,-95.06072000
27.67944336,-94.75257000
27.70996094,-97.48760000
27.74047852,-107.00050000
27.77099609,-99.43126000
27.80151367,-93.12057000
27.83203125,-91.84556000
27.86254883,-93.00760000
27.89306641,-94.60298000
27.92358398,-97.31656000
27.95410156,-107.49120000
27.98461914,-101.51190000
28.01513672,-96.19293000
28.04565430,-98.47439000
28.07617188,-106.44290000
28.10668945,-105.22050000
28.13720703,-105.53710000
28.16772461,-109.31050000
28.19824219,-109.02370000
28.22875977,-104.62350000
28.25927734,-102.70870000
28.28979492,-101.67370000
28.32031250,-101.32400000
28.35083008,-100.78560000
28.38134766,-97.76412000
28.41186523,-94.50798000
28.44238281,-93.01785000
28.47290039,-93.39951000
28.50341797,-94.40833000
28.53393555,-94.75836000
28.56445313,-94.63981000
28.59497070,-91.71059000
28.62548828,-88.64750000
28.65600586,-88.42902000
28.68652344,-92.15958000
28.71704102,-101.94460000
28.74755859,-97.18124000
28.77807617,-93.84465000
28.80859375,-94.08942000
28.83911133,-96.60857000
28.86962891,-97.78720000
28.90014648,-95.83123000
28.93066406,-93.99156000
28.96118164,-91.36379000
28.99169922,-89.51299000
29.02221680,-89.91363000
29.05273438,-92.22999000
29.08325195,-94.82768000
29.11376953,-96.86630000
29.14428711,-100.42880000
29.17480469,-115.49040000
29.20532227,-99.61929000
29.23583984,-95.46725000
29.26635742,-94.99127000
29.29687500,-95.32486000
29.32739258,-96.21931000
29.35791016,-100.12140000
29.38842773,-122.34650000
29.41894531,-101.27430000
29.44946289,-95.53111000
29.47998047,-91.86623000
29.51049805,-89.00391000
29.54101563,-87.60544000
29.57153320,-88.01009000
29.60205078,-89.93227000
29.63256836,-92.35551000
29.66308594,-94.07069000
29.69360352,-94.86999000
29.72412109,-95.78596000
29.75463867,-96.25385000
29.78515625,-93.12210000
29.81567383,-90.44150000
29.84619141,-90.06323000
29.87670898,-91.24287000
29.90722656,-92.30524000
29.93774414,-92.93939000
29.96826172,-94.18481000
29.99877930,-96.74424000
30.02929688,-100.82480000
30.05981445,-97.51624000
30.09033203,-93.37791000
30.12084961,-92.20559000
30.15136719,-92.58562000
30.18188477,-92.66560000
30.21240234,-91.48759000
30.24291992,-89.90768000
30.27343750,-89.29688000
30.30395508,-90.58322000
30.33447266,-92.50261000
30.36499023,-91.05956000
30.39550781,-89.50232000
30.42602539,-89.57885000
30.45654297,-90.52681000
30.48706055,-91.75340000
30.51757813,-93.55251000
30.54809570,-96.18140000
30.57861328,-97.44785000
30.60913086,-95.20241000
30.63964844,-94.47556000
30.67016602,-97.78966000
30.70068359,-100.89790000
30.73120117,-94.72305000
30.76171875,-90.89710000
30.79223633,-88.42920000
30.82275391,-87.08237000
30.85327148,-87.32195000
30.88378906,-89.40630000
30.91430664,-92.77047000
30.94482422,-94.62233000
30.97534180,-93.01377000
31.00585938,-90.57727000
31.03637695,-88.89024000
31.06689453,-88.42011000
31.09741211,-89.56448000
31.12792969,-93.30596000
31.15844727,-103.06540000
31.18896484,-105.80370000
31.21948242,-100.94120000
31.25000000,-97.51904000
31.28051758,-93.46185000
31.31103516,-91.03249000
31.34155273,-89.71623000
31.37207031,-89.01946000
31.40258789,-89.91266000
31.43310547,-94.00786000
31.46362305,-100.42310000
31.49414063,-96.44855000
31.52465820,-93.87129000
31.55517578,-92.86043000
31.58569336,-91.57174000
31.61621094,-89.69318000
31.64672852,-88.34786000
31.67724609,-88.10775000
31.70776367,-88.78955000
31.73828125,-90.70695000
31.76879883,-94.29753000
31.79931641,-96.91895000
31.82983398,-95.96489000
31.86035156,-95.59213000
31.89086914,-92.16681000
31.92138672,-89.16325000
31.95190430,-88.98097000
31.98242188,-90.94202000
32.01293945,-95.05220000
32.04345703,-104.59420000
32.07397461,-97.71381000
32.10449219,-94.05529000
32.13500977,-94.73807000
32.16552734,-96.69376000
32.19604492,-99.25045000
32.22656250,-102.21430000
32.25708008,-98.44360000
32.28759766,-95.08669000
32.31811523,-93.94791000
32.34863281,-94.22398000
32.37915039,-93.71317000
32.40966797,-90.92656000
32.44018555,-88.69815000
32.47070313,-88.46802000
32.50122070,-90.12447000
32.53173828,-92.66856000
32.56225586,-94.77205000
32.59277344,-94.82941000
32.62329102,-94.35234000
32.65380859,-95.73885000
32.68432617,-95.65350000
32.71484375,-94.02699000
32.74536133,-95.99387000
32.77587891,-102.23380000
32.80639648,-96.22159000
32.83691406,-92.69493000
32.86743164,-92.25894000
32.89794922,-94.68132000
32.92846680,-103.07320000
32.95898438,-104.01450000
32.98950195,-96.55637000
33.02001953,-94.73070000
33.05053711,-94.72690000
33.08105469,-93.60501000
33.11157227,-91.22186000
33.14208984,-89.48441000
33.17260742,-88.64768000
33.20312500,-88.59576000
33.23364258,-90.05714000
33.26416016,-94.95427000
33.29467773,-107.05350000
33.32519531,-96.94685000
33.35571289,-93.15545000
33.38623047,-91.41830000
33.41674805,-90.69243000
33.44726563,-91.12349000
33.47778320,-92.42924000
33.50830078,-93.20526000
33.53881836,-93.88039000
33.56933594,-97.27115000
33.59985352,-99.85351000
33.63037109,-95.72820000
33.66088867,-96.00288000
33.69140625,-98.05357000
33.72192383,-91.57216000
33.75244141,-87.48683000
33.78295898,-86.51206000
33.81347656,-88.41602000
33.84399414,-94.21413000
33.87451172,-101.23320000
33.90502930,-93.80730000
33.93554688,-90.69913000
33.96606445,-89.76643000
33.99658203,-90.17533000
34.02709961,-91.97900000
34.05761719,-95.66200000
34.08813477,-99.49643000
34.11865234,-97.27860000
34.14916992,-95.28619000
34.17968750,-94.64642000
34.21020508,-93.45771000
34.24072266,-91.59145000
34.27124023,-90.18939000
34.30175781,-89.87328000
34.33227539,-91.14610000
34.36279297,-94.86633000
34.39331055,-98.73882000
34.42382813,-93.14075000
34.45434570,-89.51557000
34.48486328,-88.59671000
34.51538086,-89.80111000
34.54589844,-92.18472000
34.57641602,-93.05884000
34.60693359,-92.01237000
34.63745117,-91.01569000
34.66796875,-90.87421000
34.69848633,-92.41190000
34.72900391,-96.76262000
34.75952148,-104.38030000
34.79003906,-96.61968000
34.82055664,-92.36356000
34.85107422,-90.90531000
34.88159180,-90.79234000
34.91210938,-91.94830000
34.94262695,-94.96423000
34.97314453,-96.43355000
35.00366211,-91.79945000
35.03417969,-88.45088000
35.06469727,-87.45813000
35.09521484,-88.68623000
35.12573242,-91.39443000
35.15625000,-93.00663000
35.18676758,-93.78641000
35.21728516,-94.24203000
35.24780273,-92.00436000
35.27832031,-90.91037000
35.30883789,-92.62901000
35.33935547,-97.28809000
35.36987305,-98.59966000
35.40039063,-94.10143000
35.43090820,-91.96793000
35.46142578,-92.04502000
35.49194336,-93.49083000
35.52246094,-94.39182000
35.55297852,-93.09482000
35.58349609,-91.13231000
35.61401367,-90.59104000
35.64453125,-92.88263000
35.67504883,-98.54030000
35.70556641,-93.70538000
35.73608398,-89.73157000
35.76660156,-88.72824000
35.79711914,-88.90202000
35.82763672,-89.80081000
35.85815430,-91.84048000
35.88867188,-95.12847000
35.91918945,-98.39049000
35.94970703,-95.96989000
35.98022461,-92.72990000
36.01074219,-92.56077000
36.04125977,-95.69137000
36.07177734,-98.24596000
36.10229492,-94.65726000
36.13281250,-92.38540000
36.16333008,-92.63226000
36.19384766,-95.97431000
36.22436523,-104.62440000
36.25488281,-118.66900000
36.28540039,-108.21320000
36.31591797,-104.83570000
36.34643555,-99.46949000
36.37695313,-94.07504000
36.40747070,-90.30261000
36.43798828,-88.48739000
36.46850586,-88.53307000
36.49902344,-90.12234000
36.52954102,-92.63350000
36.56005859,-95.50481000
36.59057617,-99.69886000
36.62109375,-101.26590000
36.65161133,-96.27624000
36.68212891,-95.21316000
36.71264648,-96.72006000
36.74316406,-94.99445000
36.77368164,-93.50381000
36.80419922,-96.55296000
36.83471680,-107.75890000
36.86523438,-95.42937000
36.89575195,-91.77140000
36.92626953,-91.77673000
36.95678711,-94.90937000
36.98730469,-104.38370000
37.01782227,-96.23430000
37.04833984,-90.61471000
37.07885742,-89.10689000
37.10937500,-90.43168000
37.13989258,-94.94625000
37.17041016,-106.48120000
37.20092773,-104.60440000
37.23144531,-100.26400000
37.26196289,-99.41843000
37.29248047,-99.29257000
37.32299805,-99.93546000
37.35351563,-102.19230000
37.38403320,-105.96510000
37.41455078,-109.64690000
37.44506836,-112.92180000
37.47558594,-106.69950000
37.50610352,-99.52567000
37.53662109,-95.94178000
37.56713867,-95.14565000
37.59765625,-96.38099000
37.62817383,-98.75815000
37.65869141,-101.81110000
37.68920898,-108.07150000
37.71972656,-107.93590000
37.75024414,-102.78530000
37.78076172,-112.19870000
37.81127930,-98.27660000
37.84179688,-91.87942000
37.87231445,-89.60267000
37.90283203,-88.80519000
37.93334961,-89.38187000
37.96386719,-92.09381000
37.99438477,-95.28528000
38.02490234,-93.84216000
38.05541992,-92.97929000
38.08593750,-96.09196000
38.11645508,-102.53570000
38.14697266,-95.59435000
38.17749023,-93.88656000
38.20800781,-96.18950000
38.23852539,-98.35007000
38.26904297,-96.59293000
38.29956055,-95.75162000
38.33007813,-97.84893000
38.36059570,-103.62570000
38.39111328,-110.01720000
38.42163086,-111.69170000
38.45214844,-107.35150000
38.48266602,-105.80450000
38.51318359,-102.81170000
38.54370117,-98.49197000
38.57421875,-96.95917000
38.60473633,-97.20576000
38.63525391,-97.33553000
38.66577148,-96.89228000
38.69628906,-96.80780000
38.72680664,-97.42196000
38.75732422,-98.64166000
38.78784180,-99.70005000
38.81835938,-100.88580000
38.84887695,-106.45040000
38.87939453,-117.42460000
38.90991211,-104.74750000
38.94042969,-99.47769000
38.97094727,-96.94769000
39.00146484,-100.27520000
39.03198242,-109.88850000
39.06250000,-94.96527000
39.09301758,-90.81163000
39.12353516,-89.71016000
39.15405273,-91.28130000
39.18457031,-96.76635000
39.21508789,-97.16599000
39.24560547,-92.72356000
39.27612305,-92.51927000
39.30664063,-94.27796000
39.33715820,-94.66549000
39.36767578,-94.00766000
39.39819336,-93.99449000
39.42871094,-94.45718000
39.45922852,-94.66805000
39.48974609,-95.01854000
39.52026367,-98.28450000
39.55078125,-104.75590000
39.58129883,-93.02660000
39.61181641,-88.20689000
39.64233398,-86.60687000
39.67285156,-87.49635000
39.70336914,-91.44181000
39.73388672,-101.19980000
39.76440430,-103.34320000
39.79492188,-98.16550000
39.82543945,-93.09666000
39.85595703,-90.07485000
39.88647461,-89.43071000
39.91699219,-90.29278000
39.94750977,-92.32893000
39.97802734,-96.07683000
40.00854492,-99.04685000
40.03906250,-95.41243000
40.06958008,-92.44009000
40.10009766,-91.56915000
40.13061523,-92.81409000
40.16113281,-93.37666000
40.19165039,-91.64018000
40.22216797,-90.18864000
40.25268555,-89.26857000
40.28320313,-89.92189000
40.31372070,-91.73331000
40.34423828,-91.15350000
40.37475586,-88.95206000
40.40527344,-87.77638000
40.43579102,-88.70376000
40.46630859,-92.22179000
40.49682617,-96.61086000
40.52734375,-99.30003000
40.55786133,-99.07342000
40.58837891,-98.50812000
40.61889648,-102.99020000
40.64941406,-120.74850000
40.67993164,-102.70000000
40.71044922,-99.37354000
40.74096680,-98.40084000
40.77148438,-95.31750000
40.80200195,-92.80534000
40.83251953,-91.02336000
40.86303711,-89.93977000
40.89355469,-90.70224000
40.92407227,-94.77464000
40.95458984,-98.41404000
40.98510742,-93.30260000
41.01562500,-91.24321000
41.04614258,-91.67688000
41.07666016,-93.87206000
41.10717773,-95.54124000
41.13769531,-93.65527000
41.16821289,-90.61623000
41.19873047,-88.45628000
41.22924805,-87.85828000
41.25976563,-89.34145000
41.29028320,-94.65422000
41.32080078,-102.20740000
41.35131836,-94.86790000
41.38183594,-96.16349000
41.41235352,-95.84189000
41.44287109,-90.31281000
41.47338867,-90.80167000
41.50390625,-98.58784000
41.53442383,-93.01681000
41.56494141,-89.20792000
41.59545898,-89.46511000
41.62597656,-91.89483000
41.65649414,-95.06468000
41.68701172,-96.82152000
41.71752930,-97.97418000
41.74804688,-101.93760000
41.77856445,-101.30550000
41.80908203,-94.81033000
41.83959961,-92.43015000
41.87011719,-92.74167000
41.90063477,-95.75612000
41.93115234,-106.21010000
41.96166992,-102.93460000
41.99218750,-102.69020000
42.02270508,-97.52347000
42.05322266,-90.05745000
42.08374023,-88.49210000
42.11425781,-91.51823000
42.14477539,-99.62268000
42.17529297,-97.67518000
42.20581055,-97.16142000
42.23632813,-92.24412000
42.26684570,-87.88416000
42.29736328,-86.21212000
42.32788086,-86.25230000
42.35839844,-88.39185000
42.38891602,-92.75487000
42.41943359,-96.69092000
42.44995117,-93.84994000
42.48046875,-89.90322000
42.51098633,-88.43727000
42.54150391,-89.02641000
42.57202148,-91.88651000
42.60253906,-99.39327000
42.63305664,-94.22598000
42.66357422,-89.14893000
42.69409180,-88.17444000
42.72460938,-89.80209000
42.75512695,-93.39217000
42.78564453,-96.84338000
42.81616211,-97.03559000
42.84667969,-94.26341000
42.87719727,-91.54354000
42.90771484,-91.73779000
42.93823242,-94.16512000
42.96875000,-93.29066000
42.99926758,-92.80152000
43.02978516,-95.10121000
43.06030273,-96.46710000
43.09082031,-91.88988000
43.12133789,-87.55981000
43.15185547,-86.25309000
43.18237305,-87.35650000
43.21289063,-88.73638000
43.24340820,-87.84486000
43.27392578,-86.50356000
43.30444336,-86.23622000
43.33496094,-86.80130000
43.36547852,-88.15704000
43.39599609,-91.36445000
43.42651367,-98.12293000
43.45703125,-108.83920000
43.48754883,-94.72963000
43.51806641,-89.56399000
43.54858398,-87.84167000
43.57910156,-88.18566000
43.60961914,-89.72067000
43.64013672,-91.74156000
43.67065430,-93.82964000
43.70117188,-95.57974000
43.73168945,-94.68752000
43.76220703,-91.85414000
43.79272461,-89.69800000
43.82324219,-89.44751000
43.85375977,-92.13248000
43.88427734,-98.44133000
43.91479492,-104.66450000
43.94531250,-101.92550000
43.97583008,-95.69382000
44.00634766,-94.75594000
44.03686523,-97.93362000
44.06738281,-96.86060000
44.09790039,-95.61578000
44.12841797,-97.93362000
44.15893555,-98.49400000
44.18945313,-98.08546000
44.21997070,-99.16548000
44.25048828,-98.78333000
44.28100586,-98.00098000
44.31152344,-98.41714000
44.34204102,-100.82300000
44.37255859,-104.44000000
44.40307617,-103.66240000
44.43359375,-98.39842000
44.46411133,-92.79095000
44.49462891,-89.75313000
44.52514648,-89.17522000
44.55566406,-90.24510000
44.58618164,-91.85683000
44.61669922,-93.82613000
44.64721680,-96.33020000
44.67773438,-96.52490000
44.70825195,-94.25305000
44.73876953,-93.41103000
44.76928711,-94.32555000
44.79980469,-96.05670000
44.83032227,-97.78999000
44.86083984,-100.19970000
44.89135742,-99.83327000
44.92187500,-94.05415000
44.95239258,-93.02481000
44.98291016,-96.51516000
45.01342773,-97.12167000
45.04394531,-93.14247000
45.07446289,-91.61389000
45.10498047,-91.67973000
45.13549805,-92.81188000
45.16601563,-95.16171000
45.19653320,-98.99186000
45.22705078,-103.10390000
45.25756836,-105.72670000
45.28808594,-114.29370000
45.31860352,-105.30470000
45.34912109,-101.82360000
45.37963867,-99.95347000
45.41015625,-95.58873000
45.44067383,-93.03522000
45.47119141,-92.75346000
45.50170898,-94.64118000
45.53222656,-97.63450000
45.56274414,-97.80491000
45.59326172,-96.48766000
45.62377930,-96.02742000
45.65429688,-98.74665000
45.68481445,-103.25950000
45.71533203,-96.82906000
45.74584961,-95.34938000
45.77636719,-96.66389000
45.80688477,-98.15354000
45.83740234,-99.11640000
45.86791992,-97.20498000
45.89843750,-94.25198000
45.92895508,-92.32503000
45.95947266,-91.91705000
45.98999023,-93.66208000
46.02050781,-97.42822000
46.05102539,-98.47185000
46.08154297,-98.85613000
46.11206055,-98.27065000
46.14257813,-93.70758000
46.17309570,-92.35904000
46.20361328,-94.45686000
46.23413086,-96.36690000
46.26464844,-95.52122000
46.29516602,-95.08926000
46.32568359,-95.01156000
46.35620117,-96.21956000
46.38671875,-99.16826000
46.41723633,-102.38350000
46.44775391,-102.81980000
46.47827148,-100.84070000
46.50878906,-98.59887000
46.53930664,-97.24809000
46.56982422,-96.98096000
46.60034180,-98.08517000
46.63085938,-101.99820000
46.66137695,-108.08720000
46.69189453,-100.98800000
46.72241211,-96.25310000
46.75292969,-94.03362000
46.78344727,-93.43983000
46.81396484,-94.20514000
46.84448242,-96.50035000
46.87500000,-99.41814000
46.90551758,-99.40849000
46.93603516,-97.46616000
46.96655273,-96.50041000
46.99707031,-97.47314000
47.02758789,-99.68925000
47.05810547,-96.14712000
47.08862305,-92.26246000
47.11914063,-91.27011000
47.14965820,-93.16710000
47.18017578,-99.29111000
47.21069336,-112.82390000
47.24121094,-100.34950000
47.27172852,-98.18260000
47.30224609,-100.24490000
47.33276367,-100.91570000
47.36328125,-96.32102000
47.39379883,-94.17349000
47.42431641,-91.80745000
47.45483398,-90.05968000
47.48535156,-91.01897000
47.51586914,-96.48408000
47.54638672,-101.14640000
47.57690430,-95.16906000
47.60742188,-93.09151000
47.63793945,-91.97201000
47.66845703,-92.04619000
47.69897461,-92.67747000
47.72949219,-92.32239000
47.76000977,-91.51865000
47.79052734,-91.89896000
47.82104492,-95.18857000
47.85156250,-105.42880000
47.88208008,-103.02180000
47.91259766,-101.35910000
47.94311523,-103.75890000
47.97363281,-100.04500000
48.00415039,-98.27608000
48.03466797,-98.73417000
48.06518555,-98.46121000
48.09570313,-97.32810000
48.12622070,-96.69984000
48.15673828,-95.66146000
48.18725586,-94.09827000
48.21777344,-93.40621000
48.24829102,-93.91987000
48.27880859,-95.10406000
48.30932617,-96.00447000
48.33984375,-96.46190000
48.37036133,-97.12273000
48.40087891,-98.76519000
48.43139648,-104.87690000
48.46191406,-107.10950000
48.49243164,-97.47139000
48.52294922,-94.30882000
48.55346680,-93.30201000
48.58398438,-93.52612000
48.61450195,-94.81721000
48.64501953,-96.09625000
48.67553711,-96.14364000
48.70605469,-95.54883000
48.73657227,-96.53012000
48.76708984,-101.23180000
48.79760742,-102.72320000
48.82812500,-104.29640000
48.85864258,-111.33410000
48.88916016,-99.02039000
48.91967773,-99.81917000
48.95019531,-109.13790000
48.98071289,-98.11261000
49.01123047,-95.97770000
49.04174805,-97.70326000
49.07226563,-102.75550000
49.10278320,-113.46760000
49.13330078,-97.97424000
49.16381836,-94.23819000
49.19433594,-94.06190000
49.22485352,-98.03247000
49.25537109,-112.79360000
49.28588867,-100.25290000
49.31640625,-96.50272000
49.34692383,-93.58897000
49.37744141,-92.09476000
49.40795898,-93.58787000
49.43847656,-98.85989000
49.46899414,-98.53432000
49.49951172,-93.08202000
49.53002930,-90.92834000
49.56054688,-91.30775000
49.59106445,-93.89034000
49.62158203,-99.70912000
49.65209961,-107.65070000
49.68261719,-94.35195000
49.71313477,-90.30664000
49.74365234,-90.47677000
49.77416992,-95.29805000
49.80468750,-113.65640000
49.83520508,-101.72020000
49.86572266,-103.65150000
49.89624023,-103.44840000
49.92675781,-96.98495000
49.95727539,-95.61222000
49.98779297,-97.56527000
50.01831055,-100.82410000
