Frequency,Channel A
(MHz),(dBu)

0.00000000,-24.51061000
0.03051758,-24.88276000
0.06103516,-30.13117000
0.09155273,-40.32065000
0.12207031,-55.09682000
0.15258789,-56.47524000
0.18310547,-60.34160000
0.21362305,-58.66496000
0.24414063,-58.04645000
0.27465820,-59.46555000
0.30517578,-64.68677000
0.33569336,-65.95842000
0.36621094,-61.20372000
0.39672852,-58.78454000
0.42724609,-58.31201000
0.45776367,-60.03136000
0.48828125,-62.29831000
0.51879883,-59.58364000
0.54931641,-57.13333000
0.57983398,-57.24258000
0.61035156,-60.38544000
0.64086914,-69.84425000
0.67138672,-64.86594000
0.70190430,-59.21155000
0.73242188,-56.61860000
0.76293945,-55.31479000
0.79345703,-55.49331000
0.82397461,-57.85839000
0.85449219,-63.80009000
0.88500977,-68.27704000
0.91552734,-63.25215000
0.94604492,-62.14787000
0.97656250,-62.82244000
1.00708008,-63.87426000
1.03759766,-66.54494000
1.06811523,-71.50547000
1.09863281,-68.39970000
1.12915039,-64.57591000
1.15966797,-63.42662000
1.19018555,-64.12474000
1.22070313,-65.38088000
1.25122070,-64.87067000
1.28173828,-63.75788000
1.31225586,-63.55709000
1.34277344,-63.34911000
1.37329102,-62.99706000
1.40380859,-63.29189000
1.43432617,-63.71004000
1.46484375,-63.34677000
1.49536133,-62.75145000
1.52587891,-62.57582000
1.55639648,-63.13657000
1.58691406,-65.49990000
1.61743164,-72.57738000
1.64794922,-71.33115000
1.67846680,-65.09644000
1.70898438,-63.68396000
1.73950195,-64.87105000
1.77001953,-66.82637000
1.80053711,-67.03716000
1.83105469,-66.52167000
1.86157227,-66.86486000
1.89208984,-67.89773000
1.92260742,-68.50311000
1.95312500,-67.82748000
1.98364258,-66.87016000
2.01416016,-66.54385000
2.04467773,-66.62270000
2.07519531,-66.90693000
2.10571289,-68.38368000
2.13623047,-72.20259000
2.16674805,-73.12439000
2.19726563,-69.45271000
2.22778320,-68.27048000
2.25830078,-68.75444000
2.28881836,-68.62337000
2.31933594,-67.46172000
2.34985352,-66.82856000
2.38037109,-66.98823000
2.41088867,-66.94413000
2.44140625,-66.59932000
2.47192383,-67.59864000
2.50244141,-70.07537000
2.53295898,-68.62983000
2.56347656,-65.92561000
2.59399414,-65.21056000
2.62451172,-65.76279000
2.65502930,-67.36424000
2.68554688,-70.14363000
2.71606445,-70.22144000
2.74658203,-68.24670000
2.77709961,-67.79939000
2.80761719,-68.20611000
2.83813477,-68.19533000
2.86865234,-67.41698000
2.89916992,-66.16550000
2.92968750,-65.13571000
2.96020508,-64.68259000
2.99072266,-64.65205000
3.02124023,-64.87803000
3.05175781,-65.22611000
3.08227539,-65.30547000
3.11279297,-64.87866000
3.14331055,-64.44107000
3.17382813,-64.81581000
3.20434570,-66.38363000
3.23486328,-67.85975000
3.26538086,-66.80024000
3.29589844,-65.18563000
3.32641602,-65.04733000
3.35693359,-66.99327000
3.38745117,-70.03081000
3.41796875,-68.36588000
3.44848633,-65.53954000
3.47900391,-64.20438000
3.50952148,-63.63209000
3.54003906,-63.48818000
3.57055664,-63.96679000
3.60107422,-65.16447000
3.63159180,-66.81221000
3.66210938,-67.70467000
3.69262695,-67.04203000
3.72314453,-66.54978000
3.75366211,-66.84568000
3.78417969,-66.64481000
3.81469727,-65.81669000
3.84521484,-65.81219000
3.87573242,-67.38977000
3.90625000,-70.44025000
3.93676758,-71.22550000
3.96728516,-68.24928000
3.99780273,-66.07184000
4.02832031,-65.03569000
4.05883789,-64.71981000
4.08935547,-65.17406000
4.11987305,-66.38417000
4.15039063,-67.30720000
4.18090820,-67.55144000
4.21142578,-68.78467000
4.24194336,-71.13389000
4.27246094,-70.37967000
4.30297852,-67.37042000
4.33349609,-65.26845000
4.36401367,-64.39339000
4.39453125,-64.74410000
4.42504883,-66.27765000
4.45556641,-69.00046000
4.48608398,-71.44250000
4.51660156,-69.14735000
4.54711914,-66.12247000
4.57763672,-64.62005000
4.60815430,-64.20823000
4.63867188,-64.36346000
4.66918945,-65.00938000
4.69970703,-66.42522000
4.73022461,-68.76842000
4.76074219,-71.42161000
4.79125977,-71.68046000
4.82177734,-68.78014000
4.85229492,-65.98161000
4.88281250,-64.37201000
4.91333008,-63.96117000
4.94384766,-64.77538000
4.97436523,-66.81294000
5.00488281,-68.99297000
5.03540039,-69.93163000
5.06591797,-71.92288000
5.09643555,-76.36514000
5.12695313,-73.26977000
5.15747070,-69.16574000
5.18798828,-67.45876000
5.21850586,-67.11526000
5.24902344,-67.60327000
5.27954102,-68.56647000
5.31005859,-69.61023000
5.34057617,-70.64929000
5.37109375,-72.24009000
5.40161133,-75.64458000
5.43212891,-87.63904000
5.46264648,-76.71031000
5.49316406,-68.96466000
5.52368164,-65.28550000
5.55419922,-63.33404000
5.58471680,-62.14675000
5.61523438,-61.39537000
5.64575195,-61.35085000
5.67626953,-62.49655000
5.70678711,-65.02691000
5.73730469,-66.69332000
5.76782227,-64.32878000
5.79833984,-61.86295000
5.82885742,-60.66137000
5.85937500,-60.25188000
5.88989258,-60.10638000
5.92041016,-60.41010000
5.95092773,-61.81312000
5.98144531,-64.71144000
6.01196289,-68.23853000
6.04248047,-68.58102000
6.07299805,-66.43380000
6.10351563,-64.27888000
6.13403320,-62.53605000
6.16455078,-61.72295000
6.19506836,-62.33251000
6.22558594,-64.76765000
6.25610352,-69.79315000
6.28662109,-81.70693000
6.31713867,-79.25696000
6.34765625,-71.92481000
6.37817383,-68.57047000
6.40869141,-66.53751000
6.43920898,-65.67708000
6.46972656,-66.36943000
6.50024414,-69.03400000
6.53076172,-73.81709000
6.56127930,-79.93513000
6.59179688,-98.12667000
6.62231445,-78.82610000
6.65283203,-72.51984000
6.68334961,-70.58739000
6.71386719,-71.00566000
6.74438477,-72.79005000
6.77490234,-75.36078000
6.80541992,-78.61884000
6.83593750,-82.25739000
6.86645508,-86.73209000
6.89697266,-82.35863000
6.92749023,-75.65468000
6.95800781,-72.33293000
6.98852539,-71.29493000
7.01904297,-71.94184000
7.04956055,-73.63770000
7.08007813,-75.53176000
7.11059570,-77.59801000
7.14111328,-81.23051000
7.17163086,-90.96768000
7.20214844,-85.63046000
7.23266602,-78.44493000
7.26318359,-75.80429000
7.29370117,-75.37935000
7.32421875,-76.12579000
7.35473633,-77.16475000
7.38525391,-78.12544000
7.41577148,-79.37677000
7.44628906,-81.91555000
7.47680664,-87.97156000
7.50732422,-91.30756000
7.53784180,-83.72872000
7.56835938,-80.74121000
7.59887695,-79.22250000
7.62939453,-78.22105000
7.65991211,-78.08179000
7.69042969,-79.09254000
7.72094727,-80.97635000
7.75146484,-83.38368000
7.78198242,-87.67460000
7.81250000,-94.27192000
7.84301758,-84.86190000
7.87353516,-80.53955000
7.90405273,-79.23032000
7.93457031,-79.34872000
7.96508789,-79.75591000
7.99560547,-80.03159000
8.02612305,-80.25380000
8.05664063,-80.41457000
8.08715820,-80.30084000
8.11767578,-79.82459000
8.14819336,-79.48746000
8.17871094,-79.70636000
8.20922852,-80.37067000
8.23974609,-81.16916000
8.27026367,-81.54397000
8.30078125,-80.53597000
8.33129883,-78.32471000
8.36181641,-76.60320000
8.39233398,-76.46447000
8.42285156,-78.14993000
8.45336914,-80.74222000
8.48388672,-81.75772000
8.51440430,-82.15280000
8.54492188,-84.15755000
8.57543945,-88.90385000
8.60595703,-93.48393000
8.63647461,-85.45254000
8.66699219,-81.35637000
8.69750977,-80.03143000
8.72802734,-80.32326000
8.75854492,-80.97464000
8.78906250,-81.32944000
8.81958008,-82.05307000
8.85009766,-83.70582000
8.88061523,-85.43237000
8.91113281,-85.39684000
8.94165039,-85.29413000
8.97216797,-86.25237000
9.00268555,-85.33337000
9.03320313,-81.75812000
9.06372070,-78.49397000
9.09423828,-76.57701000
9.12475586,-76.10046000
9.15527344,-76.93417000
9.18579102,-79.09268000
9.21630859,-82.51141000
9.24682617,-84.38773000
9.27734375,-83.19029000
9.30786133,-83.87582000
9.33837891,-90.70755000
9.36889648,-92.23386000
9.39941406,-82.94572000
9.42993164,-80.64059000
9.46044922,-80.58181000
9.49096680,-80.87434000
9.52148438,-81.20929000
9.55200195,-83.06677000
9.58251953,-88.87349000
9.61303711,-89.08040000
9.64355469,-82.12167000
9.67407227,-79.33672000
9.70458984,-78.73346000
9.73510742,-79.57259000
9.76562500,-81.27306000
9.79614258,-82.45160000
9.82666016,-81.95299000
9.85717773,-81.63225000
9.88769531,-83.74355000
9.91821289,-88.70003000
9.94873047,-87.15068000
9.97924805,-83.52143000
10.00976563,-81.59138000
10.04028320,-80.62090000
10.07080078,-80.45994000
10.10131836,-81.03606000
10.13183594,-81.97117000
10.16235352,-83.06984000
10.19287109,-83.62705000
10.22338867,-82.28300000
10.25390625,-80.48015000
10.28442383,-79.63416000
10.31494141,-80.19051000
10.34545898,-82.12601000
10.37597656,-83.96019000
10.40649414,-82.97631000
10.43701172,-80.40879000
10.46752930,-78.47231000
10.49804688,-77.74163000
10.52856445,-78.34294000
10.55908203,-80.56972000
10.58959961,-85.75090000
10.62011719,-101.12360000
10.65063477,-84.71707000
10.68115234,-79.61467000
10.71166992,-77.93721000
10.74218750,-78.18736000
10.77270508,-78.39845000
10.80322266,-76.86829000
10.83374023,-75.12088000
10.86425781,-74.49369000
10.89477539,-75.39371000
10.92529297,-78.03869000
10.95581055,-81.81588000
10.98632813,-82.59911000
11.01684570,-80.37779000
11.04736328,-78.04481000
11.07788086,-76.05388000
11.10839844,-75.01936000
11.13891602,-75.29282000
11.16943359,-76.95709000
11.19995117,-80.66308000
11.23046875,-87.63192000
11.26098633,-84.87128000
11.29150391,-80.02126000
11.32202148,-77.03484000
11.35253906,-74.72285000
11.38305664,-72.92676000
11.41357422,-71.96339000
11.44409180,-72.05738000
11.47460938,-73.09811000
11.50512695,-74.94519000
11.53564453,-77.89182000
11.56616211,-82.84412000
11.59667969,-87.89939000
11.62719727,-85.87256000
11.65771484,-85.60482000
11.68823242,-86.79958000
11.71875000,-84.64840000
11.74926758,-81.17422000
11.77978516,-78.85277000
11.81030273,-78.44972000
11.84082031,-81.03138000
11.87133789,-91.32092000
11.90185547,-87.66547000
11.93237305,-81.35262000
11.96289063,-81.35810000
11.99340820,-84.99775000
12.02392578,-82.39017000
12.05444336,-78.59254000
12.08496094,-77.70675000
12.11547852,-78.29330000
12.14599609,-78.86938000
12.17651367,-78.17620000
12.20703125,-76.35724000
12.23754883,-75.33031000
12.26806641,-75.87993000
12.29858398,-77.78071000
12.32910156,-81.03943000
12.35961914,-88.97311000
12.39013672,-91.67921000
12.42065430,-83.83315000
12.45117188,-84.33824000
12.48168945,-90.47063000
12.51220703,-93.06885000
12.54272461,-87.63622000
12.57324219,-86.17733000
12.60375977,-86.73985000
12.63427734,-86.61534000
12.66479492,-86.67410000
12.69531250,-89.23303000
12.72583008,-87.56696000
12.75634766,-81.40685000
12.78686523,-77.65611000
12.81738281,-76.26379000
12.84790039,-76.12640000
12.87841797,-75.83352000
12.90893555,-75.40912000
12.93945313,-75.72897000
12.96997070,-76.69064000
13.00048828,-77.86089000
13.03100586,-80.70656000
13.06152344,-89.98570000
13.09204102,-89.78831000
13.12255859,-83.07838000
13.15307617,-81.74682000
13.18359375,-80.24696000
13.21411133,-77.63327000
13.24462891,-76.28969000
13.27514648,-77.40707000
13.30566406,-81.16947000
13.33618164,-81.23969000
13.36669922,-77.65073000
13.39721680,-76.51372000
13.42773438,-77.20486000
13.45825195,-76.11589000
13.48876953,-71.56813000
13.51928711,-67.12659000
13.54980469,-64.77075000
13.58032227,-64.98393000
13.61083984,-67.81152000
13.64135742,-72.33339000
13.67187500,-72.77011000
13.70239258,-71.31738000
13.73291016,-73.01622000
13.76342773,-81.50562000
13.79394531,-80.15736000
13.82446289,-74.63924000
13.85498047,-74.75842000
13.88549805,-77.91566000
13.91601563,-83.35351000
13.94653320,-86.51745000
13.97705078,-83.83630000
14.00756836,-81.25371000
14.03808594,-79.35826000
14.06860352,-77.91801000
14.09912109,-76.51466000
14.12963867,-75.44423000
14.16015625,-75.52701000
14.19067383,-77.15654000
14.22119141,-79.42214000
14.25170898,-79.24264000
14.28222656,-78.39996000
14.31274414,-79.51695000
14.34326172,-81.65119000
14.37377930,-82.06155000
14.40429688,-80.67154000
14.43481445,-78.59834000
14.46533203,-78.14955000
14.49584961,-80.18775000
14.52636719,-79.05656000
14.55688477,-74.71613000
14.58740234,-72.56190000
14.61791992,-72.66401000
14.64843750,-75.02660000
14.67895508,-79.48463000
14.70947266,-81.14310000
14.73999023,-80.86930000
14.77050781,-87.65526000
14.80102539,-85.03448000
14.83154297,-75.95396000
14.86206055,-72.97563000
14.89257813,-72.75989000
14.92309570,-75.02695000
14.95361328,-81.37428000
14.98413086,-84.06270000
15.01464844,-77.58725000
15.04516602,-76.85481000
15.07568359,-81.55320000
15.10620117,-87.06348000
15.13671875,-77.19228000
15.16723633,-73.97048000
15.19775391,-73.66147000
15.22827148,-76.05290000
15.25878906,-83.60801000
15.28930664,-86.00249000
15.31982422,-78.87233000
15.35034180,-77.69970000
15.38085938,-78.54548000
15.41137695,-78.53505000
15.44189453,-77.09149000
15.47241211,-76.21751000
15.50292969,-76.67883000
15.53344727,-77.96373000
15.56396484,-78.23445000
15.59448242,-77.00767000
15.62500000,-76.16114000
15.65551758,-76.84715000
15.68603516,-79.96063000
15.71655273,-87.50284000
15.74707031,-88.30876000
15.77758789,-83.38477000
15.80810547,-82.83063000
15.83862305,-82.65916000
15.86914063,-79.60854000
15.89965820,-77.05542000
15.93017578,-76.63256000
15.96069336,-78.77030000
15.99121094,-85.34317000
16.02172852,-96.08971000
16.05224609,-83.28378000
16.08276367,-80.85443000
16.11328125,-81.69704000
16.14379883,-83.16803000
16.17431641,-81.59026000
16.20483398,-79.76389000
16.23535156,-79.83112000
16.26586914,-81.95495000
16.29638672,-84.53780000
16.32690430,-84.50908000
16.35742188,-85.26615000
16.38793945,-89.97253000
16.41845703,-91.80600000
16.44897461,-85.46902000
16.47949219,-82.16591000
16.51000977,-80.45708000
16.54052734,-80.10472000
16.57104492,-81.36742000
16.60156250,-83.16301000
16.63208008,-82.38406000
16.66259766,-81.29104000
16.69311523,-82.29237000
16.72363281,-85.95367000
16.75415039,-94.18522000
16.78466797,-100.57340000
16.81518555,-90.73368000
16.84570313,-88.06626000
16.87622070,-86.69148000
16.90673828,-83.68038000
16.93725586,-81.09185000
16.96777344,-80.51471000
16.99829102,-82.06924000
17.02880859,-84.93942000
17.05932617,-85.15872000
17.08984375,-83.27721000
17.12036133,-82.99766000
17.15087891,-84.44449000
17.18139648,-84.20461000
17.21191406,-81.71256000
17.24243164,-80.53012000
17.27294922,-80.88240000
17.30346680,-81.35682000
17.33398438,-80.90512000
17.36450195,-79.75655000
17.39501953,-78.19835000
17.42553711,-77.75713000
17.45605469,-79.23850000
17.48657227,-81.87309000
17.51708984,-84.14967000
17.54760742,-85.08400000
17.57812500,-84.80650000
17.60864258,-84.94759000
17.63916016,-85.27646000
17.66967773,-83.63563000
17.70019531,-80.07836000
17.73071289,-76.30309000
17.76123047,-73.11614000
17.79174805,-71.31328000
17.82226563,-71.76593000
17.85278320,-75.47294000
17.88330078,-85.43911000
17.91381836,-88.03398000
17.94433594,-82.92061000
17.97485352,-82.28989000
18.00537109,-82.85187000
18.03588867,-84.64225000
18.06640625,-87.82954000
18.09692383,-89.80078000
18.12744141,-88.96478000
18.15795898,-89.82831000
18.18847656,-92.23273000
18.21899414,-87.74628000
18.24951172,-84.43192000
18.28002930,-84.28936000
18.31054688,-86.70465000
18.34106445,-89.91605000
18.37158203,-90.24748000
18.40209961,-89.54619000
18.43261719,-88.99364000
18.46313477,-88.25479000
18.49365234,-87.56672000
18.52416992,-86.17395000
18.55468750,-84.41875000
18.58520508,-83.57883000
18.61572266,-83.50714000
18.64624023,-83.17194000
18.67675781,-82.51643000
18.70727539,-82.21622000
18.73779297,-82.76679000
18.76831055,-84.83368000
18.79882813,-88.62118000
18.82934570,-90.43896000
18.85986328,-89.68559000
18.89038086,-89.45255000
18.92089844,-87.12288000
18.95141602,-84.31832000
18.98193359,-83.40855000
19.01245117,-84.56451000
19.04296875,-87.56375000
19.07348633,-91.75359000
19.10400391,-92.76511000
19.13452148,-90.88612000
19.16503906,-89.65367000
19.19555664,-88.32422000
19.22607422,-86.94139000
19.25659180,-86.36469000
19.28710938,-86.79200000
19.31762695,-87.53114000
19.34814453,-87.82700000
19.37866211,-88.57273000
19.40917969,-91.77753000
19.43969727,-103.90070000
19.47021484,-96.81242000
19.50073242,-90.83592000
19.53125000,-89.57513000
19.56176758,-90.53523000
19.59228516,-92.74977000
19.62280273,-95.47766000
19.65332031,-99.09153000
19.68383789,-101.56630000
19.71435547,-102.07270000
19.74487305,-107.11300000
19.77539063,-96.20631000
19.80590820,-92.36282000
19.83642578,-92.57252000
19.86694336,-93.86870000
19.89746094,-92.66043000
19.92797852,-89.57409000
19.95849609,-87.05029000
19.98901367,-86.09502000
20.01953125,-86.07415000
20.05004883,-85.35935000
20.08056641,-84.36044000
20.11108398,-84.42880000
20.14160156,-85.91525000
20.17211914,-88.95586000
20.20263672,-92.52441000
20.23315430,-90.67976000
20.26367188,-88.28336000
20.29418945,-88.56282000
20.32470703,-90.51339000
20.35522461,-91.15464000
20.38574219,-89.74152000
20.41625977,-89.24225000
20.44677734,-90.75294000
20.47729492,-93.57390000
20.50781250,-97.82190000
20.53833008,-93.03664000
20.56884766,-87.96538000
20.59936523,-86.25871000
20.62988281,-86.15396000
20.66040039,-85.86556000
20.69091797,-85.58769000
20.72143555,-86.08932000
20.75195313,-86.03652000
20.78247070,-85.06145000
20.81298828,-85.11692000
20.84350586,-87.33003000
20.87402344,-91.31913000
20.90454102,-89.79137000
20.93505859,-86.44499000
20.96557617,-85.28375000
20.99609375,-85.35492000
21.02661133,-84.39689000
21.05712891,-82.35580000
21.08764648,-81.62851000
21.11816406,-83.20840000
21.14868164,-87.01691000
21.17919922,-90.73756000
21.20971680,-90.90889000
21.24023438,-88.06555000
21.27075195,-85.15080000
21.30126953,-83.33459000
21.33178711,-82.36891000
21.36230469,-82.56687000
21.39282227,-84.76091000
21.42333984,-88.87881000
21.45385742,-89.42241000
21.48437500,-87.53441000
21.51489258,-87.62345000
21.54541016,-88.14867000
21.57592773,-86.86997000
21.60644531,-85.83186000
21.63696289,-86.49964000
21.66748047,-88.43861000
21.69799805,-87.42766000
21.72851563,-84.24587000
21.75903320,-82.90445000
21.78955078,-83.36824000
21.82006836,-84.13375000
21.85058594,-84.52937000
21.88110352,-86.13087000
21.91162109,-89.78421000
21.94213867,-90.65540000
21.97265625,-87.39667000
22.00317383,-85.55112000
22.03369141,-85.29456000
22.06420898,-86.44548000
22.09472656,-88.62942000
22.12524414,-89.39357000
22.15576172,-87.90025000
22.18627930,-86.91125000
22.21679688,-86.15334000
22.24731445,-85.06944000
22.27783203,-84.79638000
22.30834961,-85.92337000
22.33886719,-87.94977000
22.36938477,-88.96247000
22.39990234,-86.57581000
22.43041992,-84.02283000
22.46093750,-83.64594000
22.49145508,-85.71540000
22.52197266,-89.56709000
22.55249023,-91.98878000
22.58300781,-91.17955000
22.61352539,-89.64670000
22.64404297,-88.39391000
22.67456055,-87.27052000
22.70507813,-85.92949000
22.73559570,-84.83188000
22.76611328,-84.63757000
22.79663086,-85.79471000
22.82714844,-88.59816000
22.85766602,-92.70596000
22.88818359,-93.73818000
22.91870117,-90.92079000
22.94921875,-88.78310000
22.97973633,-87.61750000
23.01025391,-87.62719000
23.04077148,-89.27804000
23.07128906,-90.12373000
23.10180664,-87.28242000
23.13232422,-85.58215000
23.16284180,-85.37267000
23.19335938,-84.83806000
23.22387695,-83.98872000
23.25439453,-84.08619000
23.28491211,-85.33163000
23.31542969,-86.97582000
23.34594727,-87.35139000
23.37646484,-85.65353000
23.40698242,-83.97322000
23.43750000,-84.00377000
23.46801758,-87.04071000
23.49853516,-94.81628000
23.52905273,-89.44711000
23.55957031,-86.21521000
23.59008789,-87.15549000
23.62060547,-89.64967000
23.65112305,-88.67974000
23.68164063,-86.90650000
23.71215820,-87.15263000
23.74267578,-89.35723000
23.77319336,-90.17373000
23.80371094,-88.42296000
23.83422852,-88.31417000
23.86474609,-90.06812000
23.89526367,-89.76303000
23.92578125,-86.49146000
23.95629883,-84.50546000
23.98681641,-84.24615000
24.01733398,-85.15346000
24.04785156,-85.99541000
24.07836914,-85.61615000
24.10888672,-85.46222000
24.13940430,-87.11816000
24.16992188,-90.98743000
24.20043945,-94.78349000
24.23095703,-95.68249000
24.26147461,-94.92430000
24.29199219,-92.73155000
24.32250977,-91.75294000
24.35302734,-92.06146000
24.38354492,-92.69872000
24.41406250,-93.85139000
24.44458008,-95.98254000
24.47509766,-96.93562000
24.50561523,-95.12788000
24.53613281,-95.32953000
24.56665039,-101.20510000
24.59716797,-94.95500000
24.62768555,-88.74704000
24.65820313,-86.32909000
24.68872070,-86.14310000
24.71923828,-87.38513000
24.74975586,-87.97600000
24.78027344,-86.45908000
24.81079102,-84.97486000
24.84130859,-84.59873000
24.87182617,-85.52247000
24.90234375,-87.89294000
24.93286133,-91.63815000
24.96337891,-93.79190000
24.99389648,-90.48364000
25.02441406,-87.30281000
25.05493164,-85.83968000
25.08544922,-86.01863000
25.11596680,-88.06300000
25.14648438,-93.37033000
25.17700195,-94.55887000
25.20751953,-87.23611000
25.23803711,-83.79488000
25.26855469,-82.55393000
25.29907227,-82.66366000
25.32958984,-83.35884000
25.36010742,-83.91324000
25.39062500,-84.23332000
25.42114258,-84.02646000
25.45166016,-83.44736000
25.48217773,-84.11597000
25.51269531,-87.47641000
25.54321289,-94.32822000
25.57373047,-98.50620000
25.60424805,-100.88030000
25.63476563,-98.65276000
25.66528320,-90.75410000
25.69580078,-86.85580000
25.72631836,-85.22289000
25.75683594,-85.01535000
25.78735352,-85.95130000
25.81787109,-88.42064000
25.84838867,-93.55923000
25.87890625,-97.49379000
25.90942383,-95.29541000
25.93994141,-97.85262000
25.97045898,-97.43259000
26.00097656,-92.35328000
26.03149414,-91.50862000
26.06201172,-93.25050000
26.09252930,-89.76613000
26.12304688,-85.08241000
26.15356445,-83.04057000
26.18408203,-83.34892000
26.21459961,-85.75386000
26.24511719,-89.72353000
26.27563477,-93.55333000
26.30615234,-97.17991000
26.33666992,-104.67210000
26.36718750,-108.42680000
26.39770508,-96.70875000
26.42822266,-91.57904000
26.45874023,-90.09415000
26.48925781,-91.92887000
26.51977539,-96.02519000
26.55029297,-98.14835000
26.58081055,-101.99030000
26.61132813,-97.96069000
26.64184570,-90.96783000
26.67236328,-88.34674000
26.70288086,-88.47121000
26.73339844,-90.37178000
26.76391602,-91.94638000
26.79443359,-91.84631000
26.82495117,-92.52408000
26.85546875,-94.51164000
26.88598633,-93.45078000
26.91650391,-91.01348000
26.94702148,-91.23434000
26.97753906,-95.16496000
27.00805664,-95.46663000
27.03857422,-90.97195000
27.06909180,-89.36755000
27.09960938,-88.27516000
27.13012695,-87.09998000
27.16064453,-87.34564000
27.19116211,-90.28925000
27.22167969,-99.16595000
27.25219727,-98.25540000
27.28271484,-90.64578000
27.31323242,-87.82273000
27.34375000,-87.54940000
27.37426758,-89.01711000
27.40478516,-90.17014000
27.43530273,-89.61382000
27.46582031,-89.30710000
27.49633789,-90.80359000
27.52685547,-95.83109000
27.55737305,-105.93180000
27.58789063,-94.44870000
27.61840820,-90.71190000
27.64892578,-90.14606000
27.67944336,-91.09322000
27.70996094,-90.73585000
27.74047852,-89.12591000
27.77099609,-89.60960000
27.80151367,-93.90580000
27.83203125,-95.56306000
27.86254883,-91.24413000
27.89306641,-90.60600000
27.92358398,-93.67202000
27.95410156,-107.43730000
27.98461914,-94.95103000
28.01513672,-88.66197000
28.04565430,-86.26837000
28.07617188,-85.85716000
28.10668945,-87.12765000
28.13720703,-90.44664000
28.16772461,-95.87027000
28.19824219,-96.34476000
28.22875977,-94.44972000
28.25927734,-97.21218000
28.28979492,-104.39620000
28.32031250,-95.07145000
28.35083008,-93.25848000
28.38134766,-96.78792000
28.41186523,-106.59150000
28.44238281,-100.76480000
28.47290039,-97.03698000
28.50341797,-95.46424000
28.53393555,-95.00805000
28.56445313,-96.08176000
28.59497070,-95.31280000
28.62548828,-91.80721000
28.65600586,-90.13387000
28.68652344,-90.57446000
28.71704102,-91.71609000
28.74755859,-91.38359000
28.77807617,-90.29539000
28.80859375,-89.93472000
28.83911133,-90.40610000
28.86962891,-91.44473000
28.90014648,-93.25435000
28.93066406,-97.10735000
28.96118164,-107.23270000
28.99169922,-98.95351000
29.02221680,-93.57993000
29.05273438,-92.25705000
29.08325195,-93.67146000
29.11376953,-98.24535000
29.14428711,-108.08930000
29.17480469,-98.83650000
29.20532227,-93.95425000
29.23583984,-92.43080000
29.26635742,-92.54795000
29.29687500,-93.21185000
29.32739258,-94.34098000
29.35791016,-95.88440000
29.38842773,-95.56268000
29.41894531,-94.80101000
29.44946289,-95.84747000
29.47998047,-98.08582000
29.51049805,-101.84810000
29.54101563,-105.66400000
29.57153320,-96.25323000
29.60205078,-93.51587000
29.63256836,-97.60853000
29.66308594,-106.52000000
29.69360352,-96.59260000
29.72412109,-97.44408000
29.75463867,-98.62314000
29.78515625,-95.64362000
29.81567383,-97.99875000
29.84619141,-111.62270000
29.87670898,-94.95650000
29.90722656,-90.70067000
29.93774414,-89.48108000
29.96826172,-90.48501000
29.99877930,-92.13250000
30.02929688,-92.16775000
30.05981445,-93.51681000
30.09033203,-98.80524000
30.12084961,-116.16640000
30.15136719,-102.66760000
30.18188477,-99.69845000
30.21240234,-103.84580000
30.24291992,-103.80690000
30.27343750,-93.80029000
30.30395508,-90.86905000
30.33447266,-91.47054000
30.36499023,-94.51347000
30.39550781,-98.58658000
30.42602539,-99.73042000
30.45654297,-98.28327000
30.48706055,-96.42152000
30.51757813,-94.08142000
30.54809570,-93.04978000
30.57861328,-94.38729000
30.60913086,-94.59815000
30.63964844,-90.95087000
30.67016602,-88.62632000
30.70068359,-88.39103000
30.73120117,-90.98291000
30.76171875,-98.80988000
30.79223633,-99.94704000
30.82275391,-95.57951000
30.85327148,-96.68313000
30.88378906,-101.73970000
30.91430664,-107.13890000
30.94482422,-99.10799000
30.97534180,-91.79663000
31.00585938,-86.84483000
31.03637695,-84.51950000
31.06689453,-84.57664000
31.09741211,-86.63446000
31.12792969,-89.99869000
31.15844727,-92.53071000
31.18896484,-94.38283000
31.21948242,-99.53131000
31.25000000,-112.27560000
31.28051758,-108.09250000
31.31103516,-103.59210000
31.34155273,-92.70921000
31.37207031,-88.13034000
31.40258789,-87.12785000
31.43310547,-88.37051000
31.46362305,-90.41872000
31.49414063,-92.38261000
31.52465820,-94.36006000
31.55517578,-95.87342000
31.58569336,-96.71345000
31.61621094,-98.81229000
31.64672852,-106.96430000
31.67724609,-101.21120000
31.70776367,-94.38333000
31.73828125,-92.35381000
31.76879883,-92.82921000
31.79931641,-94.16341000
31.82983398,-94.68794000
31.86035156,-97.10567000
31.89086914,-108.13820000
31.92138672,-101.95530000
31.95190430,-96.86028000
31.98242188,-94.82856000
32.01293945,-92.68005000
32.04345703,-89.52425000
32.07397461,-87.20009000
32.10449219,-86.62991000
32.13500977,-87.33758000
32.16552734,-87.67193000
32.19604492,-87.36495000
32.22656250,-88.62227000
32.25708008,-92.99001000
32.28759766,-99.26743000
32.31811523,-96.26985000
32.34863281,-93.86967000
32.37915039,-94.04038000
32.40966797,-98.16916000
32.44018555,-105.62430000
32.47070313,-98.27722000
32.50122070,-99.86906000
32.53173828,-109.31110000
32.56225586,-95.92175000
32.59277344,-92.99313000
32.62329102,-93.25065000
32.65380859,-93.86354000
32.68432617,-93.11087000
32.71484375,-92.83340000
32.74536133,-95.64655000
32.77587891,-100.61060000
32.80639648,-95.96089000
32.83691406,-93.69606000
32.86743164,-92.00276000
32.89794922,-90.96114000
32.92846680,-93.11141000
32.95898438,-99.60475000
32.98950195,-97.07421000
33.02001953,-92.68719000
33.05053711,-90.85130000
33.08105469,-90.70245000
33.11157227,-91.95679000
33.14208984,-93.15762000
33.17260742,-93.86981000
33.20312500,-95.00848000
33.23364258,-94.88526000
33.26416016,-95.30664000
33.29467773,-99.49585000
33.32519531,-104.47300000
33.35571289,-95.28978000
33.38623047,-90.32116000
33.41674805,-88.53573000
33.44726563,-89.76666000
33.47778320,-93.63812000
33.50830078,-96.11044000
33.53881836,-97.08684000
33.56933594,-102.49040000
33.59985352,-118.18710000
33.63037109,-104.91940000
33.66088867,-102.77290000
33.69140625,-98.35741000
33.72192383,-93.80302000
33.75244141,-92.04245000
33.78295898,-93.13463000
33.81347656,-95.97714000
33.84399414,-95.65688000
33.87451172,-94.63265000
33.90502930,-97.42552000
33.93554688,-110.58490000
33.96606445,-104.09740000
33.99658203,-101.39880000
34.02709961,-107.27360000
34.05761719,-105.33880000
34.08813477,-97.89005000
34.11865234,-95.97652000
34.14916992,-97.09217000
34.17968750,-100.42170000
34.21020508,-106.48140000
34.24072266,-107.59070000
34.27124023,-98.81959000
34.30175781,-94.95607000
34.33227539,-94.50072000
34.36279297,-96.67942000
34.39331055,-99.63887000
34.42382813,-101.45380000
34.45434570,-99.14827000
34.48486328,-94.78586000
34.51538086,-93.07422000
34.54589844,-94.33145000
34.57641602,-98.53136000
34.60693359,-104.59910000
34.63745117,-102.16600000
34.66796875,-96.80512000
34.69848633,-93.47215000
34.72900391,-92.29099000
34.75952148,-93.49438000
34.79003906,-96.20823000
34.82055664,-97.15316000
34.85107422,-101.10000000
34.88159180,-106.13650000
34.91210938,-94.21446000
34.94262695,-91.98033000
34.97314453,-95.37292000
35.00366211,-115.72030000
35.03417969,-93.81670000
35.06469727,-90.32208000
35.09521484,-91.17268000
35.12573242,-97.05292000
35.15625000,-109.80140000
35.18676758,-96.33327000
35.21728516,-94.70645000
35.24780273,-94.46347000
35.27832031,-93.04982000
35.30883789,-92.56303000
35.33935547,-92.19324000
35.36987305,-90.40160000
35.40039063,-89.04560000
35.43090820,-89.35245000
35.46142578,-92.26891000
35.49194336,-101.37570000
35.52246094,-104.56390000
35.55297852,-97.64558000
35.58349609,-95.35313000
35.61401367,-92.96227000
35.64453125,-91.79446000
35.67504883,-91.75072000
35.70556641,-93.22288000
35.73608398,-98.69064000
35.76660156,-98.00780000
35.79711914,-92.33377000
35.82763672,-91.29391000
35.85815430,-93.35129000
35.88867188,-99.12172000
35.91918945,-103.51340000
35.94970703,-96.38914000
35.98022461,-94.49144000
36.01074219,-95.70692000
36.04125977,-98.22017000
36.07177734,-100.63650000
36.10229492,-102.22770000
36.13281250,-100.95780000
36.16333008,-99.03941000
36.19384766,-98.30907000
36.22436523,-99.01310000
36.25488281,-100.82480000
36.28540039,-103.34960000
36.31591797,-106.71910000
36.34643555,-106.47130000
36.37695313,-102.04520000
36.40747070,-98.96422000
36.43798828,-96.76065000
36.46850586,-94.94923000
36.49902344,-93.06129000
36.52954102,-90.90882000
36.56005859,-89.12323000
36.59057617,-88.92422000
36.62109375,-91.59351000
36.65161133,-95.66399000
36.68212891,-93.02850000
36.71264648,-91.56857000
36.74316406,-92.76712000
36.77368164,-96.39323000
36.80419922,-106.03220000
36.83471680,-104.88650000
36.86523438,-99.85179000
36.89575195,-101.34460000
36.92626953,-98.22054000
36.95678711,-95.74896000
36.98730469,-98.61876000
37.01782227,-103.53610000
37.04833984,-96.57632000
37.07885742,-94.59749000
37.10937500,-96.55960000
37.13989258,-104.40990000
37.17041016,-109.16410000
37.20092773,-104.69980000
37.23144531,-109.50180000
37.26196289,-95.10642000
37.29248047,-91.01498000
37.32299805,-91.20985000
37.35351563,-95.24543000
37.38403320,-109.51000000
37.41455078,-99.44623000
37.44506836,-92.93420000
37.47558594,-91.03194000
37.50610352,-91.84655000
37.53662109,-93.29311000
37.56713867,-92.47031000
37.59765625,-90.75630000
37.62817383,-90.74506000
37.65869141,-93.13698000
37.68920898,-94.06688000
37.71972656,-91.24253000
37.75024414,-89.46045000
37.78076172,-89.21372000
37.81127930,-90.42838000
37.84179688,-93.48408000
37.87231445,-99.10900000
37.90283203,-105.41830000
37.93334961,-99.07700000
37.96386719,-93.22594000
37.99438477,-90.83550000
38.02490234,-92.34201000
38.05541992,-100.78260000
38.08593750,-98.35182000
38.11645508,-92.63806000
38.14697266,-91.83904000
38.17749023,-93.21637000
38.20800781,-95.74767000
38.23852539,-100.02610000
38.26904297,-109.89530000
38.29956055,-104.92110000
38.33007813,-99.41687000
38.36059570,-99.63661000
38.39111328,-107.93590000
38.42163086,-108.05750000
38.45214844,-101.51290000
38.48266602,-100.58880000
38.51318359,-101.63590000
38.54370117,-108.02880000
38.57421875,-101.90700000
38.60473633,-93.90187000
38.63525391,-91.76436000
38.66577148,-95.02716000
38.69628906,-111.89360000
38.72680664,-92.14561000
38.75732422,-88.00223000
38.78784180,-87.41322000
38.81835938,-89.48439000
38.84887695,-94.38705000
38.87939453,-96.93414000
38.90991211,-93.78159000
38.94042969,-91.55616000
38.97094727,-90.41553000
39.00146484,-91.60452000
39.03198242,-97.38351000
39.06250000,-102.24320000
39.09301758,-93.55309000
39.12353516,-91.37681000
39.15405273,-92.16409000
39.18457031,-94.01859000
39.21508789,-92.77512000
39.24560547,-87.88101000
39.27612305,-84.47789000
39.30664063,-83.35784000
39.33715820,-84.18159000
39.36767578,-86.53311000
39.39819336,-89.96552000
39.42871094,-93.29802000
39.45922852,-94.19269000
39.48974609,-94.75430000
39.52026367,-98.67319000
39.55078125,-112.63510000
39.58129883,-96.76780000
39.61181641,-90.47223000
39.64233398,-88.60727000
39.67285156,-91.25252000
39.70336914,-106.69260000
39.73388672,-93.78875000
39.76440430,-89.08363000
39.79492188,-88.61149000
39.82543945,-91.08044000
39.85595703,-95.20489000
39.88647461,-94.45205000
39.91699219,-94.20112000
39.94750977,-91.18481000
39.97802734,-87.18912000
40.00854492,-86.27995000
40.03906250,-88.22133000
40.06958008,-92.94321000
40.10009766,-100.86390000
40.13061523,-107.94840000
40.16113281,-103.79500000
40.19165039,-97.43517000
40.22216797,-95.76869000
40.25268555,-90.85212000
40.28320313,-85.17004000
40.31372070,-82.47237000
40.34423828,-82.87726000
40.37475586,-86.84618000
40.40527344,-96.75140000
40.43579102,-105.54460000
40.46630859,-104.24420000
40.49682617,-103.96110000
40.52734375,-95.23861000
40.55786133,-94.13406000
40.58837891,-90.26580000
40.61889648,-84.17056000
40.64941406,-81.59840000
40.67993164,-82.40118000
40.71044922,-86.81825000
40.74096680,-97.55489000
40.77148438,-100.80970000
40.80200195,-98.92396000
40.83251953,-108.56350000
40.86303711,-93.08418000
40.89355469,-88.89674000
40.92407227,-88.26454000
40.95458984,-87.47002000
40.98510742,-85.50218000
41.01562500,-85.48046000
41.04614258,-87.65808000
41.07666016,-89.85556000
41.10717773,-90.14462000
41.13769531,-89.12730000
41.16821289,-88.28639000
41.19873047,-89.58129000
41.22924805,-97.18761000
41.25976563,-93.83449000
41.29028320,-85.17975000
41.32080078,-81.89187000
41.35131836,-81.69076000
41.38183594,-84.64237000
41.41235352,-91.62418000
41.44287109,-94.26095000
41.47338867,-91.07635000
41.50390625,-92.13317000
41.53442383,-95.83878000
41.56494141,-95.35313000
41.59545898,-89.59608000
41.62597656,-85.11230000
41.65649414,-82.97227000
41.68701172,-83.16461000
41.71752930,-85.13596000
41.74804688,-87.22981000
41.77856445,-89.58557000
41.80908203,-92.38785000
41.83959961,-92.82214000
41.87011719,-92.60138000
41.90063477,-94.67360000
41.93115234,-94.53854000
41.96166992,-85.67606000
41.99218750,-81.43014000
42.02270508,-80.79835000
42.05322266,-83.46167000
42.08374023,-89.51543000
42.11425781,-94.74731000
42.14477539,-92.09977000
42.17529297,-89.06272000
42.20581055,-87.44333000
42.23632813,-85.98058000
42.26684570,-83.96513000
42.29736328,-82.22067000
42.32788086,-81.40625000
42.35839844,-82.44502000
42.38891602,-86.59427000
42.41943359,-95.61674000
42.44995117,-98.73991000
42.48046875,-92.14647000
42.51098633,-90.32586000
42.54150391,-91.73568000
42.57202148,-93.36113000
42.60253906,-101.25320000
42.63305664,-92.25148000
42.66357422,-84.05537000
42.69409180,-81.89926000
42.72460938,-83.91410000
42.75512695,-91.29807000
42.78564453,-104.88970000
42.81616211,-101.02420000
42.84667969,-98.41576000
42.87719727,-92.79137000
42.90771484,-92.38793000
42.93823242,-99.46197000
42.96875000,-94.68600000
42.99926758,-85.80121000
43.02978516,-83.05813000
43.06030273,-84.16817000
43.09082031,-89.29627000
43.12133789,-96.52751000
43.15185547,-95.93758000
43.18237305,-96.06602000
43.21289063,-95.39644000
43.24340820,-91.91072000
43.27392578,-87.12776000
43.30444336,-83.59254000
43.33496094,-81.76881000
43.36547852,-81.80460000
43.39599609,-84.31035000
43.42651367,-89.79942000
43.45703125,-95.67087000
43.48754883,-93.20074000
43.51806641,-87.69885000
43.54858398,-85.74968000
43.57910156,-86.61058000
43.60961914,-89.28200000
43.64013672,-89.98367000
43.67065430,-86.65405000
43.70117188,-84.84511000
43.73168945,-85.34997000
43.76220703,-87.10469000
43.79272461,-88.83916000
43.82324219,-90.45103000
43.85375977,-90.89611000
43.88427734,-90.19618000
43.91479492,-88.06496000
43.94531250,-86.09003000
43.97583008,-85.91496000
44.00634766,-86.22513000
44.03686523,-85.94242000
44.06738281,-86.84258000
44.09790039,-89.05224000
44.12841797,-90.83752000
44.15893555,-90.04203000
44.18945313,-87.38763000
44.21997070,-86.01669000
44.25048828,-86.15258000
44.28100586,-87.07616000
44.31152344,-88.10652000
44.34204102,-88.15914000
44.37255859,-87.59735000
44.40307617,-88.84541000
44.43359375,-93.12827000
44.46411133,-96.83826000
44.49462891,-94.44765000
44.52514648,-91.49308000
44.55566406,-90.11314000
44.58618164,-90.69019000
44.61669922,-92.73000000
44.64721680,-93.69101000
44.67773438,-92.16167000
44.70825195,-91.16505000
44.73876953,-91.23282000
44.76928711,-90.46358000
44.79980469,-88.23050000
44.83032227,-86.82555000
44.86083984,-87.75932000
44.89135742,-91.59931000
44.92187500,-92.87484000
44.95239258,-89.64977000
44.98291016,-88.27270000
45.01342773,-88.31320000
45.04394531,-89.54964000
45.07446289,-92.34764000
45.10498047,-96.11672000
45.13549805,-95.68894000
45.16601563,-91.80699000
45.19653320,-88.36475000
45.22705078,-87.37222000
45.25756836,-89.80402000
45.28808594,-98.23574000
45.31860352,-101.31590000
45.34912109,-92.83694000
45.37963867,-90.01604000
45.41015625,-89.28666000
45.44067383,-90.08607000
45.47119141,-91.47978000
45.50170898,-91.80077000
45.53222656,-90.89697000
45.56274414,-90.29731000
45.59326172,-91.05279000
45.62377930,-94.18667000
45.65429688,-104.17040000
45.68481445,-99.63509000
45.71533203,-93.04561000
45.74584961,-91.12385000
45.77636719,-91.15241000
45.80688477,-91.96758000
45.83740234,-92.49442000
45.86791992,-92.37041000
45.89843750,-93.25684000
45.92895508,-96.87309000
45.95947266,-101.58200000
45.98999023,-97.35256000
46.02050781,-94.00221000
46.05102539,-92.72389000
46.08154297,-92.39848000
46.11206055,-92.29987000
46.14257813,-92.92278000
46.17309570,-93.24770000
46.20361328,-92.35020000
46.23413086,-92.93977000
46.26464844,-95.40839000
46.29516602,-94.02287000
46.32568359,-90.32918000
46.35620117,-89.07188000
46.38671875,-90.48058000
46.41723633,-95.02995000
46.44775391,-102.71500000
46.47827148,-100.71160000
46.50878906,-103.49320000
46.53930664,-107.75950000
46.56982422,-100.54580000
46.60034180,-101.89300000
46.63085938,-103.20470000
46.66137695,-96.59383000
46.69189453,-92.17366000
46.72241211,-89.24089000
46.75292969,-88.54455000
46.78344727,-91.33343000
46.81396484,-101.94650000
46.84448242,-95.58850000
46.87500000,-91.34492000
46.90551758,-92.40309000
46.93603516,-98.77414000
46.96655273,-102.69400000
46.99707031,-96.24061000
47.02758789,-94.29234000
47.05810547,-93.61227000
47.08862305,-95.48888000
47.11914063,-99.12520000
47.14965820,-97.58690000
47.18017578,-101.35470000
47.21069336,-110.11230000
47.24121094,-101.44770000
47.27172852,-100.35580000
47.30224609,-92.98822000
47.33276367,-88.65090000
47.36328125,-86.86664000
47.39379883,-87.19145000
47.42431641,-90.57011000
47.45483398,-101.37770000
47.48535156,-101.75790000
47.51586914,-102.91440000
47.54638672,-95.63799000
47.57690430,-90.57094000
47.60742188,-90.33064000
47.63793945,-93.31996000
47.66845703,-100.51960000
47.69897461,-100.21520000
47.72949219,-92.84923000
47.76000977,-91.41991000
47.79052734,-95.35768000
47.82104492,-111.80360000
47.85156250,-101.65970000
47.88208008,-105.86530000
47.91259766,-108.25510000
47.94311523,-99.97794000
47.97363281,-99.75323000
48.00415039,-103.35980000
48.03466797,-105.53240000
48.06518555,-102.12210000
48.09570313,-100.87450000
48.12622070,-99.75742000
48.15673828,-96.51043000
48.18725586,-92.78299000
48.21777344,-90.11838000
48.24829102,-89.21380000
48.27880859,-90.30415000
48.30932617,-92.77676000
48.33984375,-94.34096000
48.37036133,-94.64014000
48.40087891,-96.06002000
48.43139648,-99.39410000
48.46191406,-99.41293000
48.49243164,-95.71286000
48.52294922,-92.70049000
48.55346680,-90.72952000
48.58398438,-90.46071000
48.61450195,-92.06951000
48.64501953,-95.23818000
48.67553711,-100.71690000
48.70605469,-108.16030000
48.73657227,-104.78570000
48.76708984,-107.07990000
48.79760742,-113.00620000
48.82812500,-104.94310000
48.85864258,-94.20521000
48.88916016,-90.09276000
48.91967773,-89.77640000
48.95019531,-93.16583000
48.98071289,-103.22260000
49.01123047,-95.65355000
49.04174805,-92.00932000
49.07226563,-92.85510000
49.10278320,-95.12460000
49.13330078,-96.48152000
49.16381836,-99.34925000
49.19433594,-99.02596000
49.22485352,-95.87833000
49.25537109,-93.47748000
49.28588867,-92.97851000
49.31640625,-95.43176000
49.34692383,-96.51157000
49.37744141,-92.32487000
49.40795898,-90.16257000
49.43847656,-90.49094000
49.46899414,-92.87277000
49.49951172,-94.97064000
49.53002930,-95.01572000
49.56054688,-94.38564000
49.59106445,-91.56912000
49.62158203,-89.94971000
49.65209961,-91.65626000
49.68261719,-98.78457000
49.71313477,-103.06420000
49.74365234,-95.89740000
49.77416992,-95.08743000
49.80468750,-98.34512000
49.83520508,-105.44580000
49.86572266,-103.91300000
49.89624023,-95.80176000
49.92675781,-90.50154000
49.95727539,-89.18885000
49.98779297,-91.41392000
50.01831055,-95.55319000
