Frequency,Channel A
(MHz),(dBu)

0.00000000,-23.59138000
0.03051758,-23.87125000
0.06103516,-28.69552000
0.09155273,-37.19843000
0.12207031,-48.33357000
0.15258789,-53.91943000
0.18310547,-56.07175000
0.21362305,-56.32010000
0.24414063,-57.44604000
0.27465820,-59.40849000
0.30517578,-59.36913000
0.33569336,-58.19971000
0.36621094,-57.13243000
0.39672852,-56.77319000
0.42724609,-57.81199000
0.45776367,-60.89721000
0.48828125,-65.64187000
0.51879883,-65.14615000
0.54931641,-61.99095000
0.57983398,-60.56889000
0.61035156,-60.33352000
0.64086914,-61.44211000
0.67138672,-65.25741000
0.70190430,-71.73989000
0.73242188,-67.78672000
0.76293945,-64.81910000
0.79345703,-63.30238000
0.82397461,-62.15132000
0.85449219,-61.63025000
0.88500977,-61.81925000
0.91552734,-62.16785000
0.94604492,-62.64101000
0.97656250,-63.58743000
1.00708008,-64.28227000
1.03759766,-63.81870000
1.06811523,-63.23553000
1.09863281,-63.19462000
1.12915039,-62.60515000
1.15966797,-61.76892000
1.19018555,-61.85724000
1.22070313,-62.80526000
1.25122070,-63.32238000
1.28173828,-62.33589000
1.31225586,-61.11671000
1.34277344,-60.78091000
1.37329102,-61.30080000
1.40380859,-62.10790000
1.43432617,-62.65237000
1.46484375,-62.89331000
1.49536133,-63.05438000
1.52587891,-62.86202000
1.55639648,-61.92419000
1.58691406,-60.93279000
1.61743164,-60.76192000
1.64794922,-61.11867000
1.67846680,-60.82212000
1.70898438,-60.21576000
1.73950195,-60.59792000
1.77001953,-62.46991000
1.80053711,-65.17051000
1.83105469,-66.47522000
1.86157227,-66.01617000
1.89208984,-65.29462000
1.92260742,-64.74755000
1.95312500,-64.44781000
1.98364258,-64.46260000
2.01416016,-64.79429000
2.04467773,-65.32878000
2.07519531,-66.02656000
2.10571289,-66.96933000
2.13623047,-67.77682000
2.16674805,-67.49438000
2.19726563,-66.23217000
2.22778320,-65.14853000
2.25830078,-64.77650000
2.28881836,-64.97858000
2.31933594,-65.34794000
2.34985352,-65.49932000
2.38037109,-65.40542000
2.41088867,-65.37321000
2.44140625,-65.47698000
2.47192383,-65.46554000
2.50244141,-65.13124000
2.53295898,-64.24599000
2.56347656,-62.70426000
2.59399414,-61.25793000
2.62451172,-60.72289000
2.65502930,-61.24409000
2.68554688,-62.48995000
2.71606445,-63.90942000
2.74658203,-64.82877000
2.77709961,-64.70087000
2.80761719,-63.78457000
2.83813477,-62.80423000
2.86865234,-62.13245000
2.89916992,-61.79961000
2.92968750,-61.71053000
2.96020508,-61.74629000
2.99072266,-61.82318000
3.02124023,-61.89249000
3.05175781,-61.92011000
3.08227539,-61.87660000
3.11279297,-61.71696000
3.14331055,-61.49755000
3.17382813,-61.46041000
3.20434570,-61.68472000
3.23486328,-61.71427000
3.26538086,-61.22158000
3.29589844,-60.73128000
3.32641602,-60.66956000
3.35693359,-60.84959000
3.38745117,-60.90183000
3.41796875,-60.75024000
3.44848633,-60.39417000
3.47900391,-59.71198000
3.50952148,-58.92594000
3.54003906,-58.46925000
3.57055664,-58.45982000
3.60107422,-58.66459000
3.63159180,-58.82149000
3.66210938,-58.84999000
3.69262695,-58.68720000
3.72314453,-58.31878000
3.75366211,-58.02287000
3.78417969,-58.16305000
3.81469727,-58.77377000
3.84521484,-59.50576000
3.87573242,-60.07921000
3.90625000,-60.60298000
3.93676758,-61.15583000
3.96728516,-61.55799000
3.99780273,-61.70028000
4.02832031,-61.77795000
4.05883789,-62.05462000
4.08935547,-62.59346000
4.11987305,-63.31849000
4.15039063,-64.19406000
4.18090820,-65.15514000
4.21142578,-65.95427000
4.24194336,-66.26473000
4.27246094,-65.99303000
4.30297852,-65.53672000
4.33349609,-65.55093000
4.36401367,-66.27389000
4.39453125,-66.99390000
4.42504883,-67.02729000
4.45556641,-67.03993000
4.48608398,-67.39238000
4.51660156,-67.64403000
4.54711914,-67.50098000
4.57763672,-67.25289000
4.60815430,-67.28867000
4.63867188,-67.67022000
4.66918945,-68.22478000
4.69970703,-68.72889000
4.73022461,-69.00797000
4.76074219,-68.98661000
4.79125977,-68.65700000
4.82177734,-68.08046000
4.85229492,-67.46226000
4.88281250,-67.22415000
4.91333008,-67.65028000
4.94384766,-68.47106000
4.97436523,-69.13147000
5.00488281,-69.58479000
5.03540039,-70.03157000
5.06591797,-70.28501000
5.09643555,-69.99277000
5.12695313,-69.24813000
5.15747070,-68.65015000
5.18798828,-68.59950000
5.21850586,-69.36885000
5.24902344,-71.77518000
5.27954102,-77.62279000
5.31005859,-83.65720000
5.34057617,-76.88210000
5.37109375,-74.22770000
5.40161133,-73.09785000
5.43212891,-71.89637000
5.46264648,-69.96143000
5.49316406,-67.42830000
5.52368164,-64.93607000
5.55419922,-63.06248000
5.58471680,-61.91996000
5.61523438,-61.23293000
5.64575195,-60.72015000
5.67626953,-60.34755000
5.70678711,-60.11680000
5.73730469,-59.88369000
5.76782227,-59.50793000
5.79833984,-59.04617000
5.82885742,-58.72185000
5.85937500,-58.72123000
5.88989258,-59.07101000
5.92041016,-59.68622000
5.95092773,-60.43854000
5.98144531,-61.16932000
6.01196289,-61.74778000
6.04248047,-62.15199000
6.07299805,-62.38285000
6.10351563,-62.36053000
6.13403320,-62.29760000
6.16455078,-62.77010000
6.19506836,-64.07372000
6.22558594,-65.93387000
6.25610352,-67.71088000
6.28662109,-68.64075000
6.31713867,-68.31473000
6.34765625,-67.29449000
6.37817383,-66.48764000
6.40869141,-66.53516000
6.43920898,-67.57391000
6.46972656,-69.26939000
6.50024414,-71.23425000
6.53076172,-73.11872000
6.56127930,-73.72122000
6.59179688,-72.74405000
6.62231445,-71.51807000
6.65283203,-70.54521000
6.68334961,-69.96112000
6.71386719,-70.04465000
6.74438477,-70.98653000
6.77490234,-72.48567000
6.80541992,-73.56770000
6.83593750,-73.50654000
6.86645508,-72.87227000
6.89697266,-72.56618000
6.92749023,-72.60513000
6.95800781,-72.85518000
6.98852539,-74.12734000
7.01904297,-77.06596000
7.04956055,-80.07759000
7.08007813,-80.35783000
7.11059570,-80.03338000
7.14111328,-79.92891000
7.17163086,-80.18108000
7.20214844,-81.31585000
7.23266602,-82.08920000
7.26318359,-81.09467000
7.29370117,-80.84148000
7.32421875,-83.15176000
7.35473633,-88.39886000
7.38525391,-90.47260000
7.41577148,-90.65984000
7.44628906,-94.38982000
7.47680664,-97.92624000
7.50732422,-100.09740000
7.53784180,-95.98553000
7.56835938,-92.07678000
7.59887695,-86.95511000
7.62939453,-83.66917000
7.65991211,-83.48396000
7.69042969,-86.11939000
7.72094727,-89.47130000
7.75146484,-89.61591000
7.78198242,-88.12095000
7.81250000,-86.76194000
7.84301758,-86.72942000
7.87353516,-88.33470000
7.90405273,-89.10995000
7.93457031,-88.06106000
7.96508789,-88.12733000
7.99560547,-88.90845000
8.02612305,-90.41774000
8.05664063,-89.25490000
8.08715820,-86.10190000
8.11767578,-86.44801000
8.14819336,-88.53650000
8.17871094,-85.78613000
8.20922852,-84.27048000
8.23974609,-86.43002000
8.27026367,-91.70403000
8.30078125,-93.87337000
8.33129883,-89.83252000
8.36181641,-84.93051000
8.39233398,-83.67798000
8.42285156,-87.33171000
8.45336914,-104.47290000
8.48388672,-89.30091000
8.51440430,-87.70583000
8.54492188,-92.03307000
8.57543945,-100.04700000
8.60595703,-95.23715000
8.63647461,-89.03236000
8.66699219,-85.83350000
8.69750977,-85.48712000
8.72802734,-85.04379000
8.75854492,-83.31886000
8.78906250,-83.45593000
8.81958008,-86.15337000
8.85009766,-89.40794000
8.88061523,-90.10596000
8.91113281,-88.81095000
8.94165039,-85.86839000
8.97216797,-83.41552000
9.00268555,-82.20147000
9.03320313,-82.56836000
9.06372070,-84.80690000
9.09423828,-88.37966000
9.12475586,-91.09431000
9.15527344,-90.72206000
9.18579102,-89.71526000
9.21630859,-87.47802000
9.24682617,-83.13785000
9.27734375,-80.70034000
9.30786133,-81.46519000
9.33837891,-87.12495000
9.36889648,-98.43410000
9.39941406,-87.22395000
9.42993164,-85.51288000
9.46044922,-85.69068000
9.49096680,-85.90061000
9.52148438,-86.64594000
9.55200195,-88.29185000
9.58251953,-84.02337000
9.61303711,-79.83092000
9.64355469,-79.09612000
9.67407227,-81.56757000
9.70458984,-86.46469000
9.73510742,-84.47820000
9.76562500,-80.39359000
9.79614258,-78.50543000
9.82666016,-77.91090000
9.85717773,-77.95207000
9.88769531,-78.64861000
9.91821289,-80.11543000
9.94873047,-81.00298000
9.97924805,-80.46098000
10.00976563,-80.68443000
10.04028320,-82.49554000
10.07080078,-84.74351000
10.10131836,-85.44160000
10.13183594,-83.17422000
10.16235352,-80.55495000
10.19287109,-80.02144000
10.22338867,-82.42280000
10.25390625,-88.06286000
10.28442383,-91.75829000
10.31494141,-97.17497000
10.34545898,-93.41434000
10.37597656,-86.18793000
10.40649414,-83.72391000
10.43701172,-84.41010000
10.46752930,-88.27977000
10.49804688,-85.14825000
10.52856445,-83.05118000
10.55908203,-86.44942000
10.58959961,-89.07558000
10.62011719,-83.99574000
10.65063477,-81.92348000
10.68115234,-80.46613000
10.71166992,-79.79922000
10.74218750,-80.94563000
10.77270508,-82.34531000
10.80322266,-82.44880000
10.83374023,-84.31258000
10.86425781,-86.31335000
10.89477539,-84.05356000
10.92529297,-82.60747000
10.95581055,-81.79330000
10.98632813,-80.18600000
11.01684570,-77.07425000
11.04736328,-74.17815000
11.07788086,-72.81819000
11.10839844,-73.05944000
11.13891602,-74.36412000
11.16943359,-75.96605000
11.19995117,-77.81791000
11.23046875,-80.22714000
11.26098633,-80.26247000
11.29150391,-77.34383000
11.32202148,-75.89001000
11.35253906,-76.27103000
11.38305664,-77.41197000
11.41357422,-78.07759000
11.44409180,-78.49361000
11.47460938,-80.15300000
11.50512695,-83.97103000
11.53564453,-86.97993000
11.56616211,-89.17313000
11.59667969,-106.98500000
11.62719727,-87.48330000
11.65771484,-84.48505000
11.68823242,-84.67765000
11.71875000,-81.83048000
11.74926758,-79.99822000
11.77978516,-81.47784000
11.81030273,-83.92353000
11.84082031,-81.61396000
11.87133789,-79.34097000
11.90185547,-77.89542000
11.93237305,-76.59971000
11.96289063,-76.05399000
11.99340820,-76.82960000
12.02392578,-79.03951000
12.05444336,-82.43491000
12.08496094,-84.03917000
12.11547852,-80.64427000
12.14599609,-78.45975000
12.17651367,-79.48007000
12.20703125,-84.40254000
12.23754883,-89.08080000
12.26806641,-87.20429000
12.29858398,-85.04611000
12.32910156,-84.06058000
12.35961914,-88.84238000
12.39013672,-94.74194000
12.42065430,-82.64050000
12.45117188,-78.36159000
12.48168945,-76.56391000
12.51220703,-77.00237000
12.54272461,-79.40874000
12.57324219,-81.59322000
12.60375977,-80.57083000
12.63427734,-78.72047000
12.66479492,-78.19091000
12.69531250,-78.81293000
12.72583008,-77.86811000
12.75634766,-76.37320000
12.78686523,-77.47622000
12.81738281,-83.04580000
12.84790039,-103.58070000
12.87841797,-86.14636000
12.90893555,-82.98702000
12.93945313,-82.38371000
12.96997070,-83.27016000
13.00048828,-84.69479000
13.03100586,-83.63205000
13.06152344,-81.15678000
13.09204102,-78.96972000
13.12255859,-77.55556000
13.15307617,-78.07766000
13.18359375,-81.77208000
13.21411133,-88.58940000
13.24462891,-84.46365000
13.27514648,-80.15807000
13.30566406,-77.61739000
13.33618164,-77.63746000
13.36669922,-80.76077000
13.39721680,-81.57021000
13.42773438,-78.05817000
13.45825195,-76.02711000
13.48876953,-72.31225000
13.51928711,-67.63024000
13.54980469,-65.17780000
13.58032227,-65.44886000
13.61083984,-67.93802000
13.64135742,-70.51076000
13.67187500,-70.73396000
13.70239258,-70.37096000
13.73291016,-71.51519000
13.76342773,-75.02102000
13.79394531,-81.78963000
13.82446289,-102.14760000
13.85498047,-86.89621000
13.88549805,-81.07246000
13.91601563,-78.91692000
13.94653320,-79.92702000
13.97705078,-84.15894000
14.00756836,-88.51906000
14.03808594,-84.45644000
14.06860352,-79.71127000
14.09912109,-77.79522000
14.12963867,-78.42776000
14.16015625,-80.65903000
14.19067383,-82.87884000
14.22119141,-86.76830000
14.25170898,-93.93063000
14.28222656,-85.78539000
14.31274414,-84.85391000
14.34326172,-88.90524000
14.37377930,-89.82988000
14.40429688,-92.28662000
14.43481445,-100.34830000
14.46533203,-93.95724000
14.49584961,-93.07610000
14.52636719,-83.39531000
14.55688477,-78.07569000
14.58740234,-75.93217000
14.61791992,-76.46014000
14.64843750,-79.95151000
14.67895508,-87.11763000
14.70947266,-88.18449000
14.73999023,-83.91460000
14.77050781,-83.05531000
14.80102539,-83.08705000
14.83154297,-80.45607000
14.86206055,-78.03136000
14.89257813,-77.50888000
14.92309570,-78.70874000
14.95361328,-80.19356000
14.98413086,-79.69704000
15.01464844,-78.34557000
15.04516602,-78.37497000
15.07568359,-80.93393000
15.10620117,-83.23045000
15.13671875,-81.63382000
15.16723633,-83.01466000
15.19775391,-87.67329000
15.22827148,-85.17226000
15.25878906,-84.47505000
15.28930664,-89.01018000
15.31982422,-99.84741000
15.35034180,-94.22965000
15.38085938,-86.95663000
15.41137695,-82.12722000
15.44189453,-79.69576000
15.47241211,-78.46986000
15.50292969,-77.71140000
15.53344727,-78.05733000
15.56396484,-79.84950000
15.59448242,-82.50432000
15.62500000,-86.92062000
15.65551758,-89.25346000
15.68603516,-84.84501000
15.71655273,-83.80681000
15.74707031,-82.46513000
15.77758789,-79.35778000
15.80810547,-78.26010000
15.83862305,-79.91925000
15.86914063,-83.19919000
15.89965820,-83.79391000
15.93017578,-82.86227000
15.96069336,-83.49017000
15.99121094,-86.52992000
16.02172852,-90.40702000
16.05224609,-85.86469000
16.08276367,-83.09496000
16.11328125,-83.91135000
16.14379883,-87.93938000
16.17431641,-93.33992000
16.20483398,-101.71560000
16.23535156,-94.18023000
16.26586914,-86.99982000
16.29638672,-83.89697000
16.32690430,-82.88960000
16.35742188,-84.22966000
16.38793945,-89.67799000
16.41845703,-102.30010000
16.44897461,-88.16505000
16.47949219,-83.52761000
16.51000977,-80.83864000
16.54052734,-79.70800000
16.57104492,-80.67145000
16.60156250,-83.86971000
16.63208008,-87.41315000
16.66259766,-87.70377000
16.69311523,-87.92804000
16.72363281,-90.11916000
16.75415039,-92.37415000
16.78466797,-88.10956000
16.81518555,-83.63415000
16.84570313,-81.35390000
16.87622070,-81.05112000
16.90673828,-82.38822000
16.93725586,-84.68475000
16.96777344,-86.64613000
16.99829102,-87.01738000
17.02880859,-85.89186000
17.05932617,-84.37038000
17.08984375,-83.12868000
17.12036133,-82.21948000
17.15087891,-81.39584000
17.18139648,-80.56131000
17.21191406,-80.14574000
17.24243164,-80.58969000
17.27294922,-81.55755000
17.30346680,-82.06765000
17.33398438,-82.09006000
17.36450195,-82.32156000
17.39501953,-83.12361000
17.42553711,-84.85508000
17.45605469,-87.88617000
17.48657227,-89.19128000
17.51708984,-87.54332000
17.54760742,-88.79134000
17.57812500,-95.13503000
17.60864258,-96.83777000
17.63916016,-92.57088000
17.66967773,-89.68040000
17.70019531,-87.81493000
17.73071289,-92.48791000
17.76123047,-87.74319000
17.79174805,-78.41152000
17.82226563,-75.41263000
17.85278320,-75.69186000
17.88330078,-78.13783000
17.91381836,-81.76750000
17.94433594,-85.42336000
17.97485352,-87.39207000
18.00537109,-87.21131000
18.03588867,-86.90276000
18.06640625,-87.61179000
18.09692383,-88.83475000
18.12744141,-89.40299000
18.15795898,-89.27384000
18.18847656,-89.68975000
18.21899414,-91.23988000
18.24951172,-91.60874000
18.28002930,-89.13301000
18.31054688,-87.24519000
18.34106445,-87.10599000
18.37158203,-88.70156000
18.40209961,-91.72144000
18.43261719,-95.77682000
18.46313477,-102.87450000
18.49365234,-99.87016000
18.52416992,-91.30125000
18.55468750,-88.20932000
18.58520508,-88.12798000
18.61572266,-89.21735000
18.64624023,-89.34544000
18.67675781,-89.29623000
18.70727539,-90.24384000
18.73779297,-92.11174000
18.76831055,-94.00922000
18.79882813,-92.64085000
18.82934570,-89.49899000
18.85986328,-88.36913000
18.89038086,-89.74740000
18.92089844,-91.76022000
18.95141602,-91.43340000
18.98193359,-91.47365000
19.01245117,-93.62946000
19.04296875,-97.12978000
19.07348633,-97.48226000
19.10400391,-95.40794000
19.13452148,-93.53879000
19.16503906,-91.11133000
19.19555664,-89.17903000
19.22607422,-88.44093000
19.25659180,-87.50409000
19.28710938,-86.16533000
19.31762695,-86.32074000
19.34814453,-89.12944000
19.37866211,-94.76724000
19.40917969,-99.17701000
19.43969727,-100.38810000
19.47021484,-98.74509000
19.50073242,-96.84509000
19.53125000,-97.68070000
19.56176758,-101.16770000
19.59228516,-104.42530000
19.62280273,-105.80980000
19.65332031,-106.43900000
19.68383789,-107.38440000
19.71435547,-104.82490000
19.74487305,-101.45980000
19.77539063,-104.64710000
19.80590820,-105.75440000
19.83642578,-95.34381000
19.86694336,-92.02247000
19.89746094,-92.60609000
19.92797852,-95.11153000
19.95849609,-93.17213000
19.98901367,-90.53824000
20.01953125,-89.95651000
20.05004883,-90.66953000
20.08056641,-92.12907000
20.11108398,-93.41397000
20.14160156,-91.58849000
20.17211914,-88.94659000
20.20263672,-87.99611000
20.23315430,-88.94339000
20.26367188,-92.02715000
20.29418945,-98.80002000
20.32470703,-98.33586000
20.35522461,-92.80086000
20.38574219,-91.91095000
20.41625977,-94.71000000
20.44677734,-98.45574000
20.47729492,-96.39793000
20.50781250,-95.98499000
20.53833008,-96.81739000
20.56884766,-96.68768000
20.59936523,-97.43951000
20.62988281,-96.05975000
20.66040039,-93.27318000
20.69091797,-93.26122000
20.72143555,-96.93715000
20.75195313,-107.24560000
20.78247070,-103.24620000
20.81298828,-98.42493000
20.84350586,-96.32637000
20.87402344,-93.86062000
20.90454102,-91.19393000
20.93505859,-90.03773000
20.96557617,-91.77309000
20.99609375,-96.39554000
21.02661133,-94.25600000
21.05712891,-91.52001000
21.08764648,-91.54788000
21.11816406,-93.14515000
21.14868164,-96.22459000
21.17919922,-103.14140000
21.20971680,-104.59400000
21.24023438,-96.47691000
21.27075195,-92.60178000
21.30126953,-90.74981000
21.33178711,-90.05859000
21.36230469,-90.21802000
21.39282227,-91.54595000
21.42333984,-94.18048000
21.45385742,-95.62743000
21.48437500,-93.31054000
21.51489258,-90.79823000
21.54541016,-89.69748000
21.57592773,-90.68305000
21.60644531,-93.25356000
21.63696289,-90.26871000
21.66748047,-86.50648000
21.69799805,-85.34697000
21.72851563,-86.29616000
21.75903320,-89.06163000
21.78955078,-93.60764000
21.82006836,-94.90955000
21.85058594,-90.89420000
21.88110352,-89.53471000
21.91162109,-91.68556000
21.94213867,-96.84798000
21.97265625,-94.87627000
22.00317383,-91.83246000
22.03369141,-90.83385000
22.06420898,-89.04343000
22.09472656,-86.33811000
22.12524414,-84.82962000
22.15576172,-85.25391000
22.18627930,-87.81353000
22.21679688,-92.72034000
22.24731445,-97.64026000
22.27783203,-94.66247000
22.30834961,-91.39090000
22.33886719,-89.64491000
22.36938477,-89.06552000
22.39990234,-89.38824000
22.43041992,-90.42369000
22.46093750,-91.89738000
22.49145508,-92.72321000
22.52197266,-91.67252000
22.55249023,-90.31430000
22.58300781,-90.33497000
22.61352539,-92.39510000
22.64404297,-98.09949000
22.67456055,-106.44190000
22.70507813,-94.97346000
22.73559570,-91.58337000
22.76611328,-91.49437000
22.79663086,-93.33797000
22.82714844,-95.29153000
22.85766602,-95.27533000
22.88818359,-93.48148000
22.91870117,-91.60854000
22.94921875,-90.54864000
22.97973633,-89.78699000
23.01025391,-88.70776000
23.04077148,-87.95287000
23.07128906,-88.29769000
23.10180664,-90.06523000
23.13232422,-92.74693000
23.16284180,-93.33464000
23.19335938,-91.98671000
23.22387695,-91.19521000
23.25439453,-90.52913000
23.28491211,-89.37607000
23.31542969,-88.19703000
23.34594727,-87.72705000
23.37646484,-88.46168000
23.40698242,-90.87007000
23.43750000,-95.22046000
23.46801758,-99.66695000
23.49853516,-101.67580000
23.52905273,-103.46200000
23.55957031,-99.71999000
23.59008789,-91.62617000
23.62060547,-87.35920000
23.65112305,-85.95653000
23.68164063,-86.28241000
23.71215820,-87.02045000
23.74267578,-87.54855000
23.77319336,-88.39258000
23.80371094,-89.75333000
23.83422852,-91.53725000
23.86474609,-94.22829000
23.89526367,-97.30185000
23.92578125,-96.84188000
23.95629883,-95.48054000
23.98681641,-94.93272000
24.01733398,-93.58461000
24.04785156,-92.92103000
24.07836914,-94.74973000
24.10888672,-98.68567000
24.13940430,-97.37614000
24.16992188,-94.46064000
24.20043945,-94.77268000
24.23095703,-95.70384000
24.26147461,-94.06612000
24.29199219,-93.28722000
24.32250977,-94.63615000
24.35302734,-99.12601000
24.38354492,-109.94260000
24.41406250,-98.51193000
24.44458008,-93.65922000
24.47509766,-92.30869000
24.50561523,-93.27399000
24.53613281,-95.47244000
24.56665039,-97.35713000
24.59716797,-99.60416000
24.62768555,-98.95174000
24.65820313,-92.49236000
24.68872070,-88.15855000
24.71923828,-86.47073000
24.74975586,-87.27312000
24.78027344,-90.39814000
24.81079102,-93.17220000
24.84130859,-91.33795000
24.87182617,-89.03861000
24.90234375,-87.42248000
24.93286133,-86.27320000
24.96337891,-85.69588000
24.99389648,-85.77186000
25.02441406,-85.98735000
25.05493164,-85.40658000
25.08544922,-84.48661000
25.11596680,-84.69624000
25.14648438,-87.01950000
25.17700195,-91.74821000
25.20751953,-94.74033000
25.23803711,-93.27649000
25.26855469,-92.85460000
25.29907227,-92.64838000
25.32958984,-91.12547000
25.36010742,-90.04836000
25.39062500,-90.77315000
25.42114258,-93.91265000
25.45166016,-97.50020000
25.48217773,-93.07321000
25.51269531,-89.94492000
25.54321289,-89.49256000
25.57373047,-90.99548000
25.60424805,-93.11993000
25.63476563,-94.27908000
25.66528320,-96.26952000
25.69580078,-99.97155000
25.72631836,-99.25427000
25.75683594,-98.18253000
25.78735352,-100.04890000
25.81787109,-99.54379000
25.84838867,-94.55164000
25.87890625,-91.13132000
25.90942383,-89.58637000
25.93994141,-89.60551000
25.97045898,-89.94052000
26.00097656,-89.88300000
26.03149414,-91.10542000
26.06201172,-94.26828000
26.09252930,-93.36585000
26.12304688,-89.34096000
26.15356445,-87.29279000
26.18408203,-87.03327000
26.21459961,-88.09769000
26.24511719,-90.62883000
26.27563477,-95.72742000
26.30615234,-98.09325000
26.33666992,-93.52991000
26.36718750,-91.38216000
26.39770508,-90.52323000
26.42822266,-90.45796000
26.45874023,-91.20763000
26.48925781,-91.65866000
26.51977539,-90.77941000
26.55029297,-89.99387000
26.58081055,-90.76357000
26.61132813,-94.45850000
26.64184570,-108.56000000
26.67236328,-96.61152000
26.70288086,-91.21474000
26.73339844,-89.79600000
26.76391602,-89.97895000
26.79443359,-90.47899000
26.82495117,-91.23523000
26.85546875,-92.99806000
26.88598633,-97.11605000
26.91650391,-103.23900000
26.94702148,-98.46378000
26.97753906,-97.16374000
27.00805664,-100.41830000
27.03857422,-98.24772000
27.06909180,-94.17962000
27.09960938,-93.25960000
27.13012695,-93.98479000
27.16064453,-94.31763000
27.19116211,-91.83244000
27.22167969,-88.93844000
27.25219727,-88.08506000
27.28271484,-89.34901000
27.31323242,-90.67455000
27.34375000,-89.95779000
27.37426758,-89.66399000
27.40478516,-91.00398000
27.43530273,-91.77192000
27.46582031,-88.96294000
27.49633789,-86.71323000
27.52685547,-86.47614000
27.55737305,-87.47610000
27.58789063,-87.62683000
27.61840820,-87.03250000
27.64892578,-87.84801000
27.67944336,-89.55304000
27.70996094,-88.93528000
27.74047852,-88.66772000
27.77099609,-91.73547000
27.80151367,-101.68940000
27.83203125,-98.71983000
27.86254883,-92.03622000
27.89306641,-90.55383000
27.92358398,-93.08643000
27.95410156,-98.44879000
27.98461914,-92.61105000
28.01513672,-89.95159000
28.04565430,-91.13106000
28.07617188,-94.95614000
28.10668945,-99.10404000
28.13720703,-98.11096000
28.16772461,-95.80136000
28.19824219,-95.53948000
28.22875977,-94.50685000
28.25927734,-92.76425000
28.28979492,-92.06625000
28.32031250,-91.39199000
28.35083008,-89.56895000
28.38134766,-87.95256000
28.41186523,-87.94960000
28.44238281,-90.08278000
28.47290039,-94.11358000
28.50341797,-96.59300000
28.53393555,-96.42830000
28.56445313,-100.31600000
28.59497070,-97.66755000
28.62548828,-89.80260000
28.65600586,-87.52692000
28.68652344,-88.85660000
28.71704102,-91.87112000
28.74755859,-92.31831000
28.77807617,-92.15675000
28.80859375,-93.79037000
28.83911133,-97.84314000
28.86962891,-98.86391000
28.90014648,-94.85165000
28.93066406,-94.30862000
28.96118164,-96.21108000
28.99169922,-95.47130000
29.02221680,-91.72848000
29.05273438,-89.56090000
29.08325195,-89.60802000
29.11376953,-91.18942000
29.14428711,-93.15451000
29.17480469,-93.69630000
29.20532227,-93.04358000
29.23583984,-94.11277000
29.26635742,-99.45118000
29.29687500,-107.71280000
29.32739258,-100.97300000
29.35791016,-102.82010000
29.38842773,-100.34680000
29.41894531,-97.46028000
29.44946289,-99.16991000
29.47998047,-101.21950000
29.51049805,-95.47703000
29.54101563,-90.89926000
29.57153320,-89.23641000
29.60205078,-90.23682000
29.63256836,-94.08988000
29.66308594,-102.58980000
29.69360352,-114.34770000
29.72412109,-103.82080000
29.75463867,-103.53810000
29.78515625,-109.12510000
29.81567383,-111.78050000
29.84619141,-109.64540000
29.87670898,-99.08205000
29.90722656,-94.09509000
29.93774414,-93.76263000
29.96826172,-97.51427000
29.99877930,-95.22042000
30.02929688,-90.84966000
30.05981445,-89.93512000
30.09033203,-90.75319000
30.12084961,-90.09932000
30.15136719,-87.98012000
30.18188477,-87.25175000
30.21240234,-88.83286000
30.24291992,-93.29212000
30.27343750,-102.25090000
30.30395508,-99.96433000
30.33447266,-99.99303000
30.36499023,-108.20540000
30.39550781,-95.69152000
30.42602539,-93.37292000
30.45654297,-95.72755000
30.48706055,-96.34171000
30.51757813,-93.95448000
30.54809570,-94.34169000
30.57861328,-98.60867000
30.60913086,-96.30708000
30.63964844,-90.23994000
30.67016602,-88.09241000
30.70068359,-88.56642000
30.73120117,-91.39207000
30.76171875,-97.24831000
30.79223633,-96.23705000
30.82275391,-93.26237000
30.85327148,-95.51012000
30.88378906,-103.43020000
30.91430664,-96.08057000
30.94482422,-93.80516000
30.97534180,-98.07580000
31.00585938,-107.54820000
31.03637695,-93.58691000
31.06689453,-89.97620000
31.09741211,-89.08638000
31.12792969,-88.65947000
31.15844727,-88.04539000
31.18896484,-88.79983000
31.21948242,-91.84197000
31.25000000,-93.71378000
31.28051758,-89.97108000
31.31103516,-88.11971000
31.34155273,-89.63853000
31.37207031,-95.79610000
31.40258789,-104.80250000
31.43310547,-96.22097000
31.46362305,-96.36092000
31.49414063,-102.28720000
31.52465820,-96.21243000
31.55517578,-94.68343000
31.58569336,-102.52150000
31.61621094,-100.00410000
31.64672852,-94.26637000
31.67724609,-94.93817000
31.70776367,-98.25088000
31.73828125,-102.72780000
31.76879883,-112.95470000
31.79931641,-101.77780000
31.82983398,-102.89430000
31.86035156,-107.03730000
31.89086914,-94.72281000
31.92138672,-92.07285000
31.95190430,-93.25214000
31.98242188,-95.60042000
32.01293945,-96.04533000
32.04345703,-95.47800000
32.07397461,-95.02270000
32.10449219,-95.15044000
32.13500977,-96.24581000
32.16552734,-97.59601000
32.19604492,-96.00425000
32.22656250,-95.06886000
32.25708008,-98.01956000
32.28759766,-101.85880000
32.31811523,-98.77972000
32.34863281,-97.43684000
32.37915039,-98.95227000
32.40966797,-101.06240000
32.44018555,-95.57896000
32.47070313,-94.23164000
32.50122070,-99.05252000
32.53173828,-106.95140000
32.56225586,-98.44008000
32.59277344,-98.94408000
32.62329102,-106.99910000
32.65380859,-109.03780000
32.68432617,-101.72020000
32.71484375,-100.26250000
32.74536133,-102.22980000
32.77587891,-110.66920000
32.80639648,-112.06310000
32.83691406,-99.73163000
32.86743164,-93.60754000
32.89794922,-91.67987000
32.92846680,-93.05634000
32.95898438,-95.93988000
32.98950195,-97.64733000
33.02001953,-95.43990000
33.05053711,-93.64483000
33.08105469,-94.63617000
33.11157227,-97.01077000
33.14208984,-98.30875000
33.17260742,-99.06862000
33.20312500,-97.29884000
33.23364258,-93.61534000
33.26416016,-91.27105000
33.29467773,-91.28506000
33.32519531,-95.76000000
33.35571289,-103.83410000
33.38623047,-96.51633000
33.41674805,-99.01146000
33.44726563,-98.56055000
33.47778320,-92.18739000
33.50830078,-92.33546000
33.53881836,-98.63236000
33.56933594,-96.99436000
33.59985352,-95.85303000
33.63037109,-103.17080000
33.66088867,-97.24319000
33.69140625,-93.26222000
33.72192383,-93.93143000
33.75244141,-98.07583000
33.78295898,-99.81109000
33.81347656,-98.74989000
33.84399414,-103.73630000
33.87451172,-112.11730000
33.90502930,-108.87070000
33.93554688,-113.69680000
33.96606445,-103.92680000
33.99658203,-101.37440000
34.02709961,-94.71512000
34.05761719,-90.46770000
34.08813477,-89.99717000
34.11865234,-94.38983000
34.14916992,-100.18430000
34.17968750,-93.19714000
34.21020508,-93.36710000
34.24072266,-101.77440000
34.27124023,-99.33720000
34.30175781,-92.87248000
34.33227539,-92.97273000
34.36279297,-97.87815000
34.39331055,-107.86950000
34.42382813,-101.10190000
34.45434570,-93.82333000
34.48486328,-91.28821000
34.51538086,-92.21699000
34.54589844,-95.20534000
34.57641602,-98.74902000
34.60693359,-102.99410000
34.63745117,-102.03240000
34.66796875,-105.36050000
34.69848633,-95.17719000
34.72900391,-90.84084000
34.75952148,-91.35087000
34.79003906,-97.44452000
34.82055664,-108.10630000
34.85107422,-97.69510000
34.88159180,-99.69418000
34.91210938,-100.12040000
34.94262695,-97.01817000
34.97314453,-100.74520000
35.00366211,-113.24760000
35.03417969,-98.76075000
35.06469727,-97.48582000
35.09521484,-98.50725000
35.12573242,-96.37554000
35.15625000,-96.85004000
35.18676758,-105.30880000
35.21728516,-98.37917000
35.24780273,-93.65263000
35.27832031,-94.12246000
35.30883789,-99.53716000
35.33935547,-97.10963000
35.36987305,-91.58548000
35.40039063,-90.07866000
35.43090820,-90.26512000
35.46142578,-90.87157000
35.49194336,-91.14628000
35.52246094,-90.91496000
35.55297852,-91.82939000
35.58349609,-92.08228000
35.61401367,-89.57030000
35.64453125,-88.62019000
35.67504883,-90.68068000
35.70556641,-97.57437000
35.73608398,-105.67380000
35.76660156,-95.88358000
35.79711914,-95.56698000
35.82763672,-98.47688000
35.85815430,-92.46814000
35.88867188,-88.79588000
35.91918945,-89.07082000
35.94970703,-94.45752000
35.98022461,-105.35510000
36.01074219,-91.77675000
36.04125977,-89.67136000
36.07177734,-91.93692000
36.10229492,-97.71733000
36.13281250,-99.45004000
36.16333008,-96.86767000
36.19384766,-95.27610000
36.22436523,-94.76437000
36.25488281,-92.63027000
36.28540039,-91.02058000
36.31591797,-92.90306000
36.34643555,-101.53300000
36.37695313,-104.38700000
36.40747070,-99.03622000
36.43798828,-101.60620000
36.46850586,-111.92660000
36.49902344,-103.69840000
36.52954102,-95.35185000
36.56005859,-91.86163000
36.59057617,-92.57088000
36.62109375,-99.25614000
36.65161133,-94.75131000
36.68212891,-90.71257000
36.71264648,-92.06984000
36.74316406,-96.79582000
36.77368164,-95.13694000
36.80419922,-94.18633000
36.83471680,-98.21434000
36.86523438,-101.66860000
36.89575195,-96.76098000
36.92626953,-94.14692000
36.95678711,-93.54321000
36.98730469,-95.97026000
37.01782227,-97.53389000
37.04833984,-94.92929000
37.07885742,-95.64827000
37.10937500,-100.47130000
37.13989258,-99.88116000
37.17041016,-97.11185000
37.20092773,-97.07700000
37.23144531,-95.24966000
37.26196289,-93.64119000
37.29248047,-95.04863000
37.32299805,-98.62372000
37.35351563,-96.73509000
37.38403320,-92.51656000
37.41455078,-91.02365000
37.44506836,-92.97607000
37.47558594,-99.24058000
37.50610352,-104.46270000
37.53662109,-105.51910000
37.56713867,-108.61510000
37.59765625,-99.24428000
37.62817383,-94.96892000
37.65869141,-92.99018000
37.68920898,-92.97601000
37.71972656,-95.44099000
37.75024414,-101.26010000
37.78076172,-111.64260000
37.81127930,-115.32060000
37.84179688,-113.87000000
37.87231445,-102.58280000
37.90283203,-101.47860000
37.93334961,-109.09250000
37.96386719,-99.07932000
37.99438477,-95.40412000
38.02490234,-97.09354000
38.05541992,-103.79760000
38.08593750,-102.06130000
38.11645508,-100.06780000
38.14697266,-101.68080000
38.17749023,-103.09690000
38.20800781,-104.21500000
38.23852539,-103.58660000
38.26904297,-107.98800000
38.29956055,-98.79448000
38.33007813,-94.02765000
38.36059570,-94.15222000
38.39111328,-96.47652000
38.42163086,-98.28175000
38.45214844,-100.68280000
38.48266602,-99.95586000
38.51318359,-99.36295000
38.54370117,-103.85650000
38.57421875,-101.95830000
38.60473633,-96.63677000
38.63525391,-93.94969000
38.66577148,-92.84279000
38.69628906,-93.43960000
38.72680664,-96.69119000
38.75732422,-107.72480000
38.78784180,-104.17400000
38.81835938,-100.32470000
38.84887695,-101.02510000
38.87939453,-99.12894000
38.90991211,-95.71225000
38.94042969,-94.11688000
38.97094727,-94.81961000
39.00146484,-98.30021000
39.03198242,-104.75650000
39.06250000,-98.37778000
39.09301758,-95.27851000
39.12353516,-96.22408000
39.15405273,-97.44831000
39.18457031,-97.27920000
39.21508789,-97.59077000
39.24560547,-99.78799000
39.27612305,-108.84440000
39.30664063,-95.54224000
39.33715820,-92.64061000
39.36767578,-94.06277000
39.39819336,-95.70795000
39.42871094,-94.94674000
39.45922852,-94.21749000
39.48974609,-92.53728000
39.52026367,-90.82664000
39.55078125,-90.37395000
39.58129883,-91.79101000
39.61181641,-95.05070000
39.64233398,-96.13758000
39.67285156,-94.37550000
39.70336914,-93.66220000
39.73388672,-94.76512000
39.76440430,-96.44872000
39.79492188,-96.81024000
39.82543945,-95.43979000
39.85595703,-92.60786000
39.88647461,-90.97771000
39.91699219,-90.03537000
39.94750977,-88.85115000
39.97802734,-88.37513000
40.00854492,-90.54710000
40.03906250,-98.45163000
40.06958008,-114.24390000
40.10009766,-115.86890000
40.13061523,-96.29501000
40.16113281,-90.82397000
40.19165039,-89.80991000
40.22216797,-90.34516000
40.25268555,-91.44905000
40.28320313,-91.14519000
40.31372070,-88.58758000
40.34423828,-88.07909000
40.37475586,-90.99597000
40.40527344,-99.36424000
40.43579102,-110.44560000
40.46630859,-100.85750000
40.49682617,-100.53460000
40.52734375,-104.41230000
40.55786133,-104.62300000
40.58837891,-100.97370000
40.61889648,-100.89150000
40.64941406,-103.98040000
40.67993164,-98.12247000
40.71044922,-91.69626000
40.74096680,-88.47466000
40.77148438,-87.94917000
40.80200195,-89.90470000
40.83251953,-92.36488000
40.86303711,-92.65909000
40.89355469,-92.49110000
40.92407227,-90.37826000
40.95458984,-88.55224000
40.98510742,-88.30461000
41.01562500,-89.23097000
41.04614258,-91.51378000
41.07666016,-96.81378000
41.10717773,-96.49464000
41.13769531,-91.36311000
41.16821289,-91.13097000
41.19873047,-94.98292000
41.22924805,-102.38050000
41.25976563,-105.02710000
41.29028320,-101.62520000
41.32080078,-98.16560000
41.35131836,-95.45979000
41.38183594,-93.37268000
41.41235352,-91.63293000
41.44287109,-90.57817000
41.47338867,-90.91414000
41.50390625,-92.65952000
41.53442383,-95.23484000
41.56494141,-100.60520000
41.59545898,-103.70100000
41.62597656,-98.10176000
41.65649414,-91.75797000
41.68701172,-87.20435000
41.71752930,-85.42672000
41.74804688,-85.70432000
41.77856445,-87.09266000
41.80908203,-88.45788000
41.83959961,-89.45591000
41.87011719,-91.01372000
41.90063477,-94.04992000
41.93115234,-99.49577000
41.96166992,-111.32160000
41.99218750,-100.93310000
42.02270508,-94.59242000
42.05322266,-91.00204000
42.08374023,-89.77457000
42.11425781,-91.70753000
42.14477539,-98.96916000
42.17529297,-104.32140000
42.20581055,-95.31921000
42.23632813,-90.14202000
42.26684570,-86.44521000
42.29736328,-84.69384000
42.32788086,-84.88264000
42.35839844,-87.25200000
42.38891602,-92.06128000
42.41943359,-93.54717000
42.44995117,-91.79240000
42.48046875,-92.01847000
42.51098633,-92.39214000
42.54150391,-90.42943000
42.57202148,-87.47318000
42.60253906,-86.34040000
42.63305664,-86.94749000
42.66357422,-87.29449000
42.69409180,-87.57310000
42.72460938,-89.77119000
42.75512695,-93.69548000
42.78564453,-93.85896000
42.81616211,-90.96287000
42.84667969,-88.08951000
42.87719727,-85.46559000
42.90771484,-84.19063000
42.93823242,-84.89447000
42.96875000,-87.40288000
42.99926758,-90.76218000
43.02978516,-93.92564000
43.06030273,-97.32906000
43.09082031,-100.82380000
43.12133789,-99.23529000
43.15185547,-94.25689000
43.18237305,-90.64070000
43.21289063,-89.24725000
43.24340820,-90.96152000
43.27392578,-97.95377000
43.30444336,-114.64710000
43.33496094,-103.34590000
43.36547852,-106.41080000
43.39599609,-101.60060000
43.42651367,-95.23929000
43.45703125,-90.97459000
43.48754883,-88.04622000
43.51806641,-87.26131000
43.54858398,-90.12669000
43.57910156,-103.26170000
43.60961914,-94.58430000
43.64013672,-90.24289000
43.67065430,-90.47997000
43.70117188,-92.61944000
43.73168945,-94.54826000
43.76220703,-94.02986000
43.79272461,-92.15195000
43.82324219,-92.27774000
43.85375977,-95.70717000
43.88427734,-96.41705000
43.91479492,-94.21396000
43.94531250,-96.78748000
43.97583008,-99.62515000
44.00634766,-93.68073000
44.03686523,-91.69198000
44.06738281,-93.55873000
44.09790039,-99.60384000
44.12841797,-98.09666000
44.15893555,-93.98338000
44.18945313,-94.10352000
44.21997070,-98.12726000
44.25048828,-100.55040000
44.28100586,-93.81000000
44.31152344,-89.20129000
44.34204102,-86.99931000
44.37255859,-87.29309000
44.40307617,-90.62783000
44.43359375,-98.93349000
44.46411133,-99.43202000
44.49462891,-94.52328000
44.52514648,-93.83151000
44.55566406,-95.33908000
44.58618164,-98.54096000
44.61669922,-99.62548000
44.64721680,-98.46463000
44.67773438,-98.98263000
44.70825195,-99.14232000
44.73876953,-98.15724000
44.76928711,-97.39252000
44.79980469,-95.62163000
44.83032227,-93.13053000
44.86083984,-91.08964000
44.89135742,-89.40410000
44.92187500,-88.62621000
44.95239258,-89.31825000
44.98291016,-90.10530000
45.01342773,-89.27937000
45.04394531,-88.74528000
45.07446289,-90.08907000
45.10498047,-93.80173000
45.13549805,-100.65890000
45.16601563,-110.84940000
45.19653320,-112.43240000
45.22705078,-116.69600000
45.25756836,-105.74250000
45.28808594,-101.19410000
45.31860352,-98.96994000
45.34912109,-98.95000000
45.37963867,-101.39120000
45.41015625,-105.13500000
45.44067383,-107.07170000
45.47119141,-110.73250000
45.50170898,-106.70960000
45.53222656,-100.09410000
45.56274414,-96.70299000
45.59326172,-94.71678000
45.62377930,-93.32108000
45.65429688,-93.38919000
45.68481445,-96.96391000
45.71533203,-103.45880000
45.74584961,-98.05582000
45.77636719,-96.91109000
45.80688477,-97.43129000
45.83740234,-100.27070000
45.86791992,-107.50290000
45.89843750,-96.01445000
45.92895508,-93.95245000
45.95947266,-96.49239000
45.98999023,-97.53709000
46.02050781,-94.09291000
46.05102539,-93.33415000
46.08154297,-95.64345000
46.11206055,-98.93250000
46.14257813,-96.06277000
46.17309570,-93.03600000
46.20361328,-92.65915000
46.23413086,-94.18410000
46.26464844,-95.24318000
46.29516602,-95.36431000
46.32568359,-96.02242000
46.35620117,-97.48328000
46.38671875,-98.86594000
46.41723633,-98.58571000
46.44775391,-99.60788000
46.47827148,-107.68840000
46.50878906,-104.43960000
46.53930664,-96.16512000
46.56982422,-93.99123000
46.60034180,-94.72098000
46.63085938,-96.47317000
46.66137695,-95.54036000
46.69189453,-93.02032000
46.72241211,-92.78289000
46.75292969,-96.70215000
46.78344727,-103.69800000
46.81396484,-99.65962000
46.84448242,-103.65190000
46.87500000,-105.71050000
46.90551758,-96.93381000
46.93603516,-95.53122000
46.96655273,-96.37344000
46.99707031,-97.31454000
47.02758789,-98.31769000
47.05810547,-100.53700000
47.08862305,-103.38810000
47.11914063,-103.39350000
47.14965820,-101.73880000
47.18017578,-98.89571000
47.21069336,-95.56389000
47.24121094,-94.22391000
47.27172852,-94.99988000
47.30224609,-96.97234000
47.33276367,-98.48441000
47.36328125,-98.13745000
47.39379883,-97.39570000
47.42431641,-98.64244000
47.45483398,-97.39129000
47.48535156,-93.27271000
47.51586914,-93.00758000
47.54638672,-96.14381000
47.57690430,-97.27439000
47.60742188,-96.90584000
47.63793945,-98.34396000
47.66845703,-100.98150000
47.69897461,-105.80890000
47.72949219,-108.30370000
47.76000977,-99.66806000
47.79052734,-94.59665000
47.82104492,-92.06549000
47.85156250,-91.93233000
47.88208008,-93.40309000
47.91259766,-95.86193000
47.94311523,-100.03970000
47.97363281,-94.74406000
48.00415039,-89.58684000
48.03466797,-87.75636000
48.06518555,-88.40469000
48.09570313,-90.80460000
48.12622070,-93.37917000
48.15673828,-96.02454000
48.18725586,-101.80370000
48.21777344,-109.70970000
48.24829102,-102.37500000
48.27880859,-99.80015000
48.30932617,-99.27347000
48.33984375,-100.65430000
48.37036133,-103.37030000
48.40087891,-101.25660000
48.43139648,-99.09219000
48.46191406,-99.62422000
48.49243164,-102.26970000
48.52294922,-110.39100000
48.55346680,-107.17310000
48.58398438,-98.01224000
48.61450195,-94.62624000
48.64501953,-93.09407000
48.67553711,-92.20180000
48.70605469,-91.84235000
48.73657227,-91.75735000
48.76708984,-91.10825000
48.79760742,-90.55068000
48.82812500,-90.66374000
48.85864258,-90.09416000
48.88916016,-88.71133000
48.91967773,-87.95735000
48.95019531,-88.26213000
48.98071289,-89.76752000
49.01123047,-93.22870000
49.04174805,-99.52087000
49.07226563,-97.87007000
49.10278320,-94.26690000
49.13330078,-94.13799000
49.16381836,-97.01183000
49.19433594,-104.41650000
49.22485352,-114.77150000
49.25537109,-104.41410000
49.28588867,-105.28730000
49.31640625,-107.07870000
49.34692383,-102.32940000
49.37744141,-97.08612000
49.40795898,-94.55809000
49.43847656,-94.20580000
49.46899414,-95.31096000
49.49951172,-97.19613000
49.53002930,-96.07308000
49.56054688,-93.06930000
49.59106445,-92.08611000
49.62158203,-93.55244000
49.65209961,-96.21463000
49.68261719,-95.39059000
49.71313477,-93.69523000
49.74365234,-93.03738000
49.77416992,-93.21918000
49.80468750,-95.00405000
49.83520508,-96.45119000
49.86572266,-93.30318000
49.89624023,-91.01064000
49.92675781,-92.07071000
49.95727539,-98.74290000
49.98779297,-103.05740000
50.01831055,-95.62366000
