Frequency,Channel A
(MHz),(dBu)

0.00000000,-26.57066000
0.03051758,-26.95755000
0.06103516,-32.19225000
0.09155273,-41.91647000
0.12207031,-58.64998000
0.15258789,-68.25201000
0.18310547,-64.12978000
0.21362305,-62.77009000
0.24414063,-66.58292000
0.27465820,-70.06977000
0.30517578,-68.83699000
0.33569336,-61.42886000
0.36621094,-55.50315000
0.39672852,-53.17578000
0.42724609,-54.04272000
0.45776367,-58.03782000
0.48828125,-63.24670000
0.51879883,-61.59880000
0.54931641,-58.03792000
0.57983398,-55.06523000
0.61035156,-53.27806000
0.64086914,-53.19014000
0.67138672,-54.00661000
0.70190430,-53.90768000
0.73242188,-53.43658000
0.76293945,-53.96430000
0.79345703,-55.88605000
0.82397461,-58.89446000
0.85449219,-61.31227000
0.88500977,-62.04436000
0.91552734,-61.83654000
0.94604492,-61.62453000
0.97656250,-63.16228000
1.00708008,-68.31982000
1.03759766,-78.14517000
1.06811523,-72.58984000
1.09863281,-73.07978000
1.12915039,-74.65981000
1.15966797,-70.47250000
1.19018555,-69.43505000
1.22070313,-72.52779000
1.25122070,-75.67119000
1.28173828,-68.67319000
1.31225586,-67.48031000
1.34277344,-72.68584000
1.37329102,-74.45190000
1.40380859,-68.02498000
1.43432617,-65.38713000
1.46484375,-63.45589000
1.49536133,-63.07713000
1.52587891,-65.37424000
1.55639648,-71.09694000
1.58691406,-72.78146000
1.61743164,-71.66460000
1.64794922,-72.26828000
1.67846680,-68.63307000
1.70898438,-67.56406000
1.73950195,-70.36424000
1.77001953,-78.91805000
1.80053711,-79.22855000
1.83105469,-70.37822000
1.86157227,-68.76144000
1.89208984,-72.33712000
1.92260742,-83.84590000
1.95312500,-72.90184000
1.98364258,-68.98233000
2.01416016,-67.78846000
2.04467773,-69.39726000
2.07519531,-77.39277000
2.10571289,-74.78051000
2.13623047,-70.40077000
2.16674805,-72.79832000
2.19726563,-80.59765000
2.22778320,-83.03963000
2.25830078,-88.96687000
2.28881836,-81.02840000
2.31933594,-74.55397000
2.34985352,-71.59179000
2.38037109,-71.54032000
2.41088867,-72.73689000
2.44140625,-72.20015000
2.47192383,-70.62859000
2.50244141,-70.23675000
2.53295898,-72.69180000
2.56347656,-79.75928000
2.59399414,-81.80864000
2.62451172,-75.03386000
2.65502930,-72.25583000
2.68554688,-73.05194000
2.71606445,-75.14905000
2.74658203,-75.43984000
2.77709961,-77.51416000
2.80761719,-77.97446000
2.83813477,-74.17648000
2.86865234,-72.19846000
2.89916992,-73.30917000
2.92968750,-79.78089000
2.96020508,-75.44587000
2.99072266,-69.94724000
3.02124023,-69.11235000
3.05175781,-72.48090000
3.08227539,-77.41951000
3.11279297,-70.23071000
3.14331055,-67.96726000
3.17382813,-68.76202000
3.20434570,-69.61968000
3.23486328,-70.43857000
3.26538086,-72.57372000
3.29589844,-75.73640000
3.32641602,-77.86244000
3.35693359,-74.89579000
3.38745117,-72.80542000
3.41796875,-73.37537000
3.44848633,-78.24710000
3.47900391,-76.02106000
3.50952148,-71.43949000
3.54003906,-71.26728000
3.57055664,-73.51360000
3.60107422,-76.35306000
3.63159180,-80.08103000
3.66210938,-75.44996000
3.69262695,-69.78673000
3.72314453,-69.04826000
3.75366211,-72.38948000
3.78417969,-73.26752000
3.81469727,-70.89760000
3.84521484,-70.49281000
3.87573242,-71.17134000
3.90625000,-72.53669000
3.93676758,-75.00397000
3.96728516,-74.88739000
3.99780273,-70.75198000
4.02832031,-69.62251000
4.05883789,-72.57093000
4.08935547,-78.44937000
4.11987305,-71.15482000
4.15039063,-68.86719000
4.18090820,-71.28356000
4.21142578,-72.98428000
4.24194336,-71.89414000
4.27246094,-76.52438000
4.30297852,-78.35587000
4.33349609,-71.93862000
4.36401367,-71.08875000
4.39453125,-72.85889000
4.42504883,-75.63247000
4.45556641,-74.58674000
4.48608398,-71.42130000
4.51660156,-70.65328000
4.54711914,-71.97162000
4.57763672,-72.60747000
4.60815430,-71.55421000
4.63867188,-71.43767000
4.66918945,-72.58307000
4.69970703,-73.12489000
4.73022461,-71.97854000
4.76074219,-71.48353000
4.79125977,-72.66908000
4.82177734,-72.71168000
4.85229492,-70.76413000
4.88281250,-70.18555000
4.91333008,-71.55611000
4.94384766,-73.99940000
4.97436523,-72.61074000
5.00488281,-69.41126000
5.03540039,-68.67284000
5.06591797,-71.45338000
5.09643555,-77.82975000
5.12695313,-72.56903000
5.15747070,-68.75021000
5.18798828,-68.38750000
5.21850586,-71.19063000
5.24902344,-75.02554000
5.27954102,-74.47398000
5.31005859,-75.81053000
5.34057617,-79.78332000
5.37109375,-81.12662000
5.40161133,-80.04623000
5.43212891,-79.78970000
5.46264648,-81.74641000
5.49316406,-87.13474000
5.52368164,-83.03710000
5.55419922,-77.02186000
5.58471680,-74.80819000
5.61523438,-75.68733000
5.64575195,-76.54565000
5.67626953,-71.77549000
5.70678711,-68.65250000
5.73730469,-68.26848000
5.76782227,-69.69435000
5.79833984,-70.21138000
5.82885742,-68.48545000
5.85937500,-67.30696000
5.88989258,-67.24911000
5.92041016,-67.77871000
5.95092773,-68.34155000
5.98144531,-68.13028000
6.01196289,-67.96508000
6.04248047,-68.90112000
6.07299805,-69.53175000
6.10351563,-68.46670000
6.13403320,-68.07147000
6.16455078,-69.67281000
6.19506836,-71.78972000
6.22558594,-70.36135000
6.25610352,-69.27171000
6.28662109,-71.95514000
6.31713867,-78.51160000
6.34765625,-72.35767000
6.37817383,-69.76001000
6.40869141,-71.03385000
6.43920898,-75.37273000
6.46972656,-79.79964000
6.50024414,-78.28437000
6.53076172,-77.36472000
6.56127930,-77.68341000
6.59179688,-77.99613000
6.62231445,-79.28883000
6.65283203,-85.00459000
6.68334961,-91.15512000
6.71386719,-79.78933000
6.74438477,-77.55054000
6.77490234,-79.87597000
6.80541992,-82.51196000
6.83593750,-78.09727000
6.86645508,-76.27835000
6.89697266,-77.21371000
6.92749023,-80.91171000
6.95800781,-89.87997000
6.98852539,-84.94386000
7.01904297,-80.68562000
7.04956055,-80.76756000
7.08007813,-82.74982000
7.11059570,-81.41301000
7.14111328,-78.78159000
7.17163086,-77.93986000
7.20214844,-78.64963000
7.23266602,-80.53159000
7.26318359,-83.93784000
7.29370117,-88.68619000
7.32421875,-90.58714000
7.35473633,-89.60671000
7.38525391,-88.93600000
7.41577148,-89.14954000
7.44628906,-86.13514000
7.47680664,-83.63725000
7.50732422,-83.41411000
7.53784180,-84.38570000
7.56835938,-84.71092000
7.59887695,-84.55112000
7.62939453,-85.49792000
7.65991211,-86.32727000
7.69042969,-83.77859000
7.72094727,-81.12672000
7.75146484,-80.96376000
7.78198242,-84.85096000
7.81250000,-103.51950000
7.84301758,-90.60416000
7.87353516,-89.94246000
7.90405273,-96.54308000
7.93457031,-99.39635000
7.96508789,-97.69258000
7.99560547,-93.29836000
8.02612305,-90.52528000
8.05664063,-89.06926000
8.08715820,-88.53390000
8.11767578,-88.88246000
8.14819336,-88.85189000
8.17871094,-86.53690000
8.20922852,-84.41238000
8.23974609,-84.15646000
8.27026367,-85.09183000
8.30078125,-86.96925000
8.33129883,-92.14491000
8.36181641,-92.76633000
8.39233398,-89.17832000
8.42285156,-91.95531000
8.45336914,-97.51939000
8.48388672,-89.57098000
8.51440430,-85.79548000
8.54492188,-84.86110000
8.57543945,-86.19010000
8.60595703,-89.65804000
8.63647461,-92.22223000
8.66699219,-89.94652000
8.69750977,-87.79749000
8.72802734,-86.44537000
8.75854492,-87.20700000
8.78906250,-89.74036000
8.81958008,-86.83181000
8.85009766,-83.93088000
8.88061523,-84.39957000
8.91113281,-88.31257000
8.94165039,-95.85880000
8.97216797,-104.11750000
9.00268555,-89.14207000
9.03320313,-85.51040000
9.06372070,-87.55784000
9.09423828,-94.59378000
9.12475586,-88.21532000
9.15527344,-86.16317000
9.18579102,-87.77748000
9.21630859,-91.46806000
9.24682617,-95.93064000
9.27734375,-88.97156000
9.30786133,-84.43180000
9.33837891,-83.69313000
9.36889648,-85.79063000
9.39941406,-89.05042000
9.42993164,-90.21350000
9.46044922,-88.58448000
9.49096680,-88.42956000
9.52148438,-89.45406000
9.55200195,-88.30880000
9.58251953,-88.95130000
9.61303711,-92.76357000
9.64355469,-100.45610000
9.67407227,-96.39423000
9.70458984,-96.31577000
9.73510742,-97.00262000
9.76562500,-86.34157000
9.79614258,-82.88492000
9.82666016,-82.90961000
9.85717773,-85.57296000
9.88769531,-85.06969000
9.91821289,-81.20223000
9.94873047,-80.35608000
9.97924805,-82.88995000
10.00976563,-89.52026000
10.04028320,-103.88910000
10.07080078,-99.26190000
10.10131836,-89.52882000
10.13183594,-87.45055000
10.16235352,-89.84464000
10.19287109,-87.02491000
10.22338867,-85.59827000
10.25390625,-88.84884000
10.28442383,-85.05805000
10.31494141,-81.01677000
10.34545898,-79.95438000
10.37597656,-80.17178000
10.40649414,-80.47718000
10.43701172,-79.85098000
10.46752930,-79.93504000
10.49804688,-82.55138000
10.52856445,-85.25316000
10.55908203,-87.62035000
10.58959961,-95.04086000
10.62011719,-87.12683000
10.65063477,-83.95607000
10.68115234,-84.85818000
10.71166992,-88.54224000
10.74218750,-89.58983000
10.77270508,-86.21194000
10.80322266,-84.31229000
10.83374023,-83.98709000
10.86425781,-85.73815000
10.89477539,-87.26945000
10.92529297,-82.93808000
10.95581055,-80.64291000
10.98632813,-80.89114000
11.01684570,-82.55363000
11.04736328,-84.28740000
11.07788086,-85.20772000
11.10839844,-85.21198000
11.13891602,-84.20989000
11.16943359,-85.43693000
11.19995117,-90.04500000
11.23046875,-84.35266000
11.26098633,-81.63280000
11.29150391,-82.72548000
11.32202148,-85.56230000
11.35253906,-87.36443000
11.38305664,-83.21252000
11.41357422,-78.12412000
11.44409180,-75.38284000
11.47460938,-74.40873000
11.50512695,-74.81846000
11.53564453,-76.78577000
11.56616211,-79.83095000
11.59667969,-81.17939000
11.62719727,-79.40390000
11.65771484,-77.95419000
11.68823242,-79.31699000
11.71875000,-83.82646000
11.74926758,-84.35065000
11.77978516,-81.55577000
11.81030273,-79.82040000
11.84082031,-78.87177000
11.87133789,-77.93532000
11.90185547,-76.75216000
11.93237305,-77.25769000
11.96289063,-82.36516000
11.99340820,-94.78768000
12.02392578,-81.10007000
12.05444336,-81.11794000
12.08496094,-90.26538000
12.11547852,-85.63335000
12.14599609,-82.24891000
12.17651367,-84.47792000
12.20703125,-91.08506000
12.23754883,-95.72316000
12.26806641,-90.38817000
12.29858398,-89.25734000
12.32910156,-90.83236000
12.35961914,-92.07915000
12.39013672,-91.26031000
12.42065430,-93.78728000
12.45117188,-87.93922000
12.48168945,-82.88783000
12.51220703,-80.13277000
12.54272461,-78.04292000
12.57324219,-78.15196000
12.60375977,-82.02983000
12.63427734,-86.75767000
12.66479492,-82.32140000
12.69531250,-80.58441000
12.72583008,-80.94056000
12.75634766,-82.37169000
12.78686523,-82.93582000
12.81738281,-81.23143000
12.84790039,-79.83141000
12.87841797,-80.08224000
12.90893555,-82.15901000
12.93945313,-86.14433000
12.96997070,-86.04060000
13.00048828,-80.38554000
13.03100586,-76.83633000
13.06152344,-75.72202000
13.09204102,-77.34795000
13.12255859,-82.80734000
13.15307617,-100.01860000
13.18359375,-89.22744000
13.21411133,-84.18648000
13.24462891,-81.00708000
13.27514648,-79.40755000
13.30566406,-78.86277000
13.33618164,-78.59414000
13.36669922,-79.18214000
13.39721680,-81.13030000
13.42773438,-82.77974000
13.45825195,-78.19712000
13.48876953,-70.73521000
13.51928711,-65.72746000
13.54980469,-63.56922000
13.58032227,-64.04990000
13.61083984,-67.10590000
13.64135742,-72.20182000
13.67187500,-72.16526000
13.70239258,-69.84125000
13.73291016,-70.36819000
13.76342773,-73.87542000
13.79394531,-81.57246000
13.82446289,-102.76870000
13.85498047,-84.53683000
13.88549805,-82.00232000
13.91601563,-84.19411000
13.94653320,-86.30928000
13.97705078,-81.77135000
14.00756836,-80.92136000
14.03808594,-85.06712000
14.06860352,-92.07764000
14.09912109,-84.25935000
14.12963867,-83.35987000
14.16015625,-89.31145000
14.19067383,-93.00576000
14.22119141,-85.47723000
14.25170898,-86.44822000
14.28222656,-87.94977000
14.31274414,-82.85210000
14.34326172,-80.99816000
14.37377930,-81.09992000
14.40429688,-82.05473000
14.43481445,-85.32402000
14.46533203,-92.68365000
14.49584961,-96.71540000
14.52636719,-90.42685000
14.55688477,-89.77612000
14.58740234,-89.73964000
14.61791992,-82.35429000
14.64843750,-79.02879000
14.67895508,-78.19061000
14.70947266,-77.92813000
14.73999023,-77.34293000
14.77050781,-76.79623000
14.80102539,-77.23093000
14.83154297,-79.48025000
14.86206055,-81.95697000
14.89257813,-79.42731000
14.92309570,-76.11150000
14.95361328,-74.53559000
14.98413086,-74.84575000
15.01464844,-76.96155000
15.04516602,-79.56535000
15.07568359,-79.62419000
15.10620117,-78.46651000
15.13671875,-78.29163000
15.16723633,-79.07730000
15.19775391,-78.29040000
15.22827148,-76.02303000
15.25878906,-74.85579000
15.28930664,-75.58935000
15.31982422,-78.12353000
15.35034180,-80.36430000
15.38085938,-80.20456000
15.41137695,-79.58604000
15.44189453,-79.89265000
15.47241211,-80.56009000
15.50292969,-79.50769000
15.53344727,-78.39101000
15.56396484,-78.17875000
15.59448242,-80.20937000
15.62500000,-86.57044000
15.65551758,-81.86087000
15.68603516,-78.58633000
15.71655273,-79.01952000
15.74707031,-80.15628000
15.77758789,-78.85193000
15.80810547,-77.22417000
15.83862305,-77.21523000
15.86914063,-78.69434000
15.89965820,-80.61534000
15.93017578,-81.18694000
15.96069336,-80.03680000
15.99121094,-79.34039000
16.02172852,-79.91936000
16.05224609,-80.77984000
16.08276367,-80.93697000
16.11328125,-81.10457000
16.14379883,-82.44393000
16.17431641,-86.31085000
16.20483398,-94.99841000
16.23535156,-92.19611000
16.26586914,-89.96684000
16.29638672,-92.54732000
16.32690430,-93.12774000
16.35742188,-89.32251000
16.38793945,-84.46288000
16.41845703,-81.38009000
16.44897461,-81.08220000
16.47949219,-83.98134000
16.51000977,-90.61169000
16.54052734,-89.59921000
16.57104492,-88.04018000
16.60156250,-91.83979000
16.63208008,-96.14752000
16.66259766,-88.34753000
16.69311523,-83.95753000
16.72363281,-82.91592000
16.75415039,-84.51845000
16.78466797,-86.92830000
16.81518555,-87.05373000
16.84570313,-85.99587000
16.87622070,-86.47307000
16.90673828,-90.22549000
16.93725586,-93.77177000
16.96777344,-88.24547000
16.99829102,-85.30911000
17.02880859,-84.39552000
17.05932617,-84.51466000
17.08984375,-84.57016000
17.12036133,-84.80514000
17.15087891,-86.17343000
17.18139648,-88.09021000
17.21191406,-91.15806000
17.24243164,-91.49566000
17.27294922,-86.71855000
17.30346680,-85.91205000
17.33398438,-88.48558000
17.36450195,-90.35526000
17.39501953,-89.31886000
17.42553711,-89.38781000
17.45605469,-90.62460000
17.48657227,-93.48327000
17.51708984,-98.86894000
17.54760742,-90.68428000
17.57812500,-87.89159000
17.60864258,-89.47481000
17.63916016,-92.29160000
17.66967773,-88.46597000
17.70019531,-82.11755000
17.73071289,-77.63107000
17.76123047,-74.68011000
17.79174805,-73.21349000
17.82226563,-73.58176000
17.85278320,-76.13815000
17.88330078,-81.26160000
17.91381836,-90.35843000
17.94433594,-96.53580000
17.97485352,-88.63407000
18.00537109,-86.36694000
18.03588867,-87.50800000
18.06640625,-91.80602000
18.09692383,-98.36758000
18.12744141,-102.68950000
18.15795898,-98.55344000
18.18847656,-96.52715000
18.21899414,-98.48522000
18.24951172,-107.42290000
18.28002930,-103.14280000
18.31054688,-94.83250000
18.34106445,-92.87367000
18.37158203,-95.80567000
18.40209961,-113.19380000
18.43261719,-99.09927000
18.46313477,-96.10958000
18.49365234,-97.70781000
18.52416992,-102.38230000
18.55468750,-111.41930000
18.58520508,-99.29237000
18.61572266,-96.29285000
18.64624023,-96.63263000
18.67675781,-96.33785000
18.70727539,-95.96083000
18.73779297,-99.53884000
18.76831055,-100.91720000
18.79882813,-96.07838000
18.82934570,-95.08980000
18.85986328,-93.96534000
18.89038086,-92.78228000
18.92089844,-93.82439000
18.95141602,-97.45146000
18.98193359,-97.95729000
19.01245117,-95.75757000
19.04296875,-96.97905000
19.07348633,-101.04030000
19.10400391,-103.88890000
19.13452148,-104.64640000
19.16503906,-105.21560000
19.19555664,-99.51814000
19.22607422,-97.82920000
19.25659180,-102.73070000
19.28710938,-102.69110000
19.31762695,-96.00053000
19.34814453,-94.92939000
19.37866211,-96.14134000
19.40917969,-98.10417000
19.43969727,-102.59090000
19.47021484,-110.96210000
19.50073242,-107.48720000
19.53125000,-112.81510000
19.56176758,-104.18040000
19.59228516,-97.86156000
19.62280273,-94.74499000
19.65332031,-93.57281000
19.68383789,-94.29630000
19.71435547,-93.98767000
19.74487305,-93.27611000
19.77539063,-95.37863000
19.80590820,-92.33662000
19.83642578,-88.30746000
19.86694336,-87.80420000
19.89746094,-89.59943000
19.92797852,-91.38963000
19.95849609,-91.08184000
19.98901367,-91.10968000
20.01953125,-94.19547000
20.05004883,-95.25669000
20.08056641,-92.39860000
20.11108398,-91.77599000
20.14160156,-91.48148000
20.17211914,-91.75121000
20.20263672,-93.22478000
20.23315430,-94.57130000
20.26367188,-95.49827000
20.29418945,-96.15700000
20.32470703,-97.95290000
20.35522461,-106.40640000
20.38574219,-100.91890000
20.41625977,-95.92291000
20.44677734,-94.35513000
20.47729492,-92.21432000
20.50781250,-91.41145000
20.53833008,-93.93012000
20.56884766,-97.88121000
20.59936523,-95.56389000
20.62988281,-93.26947000
20.66040039,-91.56643000
20.69091797,-90.83122000
20.72143555,-91.54800000
20.75195313,-93.79508000
20.78247070,-96.22716000
20.81298828,-95.41707000
20.84350586,-95.97429000
20.87402344,-97.06389000
20.90454102,-93.42317000
20.93505859,-90.32010000
20.96557617,-88.70799000
20.99609375,-88.85139000
21.02661133,-90.79312000
21.05712891,-94.24893000
21.08764648,-99.56196000
21.11816406,-107.72080000
21.14868164,-111.73750000
21.17919922,-105.40530000
21.20971680,-100.26790000
21.24023438,-96.76163000
21.27075195,-95.81467000
21.30126953,-100.31260000
21.33178711,-108.98410000
21.36230469,-97.28255000
21.39282227,-96.18118000
21.42333984,-95.42077000
21.45385742,-92.90565000
21.48437500,-93.50340000
21.51489258,-101.87250000
21.54541016,-98.96796000
21.57592773,-92.23766000
21.60644531,-92.21996000
21.63696289,-96.86873000
21.66748047,-107.24840000
21.69799805,-117.97460000
21.72851563,-101.76340000
21.75903320,-94.34184000
21.78955078,-90.63217000
21.82006836,-89.22401000
21.85058594,-89.97630000
21.88110352,-92.54712000
21.91162109,-95.08422000
21.94213867,-94.52899000
21.97265625,-91.35905000
22.00317383,-88.65734000
22.03369141,-88.43384000
22.06420898,-92.07274000
22.09472656,-100.79090000
22.12524414,-101.39520000
22.15576172,-99.48470000
22.18627930,-94.84995000
22.21679688,-95.69985000
22.24731445,-104.14140000
22.27783203,-96.30350000
22.30834961,-93.02312000
22.33886719,-91.85952000
22.36938477,-92.01962000
22.39990234,-96.13260000
22.43041992,-97.02246000
22.46093750,-92.29248000
22.49145508,-91.68318000
22.52197266,-92.15041000
22.55249023,-91.87500000
22.58300781,-91.55982000
22.61352539,-91.32561000
22.64404297,-92.10950000
22.67456055,-94.93785000
22.70507813,-101.14070000
22.73559570,-104.20730000
22.76611328,-97.08329000
22.79663086,-94.02074000
22.82714844,-92.84565000
22.85766602,-92.09511000
22.88818359,-91.22021000
22.91870117,-90.96976000
22.94921875,-91.69885000
22.97973633,-92.60896000
23.01025391,-92.73386000
23.04077148,-91.67465000
23.07128906,-90.56461000
23.10180664,-90.74334000
23.13232422,-92.17824000
23.16284180,-93.91076000
23.19335938,-96.83275000
23.22387695,-102.35400000
23.25439453,-103.33810000
23.28491211,-102.39810000
23.31542969,-105.98260000
23.34594727,-106.11870000
23.37646484,-102.14490000
23.40698242,-103.97400000
23.43750000,-111.24550000
23.46801758,-105.20370000
23.49853516,-104.12190000
23.52905273,-102.78350000
23.55957031,-95.14252000
23.59008789,-91.22549000
23.62060547,-90.77613000
23.65112305,-93.09697000
23.68164063,-95.14592000
23.71215820,-93.63865000
23.74267578,-91.84895000
23.77319336,-91.09287000
23.80371094,-91.69640000
23.83422852,-93.21719000
23.86474609,-94.82152000
23.89526367,-96.40358000
23.92578125,-99.38339000
23.95629883,-101.86580000
23.98681641,-97.90372000
24.01733398,-95.59772000
24.04785156,-94.65697000
24.07836914,-93.96207000
24.10888672,-94.74895000
24.13940430,-97.98494000
24.16992188,-101.94740000
24.20043945,-99.87469000
24.23095703,-96.39725000
24.26147461,-96.13725000
24.29199219,-97.12015000
24.32250977,-94.76634000
24.35302734,-93.66998000
24.38354492,-94.37453000
24.41406250,-95.01842000
24.44458008,-96.08057000
24.47509766,-96.17049000
24.50561523,-95.79273000
24.53613281,-99.22775000
24.56665039,-105.97580000
24.59716797,-101.79690000
24.62768555,-101.76070000
24.65820313,-96.20858000
24.68872070,-92.12483000
24.71923828,-90.89571000
24.74975586,-92.29221000
24.78027344,-97.87631000
24.81079102,-124.52450000
24.84130859,-103.02620000
24.87182617,-101.48460000
24.90234375,-104.26390000
24.93286133,-112.44350000
24.96337891,-105.15640000
24.99389648,-103.38890000
25.02441406,-106.85200000
25.05493164,-105.84960000
25.08544922,-102.61510000
25.11596680,-100.47940000
25.14648438,-97.29060000
25.17700195,-94.48680000
25.20751953,-92.86020000
25.23803711,-92.75727000
25.26855469,-94.87064000
25.29907227,-100.91830000
25.32958984,-116.18400000
25.36010742,-101.54730000
25.39062500,-97.33113000
25.42114258,-94.52080000
25.45166016,-92.37548000
25.48217773,-91.57840000
25.51269531,-92.33498000
25.54321289,-94.57314000
25.57373047,-97.71439000
25.60424805,-97.89624000
25.63476563,-98.06404000
25.66528320,-99.06033000
25.69580078,-92.14474000
25.72631836,-89.19626000
25.75683594,-90.82043000
25.78735352,-98.54921000
25.81787109,-94.96159000
25.84838867,-89.15833000
25.87890625,-86.89632000
25.90942383,-86.88450000
25.93994141,-89.35008000
25.97045898,-95.18472000
26.00097656,-100.87620000
26.03149414,-100.22760000
26.06201172,-101.57940000
26.09252930,-98.21043000
26.12304688,-99.72641000
26.15356445,-105.00680000
26.18408203,-96.30020000
26.21459961,-94.45621000
26.24511719,-96.54497000
26.27563477,-100.31290000
26.30615234,-101.52980000
26.33666992,-99.82830000
26.36718750,-99.13576000
26.39770508,-99.32547000
26.42822266,-99.18558000
26.45874023,-98.28391000
26.48925781,-95.39426000
26.51977539,-94.54812000
26.55029297,-96.77887000
26.58081055,-96.75870000
26.61132813,-95.65827000
26.64184570,-96.91110000
26.67236328,-94.51378000
26.70288086,-92.56026000
26.73339844,-94.45382000
26.76391602,-100.75110000
26.79443359,-98.27582000
26.82495117,-94.67947000
26.85546875,-95.01293000
26.88598633,-97.52016000
26.91650391,-95.25913000
26.94702148,-92.50759000
26.97753906,-92.57796000
27.00805664,-94.66798000
27.03857422,-96.77795000
27.06909180,-96.48209000
27.09960938,-96.07054000
27.13012695,-96.67622000
27.16064453,-97.86803000
27.19116211,-101.67550000
27.22167969,-106.51230000
27.25219727,-99.00775000
27.28271484,-96.07256000
27.31323242,-94.20848000
27.34375000,-92.53351000
27.37426758,-92.59779000
27.40478516,-94.47002000
27.43530273,-96.67239000
27.46582031,-98.39400000
27.49633789,-98.15376000
27.52685547,-95.83154000
27.55737305,-94.49993000
27.58789063,-94.44160000
27.61840820,-93.83669000
27.64892578,-91.90499000
27.67944336,-91.31927000
27.70996094,-93.42729000
27.74047852,-97.49683000
27.77099609,-98.63082000
27.80151367,-95.69614000
27.83203125,-93.77264000
27.86254883,-94.48284000
27.89306641,-96.29628000
27.92358398,-96.05549000
27.95410156,-94.48398000
27.98461914,-94.51299000
28.01513672,-98.49674000
28.04565430,-108.92480000
28.07617188,-100.55570000
28.10668945,-95.26795000
28.13720703,-93.06374000
28.16772461,-92.68742000
28.19824219,-92.48206000
28.22875977,-92.57110000
28.25927734,-94.40423000
28.28979492,-97.29414000
28.32031250,-96.40469000
28.35083008,-94.01550000
28.38134766,-93.02651000
28.41186523,-94.31509000
28.44238281,-97.92861000
28.47290039,-98.45894000
28.50341797,-94.81583000
28.53393555,-92.45981000
28.56445313,-91.48549000
28.59497070,-91.17356000
28.62548828,-90.96249000
28.65600586,-90.72373000
28.68652344,-90.38558000
28.71704102,-90.31002000
28.74755859,-91.97758000
28.77807617,-94.60645000
28.80859375,-91.41792000
28.83911133,-88.89285000
28.86962891,-88.94441000
28.90014648,-90.38514000
28.93066406,-91.81439000
28.96118164,-92.94892000
28.99169922,-94.76875000
29.02221680,-97.25124000
29.05273438,-97.43180000
29.08325195,-95.82104000
29.11376953,-94.01128000
29.14428711,-92.14262000
29.17480469,-91.03316000
29.20532227,-91.46898000
29.23583984,-93.45050000
29.26635742,-95.41025000
29.29687500,-94.72024000
29.32739258,-92.15183000
29.35791016,-90.25394000
29.38842773,-89.97445000
29.41894531,-91.19103000
29.44946289,-93.15543000
29.47998047,-94.88829000
29.51049805,-96.24091000
29.54101563,-97.59979000
29.57153320,-97.96629000
29.60205078,-96.29795000
29.63256836,-94.26765000
29.66308594,-93.42421000
29.69360352,-93.82259000
29.72412109,-94.78011000
29.75463867,-95.59441000
29.78515625,-96.42307000
29.81567383,-96.86127000
29.84619141,-96.58680000
29.87670898,-97.94503000
29.90722656,-102.41240000
29.93774414,-103.52270000
29.96826172,-99.33089000
29.99877930,-96.04597000
30.02929688,-93.37639000
30.05981445,-91.92651000
30.09033203,-92.41246000
30.12084961,-95.23676000
30.15136719,-100.13390000
30.18188477,-103.09340000
30.21240234,-101.68030000
30.24291992,-99.88945000
30.27343750,-98.57483000
30.30395508,-98.05058000
30.33447266,-98.54002000
30.36499023,-99.05029000
30.39550781,-94.77584000
30.42602539,-90.78326000
30.45654297,-89.60104000
30.48706055,-90.79266000
30.51757813,-93.09563000
30.54809570,-94.28634000
30.57861328,-94.05571000
30.60913086,-93.72608000
30.63964844,-94.58401000
30.67016602,-96.49013000
30.70068359,-96.84353000
30.73120117,-97.16208000
30.76171875,-100.81160000
30.79223633,-112.08260000
30.82275391,-104.79380000
30.85327148,-95.71128000
30.88378906,-91.78028000
30.91430664,-90.64575000
30.94482422,-91.52032000
30.97534180,-93.67876000
31.00585938,-95.27286000
31.03637695,-95.86281000
31.06689453,-97.03329000
31.09741211,-99.14359000
31.12792969,-104.10850000
31.15844727,-111.24830000
31.18896484,-97.71667000
31.21948242,-92.69702000
31.25000000,-90.58215000
31.28051758,-90.20555000
31.31103516,-90.89410000
31.34155273,-91.76895000
31.37207031,-92.00229000
31.40258789,-91.71436000
31.43310547,-91.24675000
31.46362305,-90.94743000
31.49414063,-91.40792000
31.52465820,-92.97290000
31.55517578,-92.72794000
31.58569336,-89.95705000
31.61621094,-88.40285000
31.64672852,-87.82856000
31.67724609,-87.56387000
31.70776367,-88.21649000
31.73828125,-89.37282000
31.76879883,-88.74606000
31.79931641,-87.27415000
31.82983398,-86.35606000
31.86035156,-85.87646000
31.89086914,-85.71132000
31.92138672,-85.95283000
31.95190430,-86.98243000
31.98242188,-89.41339000
32.01293945,-93.99537000
32.04345703,-102.70400000
32.07397461,-106.59840000
32.10449219,-96.74351000
32.13500977,-92.00908000
32.16552734,-89.64761000
32.19604492,-88.56553000
32.22656250,-87.73744000
32.25708008,-87.61872000
32.28759766,-88.51528000
32.31811523,-89.44563000
32.34863281,-90.56446000
32.37915039,-92.50820000
32.40966797,-93.98734000
32.44018555,-94.95254000
32.47070313,-99.01875000
32.50122070,-120.36190000
32.53173828,-98.13041000
32.56225586,-95.50292000
32.59277344,-96.48260000
32.62329102,-97.76573000
32.65380859,-99.81352000
32.68432617,-99.30080000
32.71484375,-95.82301000
32.74536133,-95.68230000
32.77587891,-96.96342000
32.80639648,-95.20294000
32.83691406,-93.83904000
32.86743164,-94.10651000
32.89794922,-94.86350000
32.92846680,-95.44868000
32.95898438,-96.94701000
32.98950195,-102.46360000
33.02001953,-105.85670000
33.05053711,-96.33228000
33.08105469,-92.77284000
33.11157227,-91.36521000
33.14208984,-90.94476000
33.17260742,-91.33500000
33.20312500,-92.88097000
33.23364258,-95.41170000
33.26416016,-97.77240000
33.29467773,-100.55070000
33.32519531,-107.49080000
33.35571289,-108.26050000
33.38623047,-97.85885000
33.41674805,-93.00770000
33.44726563,-90.50076000
33.47778320,-89.56448000
33.50830078,-90.42537000
33.53881836,-92.04743000
33.56933594,-90.46046000
33.59985352,-88.61553000
33.63037109,-88.52359000
33.66088867,-89.51674000
33.69140625,-90.43539000
33.72192383,-89.84801000
33.75244141,-87.94644000
33.78295898,-86.53980000
33.81347656,-86.51419000
33.84399414,-88.11255000
33.87451172,-91.60492000
33.90502930,-97.47460000
33.93554688,-103.50740000
33.96606445,-99.81891000
33.99658203,-93.71405000
34.02709961,-90.28203000
34.05761719,-89.36486000
34.08813477,-90.19146000
34.11865234,-91.28529000
34.14916992,-90.93541000
34.17968750,-89.77141000
34.21020508,-89.28047000
34.24072266,-89.54028000
34.27124023,-89.26834000
34.30175781,-88.08852000
34.33227539,-87.07317000
34.36279297,-86.77113000
34.39331055,-87.28103000
34.42382813,-88.48120000
34.45434570,-89.77296000
34.48486328,-90.28408000
34.51538086,-90.08233000
34.54589844,-89.74903000
34.57641602,-89.38846000
34.60693359,-89.18320000
34.63745117,-89.23695000
34.66796875,-89.25266000
34.69848633,-89.15807000
34.72900391,-89.32210000
34.75952148,-89.86436000
34.79003906,-90.13367000
34.82055664,-89.83929000
34.85107422,-89.94382000
34.88159180,-91.14806000
34.91210938,-92.91508000
34.94262695,-92.30576000
34.97314453,-89.96017000
35.00366211,-88.87932000
35.03417969,-89.09598000
35.06469727,-89.21857000
35.09521484,-88.21240000
35.12573242,-87.01280000
35.15625000,-86.87146000
35.18676758,-88.26595000
35.21728516,-91.03265000
35.24780273,-94.26627000
35.27832031,-97.04393000
35.30883789,-97.81956000
35.33935547,-95.56046000
35.36987305,-93.63168000
35.40039063,-92.70354000
35.43090820,-92.23807000
35.46142578,-91.98559000
35.49194336,-91.15139000
35.52246094,-89.65491000
35.55297852,-89.11087000
35.58349609,-89.71004000
35.61401367,-90.13812000
35.64453125,-90.34104000
35.67504883,-91.48635000
35.70556641,-94.15269000
35.73608398,-98.52920000
35.76660156,-99.82761000
35.79711914,-97.59296000
35.82763672,-97.87185000
35.85815430,-99.21477000
35.88867188,-98.75916000
35.91918945,-96.17859000
35.94970703,-93.86388000
35.98022461,-93.22806000
36.01074219,-94.37199000
36.04125977,-98.03508000
36.07177734,-107.23360000
36.10229492,-105.67540000
36.13281250,-100.27570000
36.16333008,-96.92878000
36.19384766,-94.78432000
36.22436523,-93.51395000
36.25488281,-93.08929000
36.28540039,-94.62575000
36.31591797,-98.19154000
36.34643555,-102.11060000
36.37695313,-100.58850000
36.40747070,-95.73273000
36.43798828,-93.76663000
36.46850586,-94.25497000
36.49902344,-95.18475000
36.52954102,-94.20805000
36.56005859,-92.78439000
36.59057617,-92.57989000
36.62109375,-94.78282000
36.65161133,-100.18240000
36.68212891,-102.56810000
36.71264648,-100.25120000
36.74316406,-97.79845000
36.77368164,-97.37856000
36.80419922,-96.02483000
36.83471680,-93.07413000
36.86523438,-92.81707000
36.89575195,-95.97252000
36.92626953,-102.23200000
36.95678711,-104.66520000
36.98730469,-101.61900000
37.01782227,-100.20820000
37.04833984,-101.72310000
37.07885742,-97.83588000
37.10937500,-93.34787000
37.13989258,-91.50462000
37.17041016,-90.87914000
37.20092773,-90.93750000
37.23144531,-91.59920000
37.26196289,-92.79079000
37.29248047,-94.31107000
37.32299805,-95.93945000
37.35351563,-98.23138000
37.38403320,-98.66426000
37.41455078,-97.56209000
37.44506836,-97.78182000
37.47558594,-96.73651000
37.50610352,-96.02527000
37.53662109,-96.08077000
37.56713867,-94.95113000
37.59765625,-94.47005000
37.62817383,-95.28136000
37.65869141,-96.31024000
37.68920898,-93.31877000
37.71972656,-89.70071000
37.75024414,-88.90446000
37.78076172,-90.90759000
37.81127930,-95.07541000
37.84179688,-98.98303000
37.87231445,-99.69267000
37.90283203,-100.11990000
37.93334961,-102.69490000
37.96386719,-108.81620000
37.99438477,-101.44130000
38.02490234,-95.62020000
38.05541992,-93.51997000
38.08593750,-93.68664000
38.11645508,-94.07103000
38.14697266,-92.35529000
38.17749023,-90.36819000
38.20800781,-90.23804000
38.23852539,-92.59383000
38.26904297,-97.42275000
38.29956055,-97.90015000
38.33007813,-94.85149000
38.36059570,-93.56690000
38.39111328,-91.72046000
38.42163086,-90.07775000
38.45214844,-90.24977000
38.48266602,-92.61557000
38.51318359,-96.63889000
38.54370117,-99.45636000
38.57421875,-97.98608000
38.60473633,-93.23601000
38.63525391,-89.70850000
38.66577148,-88.45077000
38.69628906,-89.59087000
38.72680664,-93.94375000
38.75732422,-108.09170000
38.78784180,-102.19330000
38.81835938,-101.55150000
38.84887695,-118.05680000
38.87939453,-107.87770000
38.90991211,-102.14250000
38.94042969,-93.33526000
38.97094727,-90.97405000
39.00146484,-92.85557000
39.03198242,-96.45395000
39.06250000,-97.86124000
39.09301758,-101.22240000
39.12353516,-101.36550000
39.15405273,-96.20992000
39.18457031,-93.92082000
39.21508789,-94.20560000
39.24560547,-96.86745000
39.27612305,-102.07310000
39.30664063,-107.41470000
39.33715820,-98.88508000
39.36767578,-94.03186000
39.39819336,-92.17291000
39.42871094,-92.41693000
39.45922852,-93.93689000
39.48974609,-95.96196000
39.52026367,-98.98087000
39.55078125,-106.10240000
39.58129883,-104.80420000
39.61181641,-97.80029000
39.64233398,-96.53734000
39.67285156,-97.65873000
39.70336914,-97.66911000
39.73388672,-97.05222000
39.76440430,-97.59895000
39.79492188,-98.32254000
39.82543945,-96.18896000
39.85595703,-97.16533000
39.88647461,-116.68290000
39.91699219,-95.30586000
39.94750977,-91.52782000
39.97802734,-91.72713000
40.00854492,-92.50055000
40.03906250,-93.22308000
40.06958008,-94.30210000
40.10009766,-94.90414000
40.13061523,-95.05141000
40.16113281,-94.94496000
40.19165039,-93.61891000
40.22216797,-92.71021000
40.25268555,-94.07735000
40.28320313,-96.31126000
40.31372070,-98.03816000
40.34423828,-100.40210000
40.37475586,-96.32010000
40.40527344,-91.49600000
40.43579102,-88.23533000
40.46630859,-86.29298000
40.49682617,-85.74063000
40.52734375,-86.99722000
40.55786133,-89.98940000
40.58837891,-91.92931000
40.61889648,-89.35382000
40.64941406,-86.17085000
40.67993164,-84.61498000
40.71044922,-84.68027000
40.74096680,-85.41061000
40.77148438,-85.80681000
40.80200195,-85.94481000
40.83251953,-86.39947000
40.86303711,-88.20264000
40.89355469,-92.26257000
40.92407227,-96.81335000
40.95458984,-98.51036000
40.98510742,-99.48907000
41.01562500,-99.58283000
41.04614258,-96.08989000
41.07666016,-94.15111000
41.10717773,-96.94939000
41.13769531,-94.89673000
41.16821289,-90.05708000
41.19873047,-88.75717000
41.22924805,-90.00868000
41.25976563,-93.66209000
41.29028320,-97.72995000
41.32080078,-93.64246000
41.35131836,-90.76241000
41.38183594,-90.78165000
41.41235352,-92.51812000
41.44287109,-94.20644000
41.47338867,-93.30251000
41.50390625,-90.69823000
41.53442383,-89.37188000
41.56494141,-90.31437000
41.59545898,-93.75208000
41.62597656,-99.88821000
41.65649414,-102.53790000
41.68701172,-97.07068000
41.71752930,-93.63745000
41.74804688,-93.71219000
41.77856445,-95.10947000
41.80908203,-91.69569000
41.83959961,-89.47712000
41.87011719,-88.72525000
41.90063477,-89.51588000
41.93115234,-94.23875000
41.96166992,-95.96112000
41.99218750,-93.17844000
42.02270508,-94.54115000
42.05322266,-94.83714000
42.08374023,-94.82790000
42.11425781,-99.11009000
42.14477539,-109.81800000
42.17529297,-105.65340000
42.20581055,-97.05879000
42.23632813,-90.05768000
42.26684570,-87.22243000
42.29736328,-87.23013000
42.32788086,-88.51305000
42.35839844,-90.30856000
42.38891602,-91.05732000
42.41943359,-88.99339000
42.44995117,-88.49044000
42.48046875,-90.39718000
42.51098633,-91.13755000
42.54150391,-89.74854000
42.57202148,-88.91861000
42.60253906,-87.95763000
42.63305664,-88.88408000
42.66357422,-96.08093000
42.69409180,-91.89129000
42.72460938,-86.68209000
42.75512695,-87.39137000
42.78564453,-94.59171000
42.81616211,-101.68820000
42.84667969,-93.94897000
42.87719727,-94.75037000
42.90771484,-96.32669000
42.93823242,-91.64838000
42.96875000,-90.18724000
42.99926758,-93.20138000
43.02978516,-94.65560000
43.06030273,-91.81975000
43.09082031,-90.60446000
43.12133789,-90.56201000
43.15185547,-91.43620000
43.18237305,-93.19920000
43.21289063,-96.59895000
43.24340820,-102.25150000
43.27392578,-106.58030000
43.30444336,-106.25670000
43.33496094,-99.87571000
43.36547852,-96.43802000
43.39599609,-95.41283000
43.42651367,-95.75238000
43.45703125,-95.52466000
43.48754883,-93.33318000
43.51806641,-90.92335000
43.54858398,-89.64839000
43.57910156,-89.46671000
43.60961914,-90.12070000
43.64013672,-91.74355000
43.67065430,-96.37553000
43.70117188,-109.54540000
43.73168945,-92.84280000
43.76220703,-89.94844000
43.79272461,-91.59773000
43.82324219,-96.03196000
43.85375977,-93.54081000
43.88427734,-90.43513000
43.91479492,-89.74466000
43.94531250,-90.17281000
43.97583008,-90.96179000
44.00634766,-91.52020000
44.03686523,-90.47227000
44.06738281,-88.46795000
44.09790039,-87.69411000
44.12841797,-88.69371000
44.15893555,-90.31387000
44.18945313,-91.09082000
44.21997070,-92.43774000
44.25048828,-98.00277000
44.28100586,-96.02721000
44.31152344,-90.89523000
44.34204102,-90.16422000
44.37255859,-91.25526000
44.40307617,-93.08163000
44.43359375,-97.07442000
44.46411133,-106.85360000
44.49462891,-107.48550000
44.52514648,-100.96650000
44.55566406,-94.26488000
44.58618164,-90.14316000
44.61669922,-88.71598000
44.64721680,-89.39742000
44.67773438,-91.67049000
44.70825195,-95.12869000
44.73876953,-97.99541000
44.76928711,-97.61749000
44.79980469,-98.18229000
44.83032227,-101.50240000
44.86083984,-97.48691000
44.89135742,-90.96628000
44.92187500,-87.20811000
44.95239258,-85.88666000
44.98291016,-86.81932000
45.01342773,-90.00510000
45.04394531,-95.32554000
45.07446289,-98.86232000
45.10498047,-97.48100000
45.13549805,-96.17641000
45.16601563,-95.91506000
45.19653320,-96.44958000
45.22705078,-96.84319000
45.25756836,-100.02800000
45.28808594,-106.67020000
45.31860352,-96.06726000
45.34912109,-93.52863000
45.37963867,-95.73604000
45.41015625,-101.81160000
45.44067383,-97.91592000
45.47119141,-94.83267000
45.50170898,-95.16776000
45.53222656,-96.79799000
45.56274414,-96.48058000
45.59326172,-94.23585000
45.62377930,-92.53623000
45.65429688,-92.29819000
45.68481445,-93.34637000
45.71533203,-96.20490000
45.74584961,-100.91530000
45.77636719,-97.51153000
45.80688477,-96.83992000
45.83740234,-108.13730000
45.86791992,-98.50044000
45.89843750,-93.49298000
45.92895508,-94.49052000
45.95947266,-100.69920000
45.98999023,-128.50700000
46.02050781,-107.39210000
46.05102539,-108.93300000
46.08154297,-102.92380000
46.11206055,-98.21197000
46.14257813,-98.07507000
46.17309570,-101.61110000
46.20361328,-98.82458000
46.23413086,-96.37587000
46.26464844,-99.35116000
46.29516602,-105.41020000
46.32568359,-102.61280000
46.35620117,-100.80290000
46.38671875,-101.06780000
46.41723633,-116.65580000
46.44775391,-97.98849000
46.47827148,-92.95460000
46.50878906,-92.04337000
46.53930664,-92.68625000
46.56982422,-93.99636000
46.60034180,-97.02643000
46.63085938,-103.66470000
46.66137695,-105.11410000
46.69189453,-101.72530000
46.72241211,-98.82318000
46.75292969,-97.71603000
46.78344727,-100.27610000
46.81396484,-98.04775000
46.84448242,-93.32953000
46.87500000,-91.97719000
46.90551758,-92.22418000
46.93603516,-92.88517000
46.96655273,-93.84267000
46.99707031,-93.89738000
47.02758789,-93.50341000
47.05810547,-94.03848000
47.08862305,-95.26485000
47.11914063,-97.73797000
47.14965820,-104.10850000
47.18017578,-109.95920000
47.21069336,-99.27135000
47.24121094,-93.00349000
47.27172852,-89.81788000
47.30224609,-89.93005000
47.33276367,-94.31713000
47.36328125,-104.49460000
47.39379883,-98.45382000
47.42431641,-98.09811000
47.45483398,-101.64400000
47.48535156,-107.48680000
47.51586914,-110.20540000
47.54638672,-101.17750000
47.57690430,-97.86636000
47.60742188,-95.90324000
47.63793945,-94.54176000
47.66845703,-95.37788000
47.69897461,-98.83858000
47.72949219,-105.93220000
47.76000977,-103.04830000
47.79052734,-101.29960000
47.82104492,-108.87510000
47.85156250,-106.86820000
47.88208008,-105.15760000
47.91259766,-106.50190000
47.94311523,-101.75610000
47.97363281,-97.26195000
48.00415039,-93.75223000
48.03466797,-92.23001000
48.06518555,-92.75239000
48.09570313,-94.37843000
48.12622070,-94.48052000
48.15673828,-94.18891000
48.18725586,-96.11176000
48.21777344,-100.31410000
48.24829102,-103.57680000
48.27880859,-103.92320000
48.30932617,-104.16200000
48.33984375,-104.64580000
48.37036133,-103.20310000
48.40087891,-101.39430000
48.43139648,-101.74140000
48.46191406,-97.40982000
48.49243164,-92.04538000
48.52294922,-90.43694000
48.55346680,-92.63528000
48.58398438,-99.92448000
48.61450195,-101.22630000
48.64501953,-96.96909000
48.67553711,-97.30763000
48.70605469,-101.07340000
48.73657227,-117.29280000
48.76708984,-101.81500000
48.79760742,-94.95879000
48.82812500,-90.74371000
48.85864258,-87.69432000
48.88916016,-86.30650000
48.91967773,-87.19665000
48.95019531,-90.72720000
48.98071289,-97.10506000
49.01123047,-100.10280000
49.04174805,-95.52334000
49.07226563,-93.96959000
49.10278320,-94.35230000
49.13330078,-93.08862000
49.16381836,-90.99141000
49.19433594,-90.49557000
49.22485352,-91.41812000
49.25537109,-93.34735000
49.28588867,-97.92720000
49.31640625,-111.61340000
49.34692383,-96.92735000
49.37744141,-93.18575000
49.40795898,-92.50865000
49.43847656,-93.02539000
49.46899414,-94.76582000
49.49951172,-99.57870000
49.53002930,-103.07600000
49.56054688,-93.70148000
49.59106445,-91.10106000
49.62158203,-92.09441000
49.65209961,-95.05692000
49.68261719,-97.98735000
49.71313477,-99.20357000
49.74365234,-98.10364000
49.77416992,-95.74387000
49.80468750,-94.46719000
49.83520508,-95.86523000
49.86572266,-100.07470000
49.89624023,-103.05790000
49.92675781,-104.22910000
49.95727539,-106.10080000
49.98779297,-106.64980000
50.01831055,-106.03900000
