Frequency,Channel A
(MHz),(dBu)

0.00000000,-11.52442000
0.03051758,-11.86940000
0.06103516,-16.94166000
0.09155273,-26.12824000
0.12207031,-39.63358000
0.15258789,-47.48655000
0.18310547,-48.22439000
0.21362305,-52.17767000
0.24414063,-54.06411000
0.27465820,-54.84293000
0.30517578,-54.85927000
0.33569336,-56.52019000
0.36621094,-58.94449000
0.39672852,-60.92845000
0.42724609,-67.22801000
0.45776367,-63.81126000
0.48828125,-59.91823000
0.51879883,-61.61369000
0.54931641,-55.23392000
0.57983398,-45.90887000
0.61035156,-40.95571000
0.64086914,-39.17748000
0.67138672,-39.96688000
0.70190430,-42.67211000
0.73242188,-46.28670000
0.76293945,-50.16563000
0.79345703,-54.08984000
0.82397461,-59.62113000
0.85449219,-75.67311000
0.88500977,-57.47149000
0.91552734,-54.00137000
0.94604492,-53.69674000
0.97656250,-54.15771000
1.00708008,-53.32958000
1.03759766,-52.04831000
1.06811523,-51.18956000
1.09863281,-50.45451000
1.12915039,-50.15886000
1.15966797,-51.26017000
1.19018555,-54.39286000
1.22070313,-57.89471000
1.25122070,-57.70296000
1.28173828,-57.46272000
1.31225586,-58.67577000
1.34277344,-59.92314000
1.37329102,-59.42707000
1.40380859,-58.36716000
1.43432617,-58.25983000
1.46484375,-58.97131000
1.49536133,-59.20663000
1.52587891,-58.47439000
1.55639648,-57.77408000
1.58691406,-57.24285000
1.61743164,-56.38964000
1.64794922,-55.45213000
1.67846680,-54.70836000
1.70898438,-54.02915000
1.73950195,-53.63083000
1.77001953,-53.87823000
1.80053711,-54.66815000
1.83105469,-55.70256000
1.86157227,-57.07603000
1.89208984,-58.68660000
1.92260742,-59.51004000
1.95312500,-59.54684000
1.98364258,-59.95257000
2.01416016,-60.36936000
2.04467773,-60.05076000
2.07519531,-60.12443000
2.10571289,-61.08713000
2.13623047,-62.38951000
2.16674805,-64.43083000
2.19726563,-66.50465000
2.22778320,-64.92416000
2.25830078,-62.40685000
2.28881836,-59.65176000
2.31933594,-57.34562000
2.34985352,-56.84605000
2.38037109,-58.56057000
2.41088867,-62.39333000
2.44140625,-65.43327000
2.47192383,-63.38814000
2.50244141,-61.93041000
2.53295898,-60.99308000
2.56347656,-58.90185000
2.59399414,-57.35094000
2.62451172,-57.62924000
2.65502930,-59.86060000
2.68554688,-62.83680000
2.71606445,-62.91977000
2.74658203,-61.40220000
2.77709961,-60.59772000
2.80761719,-60.33937000
2.83813477,-60.25064000
2.86865234,-60.24769000
2.89916992,-59.91061000
2.92968750,-59.14219000
2.96020508,-58.97406000
2.99072266,-60.37673000
3.02124023,-63.29899000
3.05175781,-63.93766000
3.08227539,-61.77710000
3.11279297,-60.71924000
3.14331055,-60.70526000
3.17382813,-60.38506000
3.20434570,-59.30802000
3.23486328,-58.78424000
3.26538086,-59.73564000
3.29589844,-61.66682000
3.32641602,-61.96590000
3.35693359,-60.65075000
3.38745117,-59.51804000
3.41796875,-58.79836000
3.44848633,-58.90587000
3.47900391,-59.79781000
3.50952148,-59.56134000
3.54003906,-57.75951000
3.57055664,-56.71062000
3.60107422,-57.08717000
3.63159180,-58.01424000
3.66210938,-57.80251000
3.69262695,-56.97891000
3.72314453,-56.84060000
3.75366211,-57.06307000
3.78417969,-56.84993000
3.81469727,-56.67416000
3.84521484,-57.23791000
3.87573242,-58.06166000
3.90625000,-57.83422000
3.93676758,-56.72963000
3.96728516,-56.13600000
3.99780273,-56.71296000
4.02832031,-57.89479000
4.05883789,-57.70866000
4.08935547,-56.27131000
4.11987305,-55.17334000
4.15039063,-54.56871000
4.18090820,-54.27843000
4.21142578,-54.52850000
4.24194336,-55.57273000
4.27246094,-57.27563000
4.30297852,-58.98188000
4.33349609,-58.95616000
4.36401367,-56.62236000
4.39453125,-54.35465000
4.42504883,-53.25660000
4.45556641,-53.36678000
4.48608398,-54.43598000
4.51660156,-55.96553000
4.54711914,-57.05433000
4.57763672,-57.14568000
4.60815430,-57.05045000
4.63867188,-57.26630000
4.66918945,-57.07460000
4.69970703,-56.45275000
4.73022461,-56.59241000
4.76074219,-58.35796000
4.79125977,-61.95325000
4.82177734,-63.09275000
4.85229492,-59.87101000
4.88281250,-57.83530000
4.91333008,-56.92686000
4.94384766,-56.55139000
4.97436523,-56.90762000
5.00488281,-58.53763000
5.03540039,-61.84723000
5.06591797,-65.54202000
5.09643555,-63.68515000
5.12695313,-60.52010000
5.15747070,-58.87152000
5.18798828,-58.51461000
5.21850586,-59.20192000
5.24902344,-60.90153000
5.27954102,-63.85686000
5.31005859,-66.78721000
5.34057617,-64.43864000
5.37109375,-61.56449000
5.40161133,-60.50226000
5.43212891,-60.73389000
5.46264648,-62.02023000
5.49316406,-64.60336000
5.52368164,-67.51479000
5.55419922,-68.01780000
5.58471680,-67.20026000
5.61523438,-65.89800000
5.64575195,-65.86826000
5.67626953,-69.87748000
5.70678711,-83.64288000
5.73730469,-67.52758000
5.76782227,-62.16830000
5.79833984,-59.31396000
5.82885742,-58.15261000
5.85937500,-58.66443000
5.88989258,-60.53286000
5.92041016,-61.11284000
5.95092773,-58.69266000
5.98144531,-56.50745000
6.01196289,-55.21423000
6.04248047,-54.62402000
6.07299805,-54.98442000
6.10351563,-56.30519000
6.13403320,-57.52600000
6.16455078,-57.63002000
6.19506836,-57.18882000
6.22558594,-56.49053000
6.25610352,-55.52379000
6.28662109,-54.67792000
6.31713867,-54.51469000
6.34765625,-55.48355000
6.37817383,-57.80491000
6.40869141,-61.02746000
6.43920898,-62.63091000
6.46972656,-61.63255000
6.50024414,-60.28349000
6.53076172,-59.17371000
6.56127930,-58.69682000
6.59179688,-59.38053000
6.62231445,-61.53486000
6.65283203,-65.43408000
6.68334961,-72.55139000
6.71386719,-79.41923000
6.74438477,-69.63980000
6.77490234,-66.24201000
6.80541992,-65.37267000
6.83593750,-65.94464000
6.86645508,-67.48943000
6.89697266,-70.05521000
6.92749023,-74.70485000
6.95800781,-87.79016000
6.98852539,-79.45708000
7.01904297,-73.26001000
7.04956055,-70.70171000
7.08007813,-69.60237000
7.11059570,-69.69664000
7.14111328,-71.25518000
7.17163086,-74.64317000
7.20214844,-80.26023000
7.23266602,-84.54219000
7.26318359,-79.62441000
7.29370117,-75.23022000
7.32421875,-72.73664000
7.35473633,-72.11644000
7.38525391,-73.42811000
7.41577148,-76.85420000
7.44628906,-80.75972000
7.47680664,-78.85580000
7.50732422,-76.06164000
7.53784180,-74.38912000
7.56835938,-73.49458000
7.59887695,-73.51712000
7.62939453,-74.38710000
7.65991211,-75.86182000
7.69042969,-79.50568000
7.72094727,-84.14963000
7.75146484,-75.82013000
7.78198242,-71.40945000
7.81250000,-69.33214000
7.84301758,-68.28713000
7.87353516,-68.01508000
7.90405273,-68.82702000
7.93457031,-70.87775000
7.96508789,-74.06712000
7.99560547,-77.29199000
8.02612305,-76.18649000
8.05664063,-73.25097000
8.08715820,-71.46394000
8.11767578,-70.58373000
8.14819336,-70.21918000
8.17871094,-70.28159000
8.20922852,-70.95756000
8.23974609,-72.80212000
8.27026367,-75.64658000
8.30078125,-74.92257000
8.33129883,-72.21870000
8.36181641,-70.93671000
8.39233398,-70.50974000
8.42285156,-70.71257000
8.45336914,-72.49103000
8.48388672,-77.72131000
8.51440430,-98.43540000
8.54492188,-79.52467000
8.57543945,-75.64180000
8.60595703,-74.72294000
8.63647461,-75.09820000
8.66699219,-76.21036000
8.69750977,-77.71762000
8.72802734,-79.53606000
8.75854492,-82.71376000
8.78906250,-91.13603000
8.81958008,-84.27017000
8.85009766,-78.54701000
8.88061523,-77.13873000
8.91113281,-77.95409000
8.94165039,-79.85000000
8.97216797,-82.49432000
9.00268555,-85.22672000
9.03320313,-86.95032000
9.06372070,-90.27626000
9.09423828,-96.14519000
9.12475586,-84.00071000
9.15527344,-79.16574000
9.18579102,-77.45085000
9.21630859,-77.01338000
9.24682617,-76.86083000
9.27734375,-77.76559000
9.30786133,-80.55032000
9.33837891,-84.12051000
9.36889648,-83.13644000
9.39941406,-80.83876000
9.42993164,-82.53519000
9.46044922,-94.25060000
9.49096680,-87.59064000
9.52148438,-82.04528000
9.55200195,-77.21490000
9.58251953,-73.52594000
9.61303711,-72.04454000
9.64355469,-72.45033000
9.67407227,-74.38747000
9.70458984,-77.79620000
9.73510742,-83.45361000
9.76562500,-101.46930000
9.79614258,-84.17017000
9.82666016,-76.71780000
9.85717773,-72.97187000
9.88769531,-71.71327000
9.91821289,-72.59235000
9.94873047,-74.80094000
9.97924805,-76.78931000
10.00976563,-77.71802000
10.04028320,-76.68917000
10.07080078,-75.05603000
10.10131836,-74.75446000
10.13183594,-76.57098000
10.16235352,-81.14739000
10.19287109,-82.92094000
10.22338867,-78.20327000
10.25390625,-75.46227000
10.28442383,-73.78122000
10.31494141,-72.56427000
10.34545898,-72.06950000
10.37597656,-71.55484000
10.40649414,-69.68629000
10.43701172,-68.16888000
10.46752930,-68.25960000
10.49804688,-69.56423000
10.52856445,-71.03458000
10.55908203,-72.29379000
10.58959961,-74.62702000
10.62011719,-81.35751000
10.65063477,-88.93947000
10.68115234,-77.52288000
10.71166992,-74.47151000
10.74218750,-74.06487000
10.77270508,-75.67274000
10.80322266,-78.62672000
10.83374023,-78.59572000
10.86425781,-75.13125000
10.89477539,-73.78407000
10.92529297,-76.27478000
10.95581055,-88.61782000
10.98632813,-79.79985000
11.01684570,-74.07413000
11.04736328,-73.03514000
11.07788086,-75.67054000
11.10839844,-83.76515000
11.13891602,-82.33300000
11.16943359,-79.76624000
11.19995117,-78.50676000
11.23046875,-74.40354000
11.26098633,-71.61079000
11.29150391,-70.94243000
11.32202148,-72.17923000
11.35253906,-75.54593000
11.38305664,-82.97954000
11.41357422,-86.48605000
11.44409180,-76.71338000
11.47460938,-73.01083000
11.50512695,-71.75681000
11.53564453,-71.56030000
11.56616211,-71.76257000
11.59667969,-72.47310000
11.62719727,-74.30691000
11.65771484,-76.74280000
11.68823242,-76.36750000
11.71875000,-75.01660000
11.74926758,-75.38449000
11.77978516,-76.56074000
11.81030273,-77.51563000
11.84082031,-80.82861000
11.87133789,-86.85107000
11.90185547,-85.80372000
11.93237305,-90.61609000
11.96289063,-89.13477000
11.99340820,-80.51819000
12.02392578,-75.24757000
12.05444336,-72.50187000
12.08496094,-72.77415000
12.11547852,-77.11302000
12.14599609,-89.45861000
12.17651367,-77.32619000
12.20703125,-73.74970000
12.23754883,-74.82388000
12.26806641,-80.18874000
12.29858398,-78.80097000
12.32910156,-75.16791000
12.35961914,-74.88943000
12.39013672,-76.67088000
12.42065430,-79.16646000
12.45117188,-80.06654000
12.48168945,-79.98637000
12.51220703,-80.08411000
12.54272461,-77.35658000
12.57324219,-74.18019000
12.60375977,-73.08917000
12.63427734,-72.93488000
12.66479492,-71.21747000
12.69531250,-69.79124000
12.72583008,-70.41530000
12.75634766,-73.85883000
12.78686523,-83.13728000
12.81738281,-87.49474000
12.84790039,-85.42833000
12.87841797,-94.76613000
12.90893555,-93.67358000
12.93945313,-92.00084000
12.96997070,-81.88264000
13.00048828,-77.95387000
13.03100586,-76.84987000
13.06152344,-76.39246000
13.09204102,-75.67030000
13.12255859,-76.14335000
13.15307617,-79.53532000
13.18359375,-84.96789000
13.21411133,-79.62601000
13.24462891,-78.04414000
13.27514648,-81.92697000
13.30566406,-91.92298000
13.33618164,-88.01077000
13.36669922,-95.56616000
13.39721680,-84.75145000
13.42773438,-77.33376000
13.45825195,-77.04932000
13.48876953,-78.16523000
13.51928711,-68.61751000
13.54980469,-64.64576000
13.58032227,-64.84669000
13.61083984,-69.12441000
13.64135742,-79.07040000
13.67187500,-87.95441000
13.70239258,-76.92426000
13.73291016,-69.68050000
13.76342773,-67.90594000
13.79394531,-71.05750000
13.82446289,-76.10947000
13.85498047,-70.86020000
13.88549805,-70.48156000
13.91601563,-75.30213000
13.94653320,-84.55733000
13.97705078,-78.09880000
14.00756836,-75.24984000
14.03808594,-74.59142000
14.06860352,-75.20416000
14.09912109,-76.74713000
14.12963867,-78.90870000
14.16015625,-81.61282000
14.19067383,-85.20336000
14.22119141,-92.53223000
14.25170898,-96.03416000
14.28222656,-85.52853000
14.31274414,-82.66670000
14.34326172,-83.60815000
14.37377930,-87.47407000
14.40429688,-84.73492000
14.43481445,-80.56223000
14.46533203,-78.89591000
14.49584961,-79.28445000
14.52636719,-82.27983000
14.55688477,-91.76901000
14.58740234,-89.58647000
14.61791992,-83.41206000
14.64843750,-83.11929000
14.67895508,-85.52382000
14.70947266,-86.31018000
14.73999023,-85.66058000
14.77050781,-87.36960000
14.80102539,-88.85234000
14.83154297,-85.81042000
14.86206055,-83.81812000
14.89257813,-83.36070000
14.92309570,-83.73346000
14.95361328,-84.83575000
14.98413086,-87.25113000
15.01464844,-91.97852000
15.04516602,-95.20119000
15.07568359,-92.69386000
15.10620117,-89.06134000
15.13671875,-82.64977000
15.16723633,-77.66469000
15.19775391,-74.40582000
15.22827148,-72.93481000
15.25878906,-74.06503000
15.28930664,-79.53278000
15.31982422,-89.16255000
15.35034180,-79.83774000
15.38085938,-77.33369000
15.41137695,-77.60997000
15.44189453,-79.80367000
15.47241211,-83.74180000
15.50292969,-88.36160000
15.53344727,-88.98780000
15.56396484,-86.05115000
15.59448242,-83.12294000
15.62500000,-82.58907000
15.65551758,-85.88905000
15.68603516,-88.75176000
15.71655273,-83.06633000
15.74707031,-80.40439000
15.77758789,-79.88725000
15.80810547,-80.25221000
15.83862305,-80.77391000
15.86914063,-81.71454000
15.89965820,-84.06244000
15.93017578,-90.24261000
15.96069336,-97.65173000
15.99121094,-83.98862000
16.02172852,-79.38962000
16.05224609,-77.79593000
16.08276367,-78.65631000
16.11328125,-82.35948000
16.14379883,-90.24757000
16.17431641,-94.13039000
16.20483398,-89.56496000
16.23535156,-88.17852000
16.26586914,-87.58783000
16.29638672,-87.43059000
16.32690430,-88.45153000
16.35742188,-87.42916000
16.38793945,-84.42482000
16.41845703,-83.35384000
16.44897461,-82.58479000
16.47949219,-81.82913000
16.51000977,-84.23599000
16.54052734,-94.23131000
16.57104492,-88.96906000
16.60156250,-85.01144000
16.63208008,-84.19736000
16.66259766,-82.88451000
16.69311523,-81.09602000
16.72363281,-79.96698000
16.75415039,-79.77470000
16.78466797,-80.86388000
16.81518555,-84.42529000
16.84570313,-92.96143000
16.87622070,-89.26323000
16.90673828,-85.19009000
16.93725586,-84.09837000
16.96777344,-85.13167000
16.99829102,-89.19205000
17.02880859,-93.57957000
17.05932617,-95.59597000
17.08984375,-90.53344000
17.12036133,-84.80453000
17.15087891,-82.29994000
17.18139648,-81.35326000
17.21191406,-80.98460000
17.24243164,-81.18607000
17.27294922,-82.51233000
17.30346680,-85.62346000
17.33398438,-91.48895000
17.36450195,-92.84134000
17.39501953,-87.49599000
17.42553711,-84.91624000
17.45605469,-83.46645000
17.48657227,-82.64047000
17.51708984,-83.03651000
17.54760742,-84.81332000
17.57812500,-88.93676000
17.60864258,-95.85455000
17.63916016,-87.03458000
17.66967773,-76.57563000
17.70019531,-70.49257000
17.73071289,-67.89944000
17.76123047,-68.00531000
17.79174805,-69.88990000
17.82226563,-72.72430000
17.85278320,-76.98923000
17.88330078,-83.17664000
17.91381836,-86.81255000
17.94433594,-87.78046000
17.97485352,-89.73122000
18.00537109,-92.84357000
18.03588867,-94.07426000
18.06640625,-88.33907000
18.09692383,-84.58900000
18.12744141,-82.51095000
18.15795898,-81.39497000
18.18847656,-81.02922000
18.21899414,-81.19506000
18.24951172,-81.31501000
18.28002930,-80.40909000
18.31054688,-79.36136000
18.34106445,-79.52378000
18.37158203,-81.27605000
18.40209961,-84.52138000
18.43261719,-89.04303000
18.46313477,-96.04725000
18.49365234,-97.73430000
18.52416992,-86.12390000
18.55468750,-80.42680000
18.58520508,-77.34164000
18.61572266,-76.15401000
18.64624023,-76.66351000
18.67675781,-78.54346000
18.70727539,-80.50627000
18.73779297,-81.67639000
18.76831055,-84.05907000
18.79882813,-90.43980000
18.82934570,-89.71899000
18.85986328,-83.28007000
18.89038086,-81.03763000
18.92089844,-81.41995000
18.95141602,-83.56324000
18.98193359,-86.28651000
19.01245117,-89.16029000
19.04296875,-94.80819000
19.07348633,-95.45327000
19.10400391,-88.66416000
19.13452148,-84.71336000
19.16503906,-81.51859000
19.19555664,-79.82462000
19.22607422,-79.63029000
19.25659180,-80.18465000
19.28710938,-80.82920000
19.31762695,-81.99605000
19.34814453,-85.46227000
19.37866211,-95.66495000
19.40917969,-99.27032000
19.43969727,-96.78905000
19.47021484,-91.74802000
19.50073242,-86.61569000
19.53125000,-86.11732000
19.56176758,-90.52277000
19.59228516,-109.83420000
19.62280273,-90.83031000
19.65332031,-86.00771000
19.68383789,-84.73240000
19.71435547,-84.39225000
19.74487305,-81.76900000
19.77539063,-80.03570000
19.80590820,-80.56479000
19.83642578,-81.72699000
19.86694336,-82.51192000
19.89746094,-84.39368000
19.92797852,-88.18970000
19.95849609,-92.58995000
19.98901367,-93.72620000
20.01953125,-95.80382000
20.05004883,-94.55090000
20.08056641,-90.69380000
20.11108398,-91.91431000
20.14160156,-96.68999000
20.17211914,-88.85489000
20.20263672,-84.49470000
20.23315430,-82.47951000
20.26367188,-82.93295000
20.29418945,-86.27110000
20.32470703,-89.03316000
20.35522461,-85.27568000
20.38574219,-81.64226000
20.41625977,-81.37712000
20.44677734,-85.46261000
20.47729492,-86.71466000
20.50781250,-82.79269000
20.53833008,-83.18722000
20.56884766,-87.91260000
20.59936523,-100.44360000
20.62988281,-89.30309000
20.66040039,-82.29778000
20.69091797,-79.16145000
20.72143555,-79.35929000
20.75195313,-83.48260000
20.78247070,-92.14949000
20.81298828,-89.04392000
20.84350586,-88.56637000
20.87402344,-92.80289000
20.90454102,-101.14070000
20.93505859,-104.68760000
20.96557617,-95.73124000
20.99609375,-91.63464000
21.02661133,-89.68766000
21.05712891,-88.62060000
21.08764648,-88.61252000
21.11816406,-89.30050000
21.14868164,-89.71336000
21.17919922,-89.70253000
21.20971680,-89.21311000
21.24023438,-89.34357000
21.27075195,-91.90689000
21.30126953,-97.37327000
21.33178711,-98.76369000
21.36230469,-99.45464000
21.39282227,-94.97231000
21.42333984,-89.99825000
21.45385742,-87.77206000
21.48437500,-88.43543000
21.51489258,-93.92946000
21.54541016,-94.46777000
21.57592773,-90.04256000
21.60644531,-92.72780000
21.63696289,-94.54123000
21.66748047,-87.26929000
21.69799805,-84.40833000
21.72851563,-83.64793000
21.75903320,-83.87711000
21.78955078,-86.17612000
21.82006836,-95.77136000
21.85058594,-89.91904000
21.88110352,-85.03669000
21.91162109,-85.18220000
21.94213867,-88.58395000
21.97265625,-96.68014000
22.00317383,-92.87482000
22.03369141,-88.34702000
22.06420898,-86.77567000
22.09472656,-86.29515000
22.12524414,-86.19620000
22.15576172,-85.63687000
22.18627930,-85.05626000
22.21679688,-85.58188000
22.24731445,-86.46870000
22.27783203,-86.11147000
22.30834961,-85.49984000
22.33886719,-86.27902000
22.36938477,-89.09871000
22.39990234,-92.88151000
22.43041992,-93.88351000
22.46093750,-92.05388000
22.49145508,-90.66856000
22.52197266,-89.30108000
22.55249023,-86.85881000
22.58300781,-85.14769000
22.61352539,-85.09781000
22.64404297,-86.00374000
22.67456055,-86.03896000
22.70507813,-84.95497000
22.73559570,-84.56633000
22.76611328,-85.76566000
22.79663086,-87.59658000
22.82714844,-87.44434000
22.85766602,-85.85587000
22.88818359,-84.68620000
22.91870117,-84.34516000
22.94921875,-84.95813000
22.97973633,-86.39901000
23.01025391,-86.41472000
23.04077148,-84.96545000
23.07128906,-85.39230000
23.10180664,-89.61440000
23.13232422,-94.78707000
23.16284180,-94.36532000
23.19335938,-97.11572000
23.22387695,-89.80328000
23.25439453,-87.56995000
23.28491211,-89.91322000
23.31542969,-98.71631000
23.34594727,-100.09050000
23.37646484,-91.17382000
23.40698242,-87.56705000
23.43750000,-85.22610000
23.46801758,-83.67844000
23.49853516,-83.43108000
23.52905273,-85.02168000
23.55957031,-88.97849000
23.59008789,-97.05069000
23.62060547,-98.25230000
23.65112305,-93.11260000
23.68164063,-98.29272000
23.71215820,-88.85260000
23.74267578,-81.41640000
23.77319336,-78.59223000
23.80371094,-78.06359000
23.83422852,-78.95387000
23.86474609,-80.98324000
23.89526367,-83.93864000
23.92578125,-87.75883000
23.95629883,-90.45277000
23.98681641,-87.55009000
24.01733398,-84.37991000
24.04785156,-82.94135000
24.07836914,-83.56348000
24.10888672,-86.50571000
24.13940430,-90.94162000
24.16992188,-89.67743000
24.20043945,-86.46693000
24.23095703,-86.24039000
24.26147461,-89.35579000
24.29199219,-95.07972000
24.32250977,-97.14630000
24.35302734,-91.15044000
24.38354492,-86.27175000
24.41406250,-84.33153000
24.44458008,-84.81950000
24.47509766,-87.32002000
24.50561523,-91.46783000
24.53613281,-96.26741000
24.56665039,-98.41528000
24.59716797,-96.26236000
24.62768555,-93.73077000
24.65820313,-93.01353000
24.68872070,-94.14162000
24.71923828,-95.67665000
24.74975586,-93.33987000
24.78027344,-90.34521000
24.81079102,-90.97231000
24.84130859,-98.20013000
24.87182617,-102.72560000
24.90234375,-93.89412000
24.93286133,-91.83598000
24.96337891,-91.11569000
24.99389648,-90.99614000
25.02441406,-92.14536000
25.05493164,-96.08894000
25.08544922,-100.09470000
25.11596680,-92.34355000
25.14648438,-88.62572000
25.17700195,-86.75117000
25.20751953,-85.47562000
25.23803711,-85.18950000
25.26855469,-85.75547000
25.29907227,-85.81639000
25.32958984,-84.77026000
25.36010742,-84.29704000
25.39062500,-86.02073000
25.42114258,-90.17769000
25.45166016,-94.69389000
25.48217773,-95.86140000
25.51269531,-95.64304000
25.54321289,-97.30888000
25.57373047,-98.93236000
25.60424805,-95.06133000
25.63476563,-92.29699000
25.66528320,-90.30006000
25.69580078,-88.43803000
25.72631836,-85.77480000
25.75683594,-83.17734000
25.78735352,-81.54247000
25.81787109,-81.19386000
25.84838867,-82.31374000
25.87890625,-85.09060000
25.90942383,-91.20324000
25.93994141,-91.89305000
25.97045898,-85.60395000
26.00097656,-83.43674000
26.03149414,-83.14414000
26.06201172,-83.45561000
26.09252930,-83.50063000
26.12304688,-82.88764000
26.15356445,-82.15974000
26.18408203,-82.38210000
26.21459961,-84.14925000
26.24511719,-86.93391000
26.27563477,-87.69337000
26.30615234,-86.93387000
26.33666992,-88.26560000
26.36718750,-91.63063000
26.39770508,-94.60832000
26.42822266,-93.81726000
26.45874023,-89.45303000
26.48925781,-88.86687000
26.51977539,-92.25314000
26.55029297,-93.66708000
26.58081055,-88.21709000
26.61132813,-85.33662000
26.64184570,-85.17828000
26.67236328,-86.64262000
26.70288086,-88.23430000
26.73339844,-89.42328000
26.76391602,-88.85449000
26.79443359,-86.54996000
26.82495117,-85.48799000
26.85546875,-86.82964000
26.88598633,-90.30977000
26.91650391,-94.44199000
26.94702148,-97.30069000
26.97753906,-89.71848000
27.00805664,-85.23621000
27.03857422,-83.57811000
27.06909180,-83.31630000
27.09960938,-83.82407000
27.13012695,-85.21791000
27.16064453,-87.87387000
27.19116211,-92.15276000
27.22167969,-91.58670000
27.25219727,-86.75963000
27.28271484,-84.75739000
27.31323242,-85.28762000
27.34375000,-87.67607000
27.37426758,-89.99106000
27.40478516,-91.37405000
27.43530273,-95.67504000
27.46582031,-96.78433000
27.49633789,-92.20809000
27.52685547,-91.37495000
27.55737305,-94.70898000
27.58789063,-103.84930000
27.61840820,-92.37239000
27.64892578,-90.27654000
27.67944336,-90.22709000
27.70996094,-88.89365000
27.74047852,-87.01585000
27.77099609,-85.41351000
27.80151367,-84.03313000
27.83203125,-83.43507000
27.86254883,-84.88190000
27.89306641,-89.99496000
27.92358398,-101.32260000
27.95410156,-92.29317000
27.98461914,-88.68626000
28.01513672,-86.89083000
28.04565430,-86.37048000
28.07617188,-88.60779000
28.10668945,-97.33037000
28.13720703,-99.86446000
28.16772461,-93.63530000
28.19824219,-96.21423000
28.22875977,-93.73419000
28.25927734,-85.43381000
28.28979492,-81.85070000
28.32031250,-80.82932000
28.35083008,-81.10567000
28.38134766,-82.16637000
28.41186523,-84.87312000
28.44238281,-90.87122000
28.47290039,-85.90974000
28.50341797,-81.44779000
28.53393555,-81.00777000
28.56445313,-82.87194000
28.59497070,-84.13039000
28.62548828,-84.84364000
28.65600586,-87.14568000
28.68652344,-89.26849000
28.71704102,-89.56839000
28.74755859,-90.33588000
28.77807617,-92.40205000
28.80859375,-108.24070000
28.83911133,-88.55400000
28.86962891,-81.87070000
28.90014648,-80.02863000
28.93066406,-81.01001000
28.96118164,-83.46727000
28.99169922,-86.20915000
29.02221680,-88.28185000
29.05273438,-90.42286000
29.08325195,-97.10886000
29.11376953,-93.80515000
29.14428711,-89.86876000
29.17480469,-91.15985000
29.20532227,-93.77235000
29.23583984,-93.02700000
29.26635742,-93.08022000
29.29687500,-90.22167000
29.32739258,-86.16040000
29.35791016,-84.03629000
29.38842773,-83.33305000
29.41894531,-82.87952000
29.44946289,-82.42814000
29.47998047,-82.70856000
29.51049805,-83.79704000
29.54101563,-85.41908000
29.57153320,-86.65669000
29.60205078,-86.61721000
29.63256836,-87.51667000
29.66308594,-88.95370000
29.69360352,-87.10275000
29.72412109,-85.00397000
29.75463867,-84.20730000
29.78515625,-83.98698000
29.81567383,-83.90045000
29.84619141,-83.94131000
29.87670898,-84.34528000
29.90722656,-86.34983000
29.93774414,-92.76599000
29.96826172,-96.65903000
29.99877930,-89.46181000
30.02929688,-87.96843000
30.05981445,-88.44376000
30.09033203,-90.23792000
30.12084961,-93.29593000
30.15136719,-93.69183000
30.18188477,-90.61899000
30.21240234,-87.09663000
30.24291992,-84.24470000
30.27343750,-83.55949000
30.30395508,-86.25574000
30.33447266,-95.43018000
30.36499023,-89.91988000
30.39550781,-86.53439000
30.42602539,-88.25097000
30.45654297,-94.08578000
30.48706055,-97.30621000
30.51757813,-93.88960000
30.54809570,-93.69812000
30.57861328,-93.97857000
30.60913086,-91.20975000
30.63964844,-89.29692000
30.67016602,-88.64533000
30.70068359,-87.26838000
30.73120117,-85.04990000
30.76171875,-84.33594000
30.79223633,-86.06225000
30.82275391,-89.90245000
30.85327148,-93.33052000
30.88378906,-92.75171000
30.91430664,-93.26019000
30.94482422,-98.16850000
30.97534180,-96.96265000
31.00585938,-93.51600000
31.03637695,-89.44403000
31.06689453,-86.91338000
31.09741211,-87.31812000
31.12792969,-89.56066000
31.15844727,-90.97138000
31.18896484,-90.92304000
31.21948242,-90.48198000
31.25000000,-89.58565000
31.28051758,-88.65121000
31.31103516,-88.76215000
31.34155273,-93.27526000
31.37207031,-101.66620000
31.40258789,-90.26310000
31.43310547,-86.96667000
31.46362305,-85.44026000
31.49414063,-84.84109000
31.52465820,-85.38641000
31.55517578,-86.91141000
31.58569336,-88.90862000
31.61621094,-92.48959000
31.64672852,-102.06130000
31.67724609,-89.48468000
31.70776367,-84.11908000
31.73828125,-82.96631000
31.76879883,-84.43636000
31.79931641,-87.11040000
31.82983398,-90.34685000
31.86035156,-97.01558000
31.89086914,-94.41898000
31.92138672,-88.30680000
31.95190430,-86.66045000
31.98242188,-86.43288000
32.01293945,-87.62198000
32.04345703,-91.43887000
32.07397461,-91.77283000
32.10449219,-87.86007000
32.13500977,-87.57175000
32.16552734,-92.69738000
32.19604492,-110.25470000
32.22656250,-93.22342000
32.25708008,-89.98663000
32.28759766,-87.99122000
32.31811523,-86.61604000
32.34863281,-86.71323000
32.37915039,-87.78236000
32.40966797,-86.74808000
32.44018555,-83.87994000
32.47070313,-81.84319000
32.50122070,-81.20374000
32.53173828,-81.68111000
32.56225586,-82.98898000
32.59277344,-85.58427000
32.62329102,-89.76889000
32.65380859,-90.25399000
32.68432617,-86.70312000
32.71484375,-84.18038000
32.74536133,-83.60201000
32.77587891,-85.12396000
32.80639648,-86.52341000
32.83691406,-85.46849000
32.86743164,-85.17373000
32.89794922,-87.63786000
32.92846680,-95.46690000
32.95898438,-94.59958000
32.98950195,-88.70860000
33.02001953,-87.81787000
33.05053711,-89.71124000
33.08105469,-90.06973000
33.11157227,-88.95074000
33.14208984,-88.53865000
33.17260742,-85.91389000
33.20312500,-85.46439000
33.23364258,-89.44404000
33.26416016,-96.17667000
33.29467773,-93.71033000
33.32519531,-90.43227000
33.35571289,-87.69540000
33.38623047,-86.19746000
33.41674805,-85.49702000
33.44726563,-84.82848000
33.47778320,-84.15999000
33.50830078,-84.22425000
33.53881836,-85.41412000
33.56933594,-87.68615000
33.59985352,-90.25835000
33.63037109,-90.77030000
33.66088867,-88.71268000
33.69140625,-86.84068000
33.72192383,-87.01599000
33.75244141,-91.10203000
33.78295898,-109.45960000
33.81347656,-95.61970000
33.84399414,-97.62914000
33.87451172,-99.05167000
33.90502930,-88.54555000
33.93554688,-85.07976000
33.96606445,-84.48708000
33.99658203,-85.48381000
34.02709961,-85.98576000
34.05761719,-84.95683000
34.08813477,-84.39862000
34.11865234,-84.64816000
34.14916992,-84.67678000
34.17968750,-84.40361000
34.21020508,-83.96585000
34.24072266,-83.61572000
34.27124023,-84.68720000
34.30175781,-88.26583000
34.33227539,-96.44151000
34.36279297,-101.43140000
34.39331055,-94.32712000
34.42382813,-89.36835000
34.45434570,-84.50114000
34.48486328,-81.82876000
34.51538086,-82.47716000
34.54589844,-87.50748000
34.57641602,-88.73765000
34.60693359,-83.47698000
34.63745117,-81.74721000
34.66796875,-82.31633000
34.69848633,-83.67648000
34.72900391,-83.31422000
34.75952148,-82.11776000
34.79003906,-82.90060000
34.82055664,-87.31904000
34.85107422,-87.19112000
34.88159180,-85.02074000
34.91210938,-87.66396000
34.94262695,-95.98702000
34.97314453,-100.53930000
35.00366211,-90.52785000
35.03417969,-86.48988000
35.06469727,-85.52995000
35.09521484,-86.53939000
35.12573242,-87.03403000
35.15625000,-86.24794000
35.18676758,-86.48838000
35.21728516,-88.41045000
35.24780273,-90.66967000
35.27832031,-91.40332000
35.30883789,-90.95238000
35.33935547,-90.46169000
35.36987305,-89.63159000
35.40039063,-88.13496000
35.43090820,-87.26334000
35.46142578,-88.60022000
35.49194336,-92.45942000
35.52246094,-90.45615000
35.55297852,-86.21296000
35.58349609,-84.25789000
35.61401367,-83.02345000
35.64453125,-81.66290000
35.67504883,-81.06554000
35.70556641,-81.38810000
35.73608398,-81.65958000
35.76660156,-81.65008000
35.79711914,-82.00813000
35.82763672,-82.66166000
35.85815430,-83.02413000
35.88867188,-83.35898000
35.91918945,-84.37329000
35.94970703,-85.40816000
35.98022461,-86.17661000
36.01074219,-89.06657000
36.04125977,-96.79123000
36.07177734,-97.29690000
36.10229492,-94.18452000
36.13281250,-94.32255000
36.16333008,-94.84002000
36.19384766,-94.20737000
36.22436523,-92.33428000
36.25488281,-90.10316000
36.28540039,-88.29082000
36.31591797,-87.23227000
36.34643555,-88.57410000
36.37695313,-93.59167000
36.40747070,-96.31569000
36.43798828,-94.27557000
36.46850586,-92.60170000
36.49902344,-88.76229000
36.52954102,-84.94939000
36.56005859,-83.12170000
36.59057617,-83.58846000
36.62109375,-85.99854000
36.65161133,-88.98387000
36.68212891,-89.58401000
36.71264648,-87.58817000
36.74316406,-85.65445000
36.77368164,-84.97353000
36.80419922,-85.23970000
36.83471680,-85.89314000
36.86523438,-89.68423000
36.89575195,-91.91696000
36.92626953,-83.67496000
36.95678711,-82.14322000
36.98730469,-84.90776000
37.01782227,-86.13525000
37.04833984,-83.98556000
37.07885742,-84.20613000
37.10937500,-85.94181000
37.13989258,-86.91580000
37.17041016,-86.71867000
37.20092773,-86.92363000
37.23144531,-88.01234000
37.26196289,-89.39871000
37.29248047,-90.27419000
37.32299805,-91.24286000
37.35351563,-95.53262000
37.38403320,-102.43830000
37.41455078,-88.16667000
37.44506836,-83.90304000
37.47558594,-82.96805000
37.50610352,-83.74360000
37.53662109,-84.62180000
37.56713867,-84.76559000
37.59765625,-85.02756000
37.62817383,-86.60720000
37.65869141,-91.67194000
37.68920898,-107.07480000
37.71972656,-91.96756000
37.75024414,-89.66060000
37.78076172,-88.38459000
37.81127930,-87.21320000
37.84179688,-91.20096000
37.87231445,-95.85994000
37.90283203,-90.05313000
37.93334961,-94.42405000
37.96386719,-96.64169000
37.99438477,-87.44466000
38.02490234,-85.24242000
38.05541992,-85.09762000
38.08593750,-85.20038000
38.11645508,-85.07496000
38.14697266,-85.70764000
38.17749023,-87.96113000
38.20800781,-89.11301000
38.23852539,-88.38837000
38.26904297,-92.15331000
38.29956055,-102.37250000
38.33007813,-88.47202000
38.36059570,-85.00327000
38.39111328,-84.30226000
38.42163086,-84.78012000
38.45214844,-86.05363000
38.48266602,-89.03294000
38.51318359,-96.16399000
38.54370117,-97.43721000
38.57421875,-88.86250000
38.60473633,-85.66161000
38.63525391,-86.64410000
38.66577148,-94.04224000
38.69628906,-89.60918000
38.72680664,-84.93999000
38.75732422,-83.42241000
38.78784180,-82.90981000
38.81835938,-84.27965000
38.84887695,-86.52122000
38.87939453,-85.97076000
38.90991211,-85.83192000
38.94042969,-88.29253000
38.97094727,-92.60014000
39.00146484,-92.83301000
39.03198242,-89.89241000
39.06250000,-89.05160000
39.09301758,-86.86440000
39.12353516,-82.93571000
39.15405273,-81.72508000
39.18457031,-83.42239000
39.21508789,-85.26477000
39.24560547,-84.08278000
39.27612305,-82.76427000
39.30664063,-82.98667000
39.33715820,-85.23682000
39.36767578,-88.42845000
39.39819336,-90.23761000
39.42871094,-88.77961000
39.45922852,-86.80986000
39.48974609,-87.32144000
39.52026367,-90.53065000
39.55078125,-91.47569000
39.58129883,-91.73717000
39.61181641,-102.45420000
39.64233398,-89.62807000
39.67285156,-85.55885000
39.70336914,-86.45006000
39.73388672,-91.83766000
39.76440430,-108.53160000
39.79492188,-99.67570000
39.82543945,-91.68885000
39.85595703,-87.48195000
39.88647461,-85.45264000
39.91699219,-84.13278000
39.94750977,-83.20139000
39.97802734,-83.17027000
40.00854492,-85.07217000
40.03906250,-90.05242000
40.06958008,-91.24493000
40.10009766,-88.31717000
40.13061523,-88.62245000
40.16113281,-92.95592000
40.19165039,-100.06040000
40.22216797,-90.22820000
40.25268555,-85.35274000
40.28320313,-83.10078000
40.31372070,-83.17368000
40.34423828,-85.20961000
40.37475586,-86.28723000
40.40527344,-83.66340000
40.43579102,-81.91483000
40.46630859,-83.97683000
40.49682617,-94.57885000
40.52734375,-92.34346000
40.55786133,-87.03457000
40.58837891,-86.30100000
40.61889648,-85.94904000
40.64941406,-85.78907000
40.67993164,-86.56239000
40.71044922,-87.71682000
40.74096680,-87.84103000
40.77148438,-87.02564000
40.80200195,-86.81009000
40.83251953,-87.85193000
40.86303711,-87.93319000
40.89355469,-86.18327000
40.92407227,-86.19544000
40.95458984,-88.69346000
40.98510742,-90.88382000
41.01562500,-89.16785000
41.04614258,-86.59721000
41.07666016,-84.89907000
41.10717773,-84.51762000
41.13769531,-85.88238000
41.16821289,-88.86269000
41.19873047,-88.99121000
41.22924805,-86.17645000
41.25976563,-84.52885000
41.29028320,-83.88375000
41.32080078,-84.61136000
41.35131836,-88.43483000
41.38183594,-99.95597000
41.41235352,-99.94977000
41.44287109,-95.96902000
41.47338867,-90.24132000
41.50390625,-86.59029000
41.53442383,-84.38512000
41.56494141,-82.37495000
41.59545898,-81.44539000
41.62597656,-82.62285000
41.65649414,-87.99316000
41.68701172,-95.95124000
41.71752930,-86.11711000
41.74804688,-85.55238000
41.77856445,-92.51244000
41.80908203,-95.13649000
41.83959961,-86.41809000
41.87011719,-84.55327000
41.90063477,-83.50798000
41.93115234,-82.08328000
41.96166992,-81.99496000
41.99218750,-84.35457000
42.02270508,-91.10138000
42.05322266,-93.49323000
42.08374023,-87.22248000
42.11425781,-87.21703000
42.14477539,-89.45667000
42.17529297,-86.73689000
42.20581055,-85.02557000
42.23632813,-85.73903000
42.26684570,-87.86401000
42.29736328,-91.18167000
42.32788086,-94.75056000
42.35839844,-95.47121000
42.38891602,-93.20365000
42.41943359,-92.43933000
42.44995117,-95.11584000
42.48046875,-102.17810000
42.51098633,-102.83120000
42.54150391,-93.23352000
42.57202148,-87.76345000
42.60253906,-85.27478000
42.63305664,-85.19049000
42.66357422,-85.93130000
42.69409180,-87.29549000
42.72460938,-90.26994000
42.75512695,-90.95656000
42.78564453,-91.63666000
42.81616211,-97.41322000
42.84667969,-92.33205000
42.87719727,-89.16508000
42.90771484,-90.52441000
42.93823242,-89.58095000
42.96875000,-88.20621000
42.99926758,-89.55825000
43.02978516,-93.43976000
43.06030273,-102.52010000
43.09082031,-95.03964000
43.12133789,-87.93118000
43.15185547,-84.00403000
43.18237305,-81.98746000
43.21289063,-81.02011000
43.24340820,-80.46429000
43.27392578,-80.87177000
43.30444336,-83.10240000
43.33496094,-87.08879000
43.36547852,-89.95245000
43.39599609,-89.62885000
43.42651367,-89.43894000
43.45703125,-90.98938000
43.48754883,-94.62391000
43.51806641,-100.55230000
43.54858398,-106.70380000
43.57910156,-91.31871000
43.60961914,-85.94461000
43.64013672,-83.33932000
43.67065430,-81.78551000
43.70117188,-81.06605000
43.73168945,-81.58090000
43.76220703,-83.56190000
43.79272461,-86.52095000
43.82324219,-87.89334000
43.85375977,-87.44915000
43.88427734,-87.17897000
43.91479492,-86.30650000
43.94531250,-85.30896000
43.97583008,-85.94102000
44.00634766,-89.29590000
44.03686523,-95.50472000
44.06738281,-98.89993000
44.09790039,-108.60280000
44.12841797,-92.56066000
44.15893555,-86.13336000
44.18945313,-84.56595000
44.21997070,-85.80557000
44.25048828,-88.52370000
44.28100586,-91.61481000
44.31152344,-94.27959000
44.34204102,-96.00430000
44.37255859,-98.33526000
44.40307617,-99.08250000
44.43359375,-93.44894000
44.46411133,-89.06326000
44.49462891,-86.63860000
44.52514648,-84.08835000
44.55566406,-81.24221000
44.58618164,-80.03850000
44.61669922,-81.04371000
44.64721680,-82.96120000
44.67773438,-83.19518000
44.70825195,-82.90251000
44.73876953,-83.47840000
44.76928711,-84.89829000
44.79980469,-86.95603000
44.83032227,-89.80630000
44.86083984,-94.63676000
44.89135742,-102.57940000
44.92187500,-100.38960000
44.95239258,-92.82082000
44.98291016,-89.37623000
45.01342773,-89.88188000
45.04394531,-95.92248000
45.07446289,-101.43300000
45.10498047,-93.73866000
45.13549805,-93.78604000
45.16601563,-96.34566000
45.19653320,-97.18154000
45.22705078,-93.53089000
45.25756836,-88.31938000
45.28808594,-87.56084000
45.31860352,-93.67081000
45.34912109,-96.84361000
45.37963867,-88.60523000
45.41015625,-87.95703000
45.44067383,-93.13116000
45.47119141,-91.29593000
45.50170898,-84.50385000
45.53222656,-83.18364000
45.56274414,-85.33031000
45.59326172,-88.09892000
45.62377930,-85.77245000
45.65429688,-83.09711000
45.68481445,-82.55653000
45.71533203,-85.08991000
45.74584961,-91.33990000
45.77636719,-86.21323000
45.80688477,-82.29740000
45.83740234,-81.66180000
45.86791992,-82.11094000
45.89843750,-81.38974000
45.92895508,-79.76736000
45.95947266,-79.02446000
45.98999023,-79.94389000
46.02050781,-82.31435000
46.05102539,-85.24827000
46.08154297,-87.58887000
46.11206055,-87.68620000
46.14257813,-87.16721000
46.17309570,-89.28169000
46.20361328,-85.00675000
46.23413086,-80.11483000
46.26464844,-79.37168000
46.29516602,-82.61933000
46.32568359,-91.55746000
46.35620117,-90.34259000
46.38671875,-85.91927000
46.41723633,-84.51326000
46.44775391,-82.84422000
46.47827148,-81.30482000
46.50878906,-81.87431000
46.53930664,-85.21066000
46.56982422,-90.13750000
46.60034180,-92.41944000
46.63085938,-91.34334000
46.66137695,-88.23373000
46.69189453,-85.26785000
46.72241211,-83.53204000
46.75292969,-82.96742000
46.78344727,-84.16582000
46.81396484,-88.06619000
46.84448242,-85.78818000
46.87500000,-82.65720000
46.90551758,-84.95521000
46.93603516,-98.85693000
46.96655273,-88.61187000
46.99707031,-86.55905000
47.02758789,-88.80272000
47.05810547,-87.37161000
47.08862305,-86.66502000
47.11914063,-90.56520000
47.14965820,-91.00124000
47.18017578,-85.00451000
47.21069336,-83.06732000
47.24121094,-84.65427000
47.27172852,-90.99185000
47.30224609,-92.26089000
47.33276367,-85.13161000
47.36328125,-82.00569000
47.39379883,-80.94107000
47.42431641,-81.28226000
47.45483398,-82.16678000
47.48535156,-83.06422000
47.51586914,-84.65611000
47.54638672,-86.84971000
47.57690430,-87.11145000
47.60742188,-85.87724000
47.63793945,-85.61942000
47.66845703,-87.76500000
47.69897461,-93.65739000
47.72949219,-91.13222000
47.76000977,-85.14732000
47.79052734,-82.04025000
47.82104492,-80.66845000
47.85156250,-80.52048000
47.88208008,-81.63808000
47.91259766,-84.84933000
47.94311523,-91.57823000
47.97363281,-97.08869000
48.00415039,-89.84399000
48.03466797,-84.93611000
48.06518555,-83.88470000
48.09570313,-86.07967000
48.12622070,-90.08458000
48.15673828,-92.23160000
48.18725586,-91.90484000
48.21777344,-91.99820000
48.24829102,-88.98162000
48.27880859,-84.00550000
48.30932617,-80.89601000
48.33984375,-80.41614000
48.37036133,-83.08906000
48.40087891,-86.51565000
48.43139648,-84.08778000
48.46191406,-84.19152000
48.49243164,-89.34411000
48.52294922,-96.14846000
48.55346680,-90.15506000
48.58398438,-87.30258000
48.61450195,-86.61929000
48.64501953,-88.49922000
48.67553711,-91.62048000
48.70605469,-92.59037000
48.73657227,-93.21513000
48.76708984,-93.49455000
48.79760742,-93.96091000
48.82812500,-97.63656000
48.85864258,-92.45942000
48.88916016,-85.41096000
48.91967773,-82.97523000
48.95019531,-83.07155000
48.98071289,-83.35888000
49.01123047,-81.91220000
49.04174805,-79.68811000
49.07226563,-78.69406000
49.10278320,-79.44879000
49.13330078,-80.96450000
49.16381836,-81.49712000
49.19433594,-81.27232000
49.22485352,-81.36121000
49.25537109,-81.69603000
49.28588867,-82.00067000
49.31640625,-83.31913000
49.34692383,-87.78302000
49.37744141,-100.36720000
49.40795898,-92.66429000
49.43847656,-87.46163000
49.46899414,-84.07917000
49.49951172,-83.29297000
49.53002930,-84.87080000
49.56054688,-86.43404000
49.59106445,-87.64355000
49.62158203,-91.43678000
49.65209961,-98.24007000
49.68261719,-99.72558000
49.71313477,-103.53260000
49.74365234,-101.07910000
49.77416992,-90.20738000
49.80468750,-85.17564000
49.83520508,-84.34299000
49.86572266,-89.01222000
49.89624023,-94.72867000
49.92675781,-86.83183000
49.95727539,-87.13071000
49.98779297,-90.85799000
50.01831055,-91.64621000
