Frequency,Channel A
(MHz),(dBu)

0.00000000,-10.76623000
0.03051758,-11.18898000
0.06103516,-16.60374000
0.09155273,-27.14067000
0.12207031,-49.11733000
0.15258789,-51.91364000
0.18310547,-52.79873000
0.21362305,-56.88898000
0.24414063,-57.72232000
0.27465820,-55.50419000
0.30517578,-57.74146000
0.33569336,-58.36710000
0.36621094,-55.26140000
0.39672852,-52.06967000
0.42724609,-51.79930000
0.45776367,-55.56406000
0.48828125,-61.69278000
0.51879883,-57.56906000
0.54931641,-56.33408000
0.57983398,-58.79843000
0.61035156,-52.63623000
0.64086914,-48.72395000
0.67138672,-48.20425000
0.70190430,-49.42053000
0.73242188,-50.86910000
0.76293945,-52.34986000
0.79345703,-55.11394000
0.82397461,-62.28627000
0.85449219,-68.59020000
0.88500977,-59.30046000
0.91552734,-57.64335000
0.94604492,-58.70818000
0.97656250,-59.44411000
1.00708008,-56.90742000
1.03759766,-55.37904000
1.06811523,-56.76733000
1.09863281,-62.10371000
1.12915039,-59.43554000
1.15966797,-54.38569000
1.19018555,-53.57494000
1.22070313,-55.27748000
1.25122070,-56.12423000
1.28173828,-55.43634000
1.31225586,-55.61416000
1.34277344,-56.33892000
1.37329102,-56.60832000
1.40380859,-56.62640000
1.43432617,-57.34179000
1.46484375,-58.81876000
1.49536133,-59.16444000
1.52587891,-58.42633000
1.55639648,-58.61568000
1.58691406,-59.55245000
1.61743164,-60.48517000
1.64794922,-61.36816000
1.67846680,-60.91044000
1.70898438,-58.87783000
1.73950195,-57.47935000
1.77001953,-57.52928000
1.80053711,-58.78735000
1.83105469,-60.50510000
1.86157227,-62.16990000
1.89208984,-63.40820000
1.92260742,-63.22614000
1.95312500,-62.51289000
1.98364258,-62.14028000
2.01416016,-60.99189000
2.04467773,-59.63960000
2.07519531,-60.39368000
2.10571289,-65.13846000
2.13623047,-69.08879000
2.16674805,-62.39296000
2.19726563,-59.45313000
2.22778320,-58.96178000
2.25830078,-60.76166000
2.28881836,-65.44398000
2.31933594,-69.89253000
2.34985352,-68.18991000
2.38037109,-67.78546000
2.41088867,-66.16281000
2.44140625,-64.35176000
2.47192383,-63.80743000
2.50244141,-63.96851000
2.53295898,-62.97408000
2.56347656,-60.59135000
2.59399414,-59.36363000
2.62451172,-60.01305000
2.65502930,-61.46684000
2.68554688,-61.54187000
2.71606445,-60.99061000
2.74658203,-61.39703000
2.77709961,-62.35943000
2.80761719,-61.91357000
2.83813477,-60.27696000
2.86865234,-59.42856000
2.89916992,-59.75984000
2.92968750,-60.48260000
2.96020508,-60.70748000
2.99072266,-60.57162000
3.02124023,-60.36615000
3.05175781,-60.22480000
3.08227539,-60.51779000
3.11279297,-61.27023000
3.14331055,-62.10106000
3.17382813,-62.81560000
3.20434570,-62.66537000
3.23486328,-60.94719000
3.26538086,-59.30016000
3.29589844,-59.12266000
3.32641602,-60.93383000
3.35693359,-64.64766000
3.38745117,-64.77378000
3.41796875,-61.00790000
3.44848633,-59.01712000
3.47900391,-58.72244000
3.50952148,-58.80165000
3.54003906,-57.61419000
3.57055664,-56.17768000
3.60107422,-55.93521000
3.63159180,-56.73454000
3.66210938,-57.46259000
3.69262695,-57.75292000
3.72314453,-58.27278000
3.75366211,-59.13596000
3.78417969,-59.68499000
3.81469727,-59.15307000
3.84521484,-57.78963000
3.87573242,-56.55463000
3.90625000,-56.08696000
3.93676758,-56.56178000
3.96728516,-57.72249000
3.99780273,-58.66363000
4.02832031,-58.30021000
4.05883789,-57.15680000
4.08935547,-56.47157000
4.11987305,-56.68787000
4.15039063,-57.51209000
4.18090820,-58.40392000
4.21142578,-59.15322000
4.24194336,-59.28337000
4.27246094,-58.19211000
4.30297852,-56.89138000
4.33349609,-56.52499000
4.36401367,-57.26564000
4.39453125,-58.65228000
4.42504883,-59.82204000
4.45556641,-59.75658000
4.48608398,-58.62220000
4.51660156,-57.58731000
4.54711914,-57.07528000
4.57763672,-56.89324000
4.60815430,-56.88309000
4.63867188,-57.09244000
4.66918945,-57.56806000
4.69970703,-58.33456000
4.73022461,-59.23494000
4.76074219,-59.67252000
4.79125977,-59.29489000
4.82177734,-58.82137000
4.85229492,-58.83654000
4.88281250,-59.03786000
4.91333008,-59.03362000
4.94384766,-58.94388000
4.97436523,-58.80040000
5.00488281,-58.35589000
5.03540039,-57.62148000
5.06591797,-57.00694000
5.09643555,-56.82391000
5.12695313,-57.11494000
5.15747070,-57.81214000
5.18798828,-58.59269000
5.21850586,-58.74115000
5.24902344,-58.11960000
5.27954102,-57.53811000
5.31005859,-57.58576000
5.34057617,-58.23249000
5.37109375,-59.12108000
5.40161133,-59.86956000
5.43212891,-60.12484000
5.46264648,-59.78942000
5.49316406,-59.17947000
5.52368164,-58.79496000
5.55419922,-59.16845000
5.58471680,-60.68591000
5.61523438,-63.02042000
5.64575195,-64.28021000
5.67626953,-62.87157000
5.70678711,-60.58114000
5.73730469,-59.13955000
5.76782227,-58.56758000
5.79833984,-58.03743000
5.82885742,-56.91616000
5.85937500,-55.44797000
5.88989258,-54.26651000
5.92041016,-53.72149000
5.95092773,-53.67874000
5.98144531,-53.73816000
6.01196289,-53.75003000
6.04248047,-53.79881000
6.07299805,-53.77820000
6.10351563,-53.52943000
6.13403320,-53.22386000
6.16455078,-53.23483000
6.19506836,-53.68289000
6.22558594,-54.27757000
6.25610352,-54.74974000
6.28662109,-55.23205000
6.31713867,-55.81931000
6.34765625,-56.24382000
6.37817383,-56.24836000
6.40869141,-56.12215000
6.43920898,-56.44008000
6.46972656,-57.48610000
6.50024414,-59.01678000
6.53076172,-60.43557000
6.56127930,-61.55060000
6.59179688,-62.62569000
6.62231445,-63.63834000
6.65283203,-64.24242000
6.68334961,-64.60305000
6.71386719,-65.47856000
6.74438477,-67.23402000
6.77490234,-69.66148000
6.80541992,-72.52128000
6.83593750,-75.89377000
6.86645508,-78.80306000
6.89697266,-80.95463000
6.92749023,-84.03671000
6.95800781,-80.59314000
6.98852539,-77.30773000
7.01904297,-76.49388000
7.04956055,-77.96931000
7.08007813,-81.44289000
7.11059570,-83.45020000
7.14111328,-81.04393000
7.17163086,-78.14742000
7.20214844,-76.46105000
7.23266602,-75.96269000
7.26318359,-76.18919000
7.29370117,-77.42482000
7.32421875,-80.90721000
7.35473633,-87.70737000
7.38525391,-94.47432000
7.41577148,-85.72877000
7.44628906,-83.59303000
7.47680664,-86.11096000
7.50732422,-96.01953000
7.53784180,-86.42825000
7.56835938,-80.96532000
7.59887695,-79.03970000
7.62939453,-78.81117000
7.65991211,-80.24113000
7.69042969,-87.81679000
7.72094727,-84.17880000
7.75146484,-75.84607000
7.78198242,-73.17767000
7.81250000,-72.32819000
7.84301758,-72.29227000
7.87353516,-73.42232000
7.90405273,-75.40577000
7.93457031,-75.17697000
7.96508789,-73.74970000
7.99560547,-73.92281000
8.02612305,-73.56515000
8.05664063,-71.62938000
8.08715820,-70.78343000
8.11767578,-71.62069000
8.14819336,-73.31698000
8.17871094,-73.83668000
8.20922852,-72.99592000
8.23974609,-72.98936000
8.27026367,-75.21668000
8.30078125,-80.96623000
8.33129883,-80.88548000
8.36181641,-75.60188000
8.39233398,-73.09366000
8.42285156,-72.05998000
8.45336914,-72.27019000
8.48388672,-74.00752000
8.51440430,-76.94452000
8.54492188,-77.58714000
8.57543945,-75.97211000
8.60595703,-75.44794000
8.63647461,-76.12997000
8.66699219,-77.77545000
8.69750977,-80.97512000
8.72802734,-86.53365000
8.75854492,-92.62610000
8.78906250,-90.21651000
8.81958008,-86.53082000
8.85009766,-84.65471000
8.88061523,-83.55231000
8.91113281,-82.01507000
8.94165039,-78.78409000
8.97216797,-75.96327000
9.00268555,-76.42902000
9.03320313,-81.37276000
9.06372070,-79.81181000
9.09423828,-75.90176000
9.12475586,-75.07592000
9.15527344,-74.93696000
9.18579102,-74.44403000
9.21630859,-74.44872000
9.24682617,-76.14047000
9.27734375,-80.26857000
9.30786133,-86.80609000
9.33837891,-96.93172000
9.36889648,-92.52194000
9.39941406,-84.96817000
9.42993164,-83.38172000
9.46044922,-86.25050000
9.49096680,-103.56860000
9.52148438,-86.88798000
9.55200195,-82.38686000
9.58251953,-81.42233000
9.61303711,-81.00275000
9.64355469,-80.20455000
9.67407227,-80.05649000
9.70458984,-81.78565000
9.73510742,-86.48738000
9.76562500,-98.45260000
9.79614258,-94.58691000
9.82666016,-87.92519000
9.85717773,-84.68385000
9.88769531,-81.11499000
9.91821289,-77.52844000
9.94873047,-75.33614000
9.97924805,-75.18392000
10.00976563,-77.43900000
10.04028320,-81.36115000
10.07080078,-84.18243000
10.10131836,-87.69250000
10.13183594,-86.55682000
10.16235352,-86.79163000
10.19287109,-95.89072000
10.22338867,-84.65633000
10.25390625,-81.59829000
10.28442383,-82.47818000
10.31494141,-76.71012000
10.34545898,-71.84422000
10.37597656,-70.30517000
10.40649414,-71.03656000
10.43701172,-72.66969000
10.46752930,-73.50735000
10.49804688,-73.14129000
10.52856445,-72.81897000
10.55908203,-73.58791000
10.58959961,-75.72323000
10.62011719,-79.50689000
10.65063477,-85.06606000
10.68115234,-84.04343000
10.71166992,-79.29674000
10.74218750,-75.58922000
10.77270508,-74.37672000
10.80322266,-74.73476000
10.83374023,-73.23965000
10.86425781,-71.44597000
10.89477539,-71.20131000
10.92529297,-71.36848000
10.95581055,-71.18357000
10.98632813,-71.35168000
11.01684570,-72.94122000
11.04736328,-75.50798000
11.07788086,-72.06649000
11.10839844,-68.79297000
11.13891602,-68.28538000
11.16943359,-70.15578000
11.19995117,-72.97292000
11.23046875,-73.69088000
11.26098633,-74.62449000
11.29150391,-77.54621000
11.32202148,-81.42175000
11.35253906,-83.41663000
11.38305664,-77.78195000
11.41357422,-73.73269000
11.44409180,-71.62846000
11.47460938,-70.99720000
11.50512695,-71.50083000
11.53564453,-72.51051000
11.56616211,-74.02406000
11.59667969,-75.96430000
11.62719727,-76.61810000
11.65771484,-75.84904000
11.68823242,-75.87452000
11.71875000,-77.62119000
11.74926758,-78.70665000
11.77978516,-77.16040000
11.81030273,-77.42725000
11.84082031,-80.52640000
11.87133789,-81.12351000
11.90185547,-78.11388000
11.93237305,-76.45158000
11.96289063,-75.20599000
11.99340820,-73.25140000
12.02392578,-72.34570000
12.05444336,-72.77547000
12.08496094,-72.91801000
12.11547852,-73.82925000
12.14599609,-77.09557000
12.17651367,-83.79523000
12.20703125,-89.84798000
12.23754883,-76.24013000
12.26806641,-71.94728000
12.29858398,-70.91315000
12.32910156,-71.67845000
12.35961914,-72.47308000
12.39013672,-73.35010000
12.42065430,-78.12512000
12.45117188,-89.82144000
12.48168945,-75.34530000
12.51220703,-72.94565000
12.54272461,-74.22296000
12.57324219,-77.50912000
12.60375977,-81.09368000
12.63427734,-83.96257000
12.66479492,-88.36667000
12.69531250,-105.37650000
12.72583008,-84.81071000
12.75634766,-78.02808000
12.78686523,-73.76347000
12.81738281,-71.69414000
12.84790039,-71.21646000
12.87841797,-71.57906000
12.90893555,-72.72520000
12.93945313,-75.50155000
12.96997070,-81.73927000
13.00048828,-103.86700000
13.03100586,-85.00443000
13.06152344,-82.64138000
13.09204102,-84.57033000
13.12255859,-92.02766000
13.15307617,-89.90044000
13.18359375,-81.19757000
13.21411133,-77.05390000
13.24462891,-75.12139000
13.27514648,-74.93132000
13.30566406,-76.72143000
13.33618164,-82.14119000
13.36669922,-87.18216000
13.39721680,-80.30227000
13.42773438,-80.36037000
13.45825195,-79.56183000
13.48876953,-69.98014000
13.51928711,-64.74259000
13.54980469,-62.90630000
13.58032227,-64.20521000
13.61083984,-69.29183000
13.64135742,-82.67849000
13.67187500,-80.57275000
13.70239258,-76.83245000
13.73291016,-77.16510000
13.76342773,-78.91555000
13.79394531,-75.89854000
13.82446289,-70.61273000
13.85498047,-67.95435000
13.88549805,-67.88293000
13.91601563,-69.78223000
13.94653320,-72.60223000
13.97705078,-75.05849000
14.00756836,-76.45061000
14.03808594,-76.77345000
14.06860352,-76.50653000
14.09912109,-77.37721000
14.12963867,-81.18797000
14.16015625,-84.18922000
14.19067383,-82.51182000
14.22119141,-84.74888000
14.25170898,-89.73560000
14.28222656,-86.21444000
14.31274414,-82.91763000
14.34326172,-81.67180000
14.37377930,-80.21281000
14.40429688,-79.27380000
14.43481445,-80.39067000
14.46533203,-83.78011000
14.49584961,-89.13751000
14.52636719,-93.48548000
14.55688477,-95.28165000
14.58740234,-89.98206000
14.61791992,-81.94084000
14.64843750,-78.66483000
14.67895508,-78.39825000
14.70947266,-80.02927000
14.73999023,-82.20435000
14.77050781,-83.39804000
14.80102539,-83.14603000
14.83154297,-81.74214000
14.86206055,-79.87978000
14.89257813,-78.88849000
14.92309570,-79.65281000
14.95361328,-82.19466000
14.98413086,-86.42108000
15.01464844,-98.45772000
15.04516602,-89.00455000
15.07568359,-84.91543000
15.10620117,-85.54561000
15.13671875,-83.07385000
15.16723633,-75.58795000
15.19775391,-69.77283000
15.22827148,-67.11691000
15.25878906,-67.64213000
15.28930664,-71.79417000
15.31982422,-81.43005000
15.35034180,-84.54327000
15.38085938,-84.32944000
15.41137695,-92.30188000
15.44189453,-97.68723000
15.47241211,-87.87915000
15.50292969,-84.69463000
15.53344727,-83.57709000
15.56396484,-82.94289000
15.59448242,-82.68915000
15.62500000,-83.39181000
15.65551758,-85.43487000
15.68603516,-89.07545000
15.71655273,-89.04756000
15.74707031,-86.75983000
15.77758789,-85.99858000
15.80810547,-84.28888000
15.83862305,-83.07267000
15.86914063,-83.51366000
15.89965820,-84.85551000
15.93017578,-85.97073000
15.96069336,-88.27238000
15.99121094,-96.42250000
16.02172852,-88.83553000
16.05224609,-82.37431000
16.08276367,-79.77677000
16.11328125,-79.10761000
16.14379883,-79.41143000
16.17431641,-80.08037000
16.20483398,-80.65694000
16.23535156,-80.71843000
16.26586914,-80.94786000
16.29638672,-83.08948000
16.32690430,-86.96901000
16.35742188,-84.63820000
16.38793945,-82.24847000
16.41845703,-82.54509000
16.44897461,-84.60939000
16.47949219,-87.23936000
16.51000977,-86.86346000
16.54052734,-83.19558000
16.57104492,-80.88306000
16.60156250,-81.40410000
16.63208008,-85.45712000
16.66259766,-92.82365000
16.69311523,-94.00031000
16.72363281,-87.32240000
16.75415039,-85.27645000
16.78466797,-88.64616000
16.81518555,-100.49050000
16.84570313,-87.02205000
16.87622070,-82.47342000
16.90673828,-81.61717000
16.93725586,-81.50035000
16.96777344,-81.03614000
16.99829102,-83.30464000
17.02880859,-94.57260000
17.05932617,-89.19753000
17.08984375,-83.63054000
17.12036133,-82.63315000
17.15087891,-83.20171000
17.18139648,-84.16905000
17.21191406,-84.91634000
17.24243164,-86.19405000
17.27294922,-88.96922000
17.30346680,-93.62982000
17.33398438,-102.64700000
17.36450195,-102.41100000
17.39501953,-92.09270000
17.42553711,-88.36977000
17.45605469,-89.03711000
17.48657227,-100.70670000
17.51708984,-89.68349000
17.54760742,-83.33302000
17.57812500,-82.36756000
17.60864258,-84.82559000
17.63916016,-87.24155000
17.66967773,-79.51953000
17.70019531,-73.72589000
17.73071289,-71.46071000
17.76123047,-71.21327000
17.79174805,-70.38885000
17.82226563,-69.83906000
17.85278320,-72.00818000
17.88330078,-79.05077000
17.91381836,-89.16513000
17.94433594,-80.97110000
17.97485352,-81.79024000
18.00537109,-88.30415000
18.03588867,-88.37099000
18.06640625,-83.32702000
18.09692383,-81.33553000
18.12744141,-81.36014000
18.15795898,-83.97991000
18.18847656,-90.67467000
18.21899414,-107.38270000
18.24951172,-100.10800000
18.28002930,-92.18881000
18.31054688,-86.16966000
18.34106445,-83.14328000
18.37158203,-82.57636000
18.40209961,-83.11108000
18.43261719,-83.51151000
18.46313477,-84.43036000
18.49365234,-88.59621000
18.52416992,-98.14160000
18.55468750,-91.20631000
18.58520508,-87.63360000
18.61572266,-82.94990000
18.64624023,-80.46645000
18.67675781,-80.62595000
18.70727539,-82.42901000
18.73779297,-84.04227000
18.76831055,-83.41874000
18.79882813,-80.84145000
18.82934570,-78.64084000
18.85986328,-78.31037000
18.89038086,-80.22980000
18.92089844,-83.59114000
18.95141602,-85.77506000
18.98193359,-86.46080000
19.01245117,-88.14458000
19.04296875,-87.30988000
19.07348633,-85.75430000
19.10400391,-87.47179000
19.13452148,-88.67931000
19.16503906,-85.91525000
19.19555664,-83.70219000
19.22607422,-85.42840000
19.25659180,-92.36996000
19.28710938,-88.29469000
19.31762695,-87.51019000
19.34814453,-94.39468000
19.37866211,-96.57439000
19.40917969,-89.29990000
19.43969727,-88.21335000
19.47021484,-87.23335000
19.50073242,-84.47697000
19.53125000,-83.02303000
19.56176758,-84.18632000
19.59228516,-88.64799000
19.62280273,-92.27154000
19.65332031,-87.40020000
19.68383789,-83.64684000
19.71435547,-81.72876000
19.74487305,-82.63976000
19.77539063,-87.81725000
19.80590820,-97.06516000
19.83642578,-101.56880000
19.86694336,-88.31353000
19.89746094,-84.10302000
19.92797852,-84.11499000
19.95849609,-84.49850000
19.98901367,-81.74453000
20.01953125,-78.64534000
20.05004883,-77.46682000
20.08056641,-78.82441000
20.11108398,-82.55746000
20.14160156,-88.26254000
20.17211914,-96.48463000
20.20263672,-90.11664000
20.23315430,-85.62126000
20.26367188,-85.38291000
20.29418945,-87.97006000
20.32470703,-90.66567000
20.35522461,-90.20024000
20.38574219,-87.16655000
20.41625977,-84.82438000
20.44677734,-85.94289000
20.47729492,-90.50938000
20.50781250,-94.63227000
20.53833008,-103.28510000
20.56884766,-93.42448000
20.59936523,-93.90233000
20.62988281,-94.92574000
20.66040039,-102.33610000
20.69091797,-84.71351000
20.72143555,-80.10991000
20.75195313,-79.79871000
20.78247070,-81.20255000
20.81298828,-83.32253000
20.84350586,-86.99256000
20.87402344,-87.71935000
20.90454102,-84.43131000
20.93505859,-83.35342000
20.96557617,-84.65752000
20.99609375,-84.72821000
21.02661133,-85.56637000
21.05712891,-87.91711000
21.08764648,-83.60591000
21.11816406,-82.38145000
21.14868164,-86.08074000
21.17919922,-90.00148000
21.20971680,-82.09506000
21.24023438,-79.88679000
21.27075195,-80.69011000
21.30126953,-81.42438000
21.33178711,-81.76953000
21.36230469,-83.05858000
21.39282227,-83.35300000
21.42333984,-81.60858000
21.45385742,-80.59647000
21.48437500,-80.25069000
21.51489258,-80.62001000
21.54541016,-82.86998000
21.57592773,-86.83882000
21.60644531,-89.75694000
21.63696289,-90.23464000
21.66748047,-90.02565000
21.69799805,-85.66651000
21.72851563,-82.94975000
21.75903320,-84.49750000
21.78955078,-91.84685000
21.82006836,-100.33890000
21.85058594,-94.90234000
21.88110352,-93.27316000
21.91162109,-87.95551000
21.94213867,-83.33473000
21.97265625,-81.33801000
22.00317383,-81.02127000
22.03369141,-81.84859000
22.06420898,-84.52240000
22.09472656,-91.40517000
22.12524414,-96.51710000
22.15576172,-88.61929000
22.18627930,-85.75610000
22.21679688,-85.47470000
22.24731445,-86.58586000
22.27783203,-88.61314000
22.30834961,-92.70456000
22.33886719,-98.74361000
22.36938477,-100.21620000
22.39990234,-100.31350000
22.43041992,-101.44010000
22.46093750,-101.41040000
22.49145508,-95.28626000
22.52197266,-89.65214000
22.55249023,-89.77872000
22.58300781,-94.11331000
22.61352539,-89.81026000
22.64404297,-87.49745000
22.67456055,-87.44019000
22.70507813,-87.25334000
22.73559570,-86.88720000
22.76611328,-86.29779000
22.79663086,-85.52655000
22.82714844,-85.14790000
22.85766602,-85.89150000
22.88818359,-87.75781000
22.91870117,-90.37163000
22.94921875,-94.37773000
22.97973633,-101.39880000
23.01025391,-99.16739000
23.04077148,-93.61208000
23.07128906,-89.37046000
23.10180664,-86.84707000
23.13232422,-87.36694000
23.16284180,-90.20250000
23.19335938,-87.10500000
23.22387695,-85.22297000
23.25439453,-87.75800000
23.28491211,-95.97260000
23.31542969,-108.37460000
23.34594727,-101.04480000
23.37646484,-96.54670000
23.40698242,-93.77662000
23.43750000,-91.28609000
23.46801758,-88.36868000
23.49853516,-85.46889000
23.52905273,-83.48778000
23.55957031,-83.17564000
23.59008789,-84.96095000
23.62060547,-88.98186000
23.65112305,-92.86633000
23.68164063,-93.90100000
23.71215820,-98.47711000
23.74267578,-97.57770000
23.77319336,-89.96175000
23.80371094,-87.91295000
23.83422852,-88.98182000
23.86474609,-92.23967000
23.89526367,-97.69702000
23.92578125,-90.96201000
23.95629883,-86.56546000
23.98681641,-86.07955000
24.01733398,-87.75089000
24.04785156,-91.20683000
24.07836914,-99.89216000
24.10888672,-90.76566000
24.13940430,-88.56718000
24.16992188,-90.38116000
24.20043945,-91.73090000
24.23095703,-100.51960000
24.26147461,-93.41702000
24.29199219,-86.76316000
24.32250977,-84.92432000
24.35302734,-84.92369000
24.38354492,-85.62552000
24.41406250,-84.26036000
24.44458008,-82.62166000
24.47509766,-83.02168000
24.50561523,-84.97130000
24.53613281,-86.93578000
24.56665039,-87.87653000
24.59716797,-88.08897000
24.62768555,-88.77392000
24.65820313,-91.05775000
24.68872070,-94.63885000
24.71923828,-95.77994000
24.74975586,-96.88272000
24.78027344,-98.53646000
24.81079102,-94.13048000
24.84130859,-89.47792000
24.87182617,-88.42449000
24.90234375,-90.98866000
24.93286133,-94.87000000
24.96337891,-94.25456000
24.99389648,-89.66801000
25.02441406,-87.69524000
25.05493164,-89.83508000
25.08544922,-100.34110000
25.11596680,-95.33516000
25.14648438,-87.78833000
25.17700195,-84.86943000
25.20751953,-83.66390000
25.23803711,-83.12911000
25.26855469,-82.76881000
25.29907227,-83.03650000
25.32958984,-84.98054000
25.36010742,-88.76380000
25.39062500,-93.40538000
25.42114258,-100.20450000
25.45166016,-93.84299000
25.48217773,-91.35490000
25.51269531,-92.03895000
25.54321289,-90.96152000
25.57373047,-90.10291000
25.60424805,-87.80000000
25.63476563,-85.00236000
25.66528320,-85.38591000
25.69580078,-89.23901000
25.72631836,-91.41281000
25.75683594,-89.55685000
25.78735352,-89.12690000
25.81787109,-89.52591000
25.84838867,-88.94972000
25.87890625,-87.26409000
25.90942383,-85.51433000
25.93994141,-84.50084000
25.97045898,-84.61844000
26.00097656,-85.70889000
26.03149414,-88.02741000
26.06201172,-91.30293000
26.09252930,-89.37651000
26.12304688,-87.24033000
26.15356445,-87.87892000
26.18408203,-89.17798000
26.21459961,-89.26775000
26.24511719,-88.27437000
26.27563477,-87.38019000
26.30615234,-88.05960000
26.33666992,-91.09097000
26.36718750,-107.85980000
26.39770508,-90.56553000
26.42822266,-85.32332000
26.45874023,-85.16704000
26.48925781,-88.88477000
26.51977539,-92.68018000
26.55029297,-89.72271000
26.58081055,-88.33015000
26.61132813,-87.14368000
26.64184570,-85.55177000
26.67236328,-84.70215000
26.70288086,-85.08731000
26.73339844,-87.36118000
26.76391602,-95.63969000
26.79443359,-94.89471000
26.82495117,-87.03851000
26.85546875,-84.98941000
26.88598633,-84.65809000
26.91650391,-85.49015000
26.94702148,-88.69175000
26.97753906,-96.25751000
27.00805664,-92.20656000
27.03857422,-89.45125000
27.06909180,-90.41607000
27.09960938,-89.58450000
27.13012695,-86.43050000
27.16064453,-84.48607000
27.19116211,-83.57407000
27.22167969,-82.95910000
27.25219727,-83.15937000
27.28271484,-84.88150000
27.31323242,-87.89520000
27.34375000,-89.07925000
27.37426758,-87.12360000
27.40478516,-85.67638000
27.43530273,-85.44922000
27.46582031,-86.28353000
27.49633789,-87.83128000
27.52685547,-88.76410000
27.55737305,-89.34190000
27.58789063,-90.74940000
27.61840820,-87.35184000
27.64892578,-84.98088000
27.67944336,-87.77496000
27.70996094,-93.60411000
27.74047852,-86.85042000
27.77099609,-85.34830000
27.80151367,-86.65795000
27.83203125,-88.45742000
27.86254883,-90.64866000
27.89306641,-89.67361000
27.92358398,-88.02371000
27.95410156,-90.88464000
27.98461914,-91.56242000
28.01513672,-87.66408000
28.04565430,-88.78259000
28.07617188,-93.85269000
28.10668945,-89.80548000
28.13720703,-87.03497000
28.16772461,-88.32179000
28.19824219,-91.37674000
28.22875977,-90.45381000
28.25927734,-89.40115000
28.28979492,-89.60283000
28.32031250,-91.04203000
28.35083008,-94.34784000
28.38134766,-99.71986000
28.41186523,-92.26769000
28.44238281,-88.43047000
28.47290039,-88.95773000
28.50341797,-92.99429000
28.53393555,-95.47438000
28.56445313,-92.81651000
28.59497070,-87.66228000
28.62548828,-82.96662000
28.65600586,-80.67885000
28.68652344,-80.78446000
28.71704102,-82.87937000
28.74755859,-86.82034000
28.77807617,-96.00729000
28.80859375,-92.24768000
28.83911133,-84.33919000
28.86962891,-82.35062000
28.90014648,-84.51698000
28.93066406,-93.28746000
28.96118164,-92.09492000
28.99169922,-85.86564000
29.02221680,-83.98666000
29.05273438,-83.60856000
29.08325195,-83.65276000
29.11376953,-85.24270000
29.14428711,-91.84489000
29.17480469,-101.15580000
29.20532227,-102.14270000
29.23583984,-94.77756000
29.26635742,-87.05672000
29.29687500,-85.31776000
29.32739258,-85.76208000
29.35791016,-86.98295000
29.38842773,-88.99998000
29.41894531,-91.91342000
29.44946289,-93.59991000
29.47998047,-90.97021000
29.51049805,-87.55052000
29.54101563,-85.98409000
29.57153320,-86.10574000
29.60205078,-86.47468000
29.63256836,-86.33466000
29.66308594,-86.70856000
29.69360352,-88.73349000
29.72412109,-93.66170000
29.75463867,-95.24506000
29.78515625,-90.19200000
29.81567383,-85.02695000
29.84619141,-82.42123000
29.87670898,-81.78339000
29.90722656,-81.07645000
29.93774414,-81.15688000
29.96826172,-83.36880000
29.99877930,-83.05696000
30.02929688,-81.05626000
30.05981445,-80.46970000
30.09033203,-80.99963000
30.12084961,-83.33215000
30.15136719,-84.76317000
30.18188477,-84.63626000
30.21240234,-88.22495000
30.24291992,-110.04450000
30.27343750,-90.25272000
30.30395508,-85.69970000
30.33447266,-84.34766000
30.36499023,-85.04655000
30.39550781,-88.21059000
30.42602539,-94.24468000
30.45654297,-98.75502000
30.48706055,-94.72882000
30.51757813,-93.23038000
30.54809570,-95.17355000
30.57861328,-94.62409000
30.60913086,-89.18433000
30.63964844,-87.05715000
30.67016602,-89.29585000
30.70068359,-97.57626000
30.73120117,-100.05630000
30.76171875,-96.88760000
30.79223633,-96.06322000
30.82275391,-92.03010000
30.85327148,-86.60529000
30.88378906,-82.55664000
30.91430664,-80.78671000
30.94482422,-81.98709000
30.97534180,-87.44907000
31.00585938,-93.03796000
31.03637695,-89.69398000
31.06689453,-92.95643000
31.09741211,-108.33580000
31.12792969,-92.22722000
31.15844727,-89.53246000
31.18896484,-89.65408000
31.21948242,-89.90286000
31.25000000,-90.14807000
31.28051758,-88.70022000
31.31103516,-85.99587000
31.34155273,-84.44825000
31.37207031,-84.16927000
31.40258789,-84.65744000
31.43310547,-85.53779000
31.46362305,-87.41154000
31.49414063,-92.10945000
31.52465820,-104.78750000
31.55517578,-105.14930000
31.58569336,-102.76000000
31.61621094,-104.58570000
31.64672852,-104.24040000
31.67724609,-96.39919000
31.70776367,-94.30048000
31.73828125,-92.99015000
31.76879883,-92.60483000
31.79931641,-92.88406000
31.82983398,-91.40793000
31.86035156,-90.70595000
31.89086914,-90.90522000
31.92138672,-90.87567000
31.95190430,-90.69940000
31.98242188,-91.56609000
32.01293945,-95.10303000
32.04345703,-94.53686000
32.07397461,-92.55821000
32.10449219,-102.18600000
32.13500977,-91.33134000
32.16552734,-83.71232000
32.19604492,-80.91958000
32.22656250,-80.61660000
32.25708008,-82.11082000
32.28759766,-84.67255000
32.31811523,-86.57036000
32.34863281,-86.91696000
32.37915039,-87.46238000
32.40966797,-88.90570000
32.44018555,-90.60834000
32.47070313,-92.34731000
32.50122070,-91.41917000
32.53173828,-89.17859000
32.56225586,-88.40509000
32.59277344,-86.50368000
32.62329102,-85.54686000
32.65380859,-89.67444000
32.68432617,-98.53172000
32.71484375,-86.81133000
32.74536133,-85.22678000
32.77587891,-86.79446000
32.80639648,-85.96417000
32.83691406,-83.73827000
32.86743164,-83.07029000
32.89794922,-83.94318000
32.92846680,-86.19080000
32.95898438,-89.52157000
32.98950195,-91.01754000
33.02001953,-89.45995000
33.05053711,-88.92842000
33.08105469,-91.28276000
33.11157227,-100.73440000
33.14208984,-99.31693000
33.17260742,-92.09236000
33.20312500,-88.84288000
33.23364258,-87.06799000
33.26416016,-87.43176000
33.29467773,-89.57948000
33.32519531,-90.52451000
33.35571289,-88.65712000
33.38623047,-87.86640000
33.41674805,-88.73395000
33.44726563,-89.35196000
33.47778320,-89.48943000
33.50830078,-91.31302000
33.53881836,-96.56677000
33.56933594,-98.33777000
33.59985352,-90.94807000
33.63037109,-86.95161000
33.66088867,-84.98851000
33.69140625,-83.88416000
33.72192383,-82.31744000
33.75244141,-80.60880000
33.78295898,-79.96798000
33.81347656,-80.70835000
33.84399414,-82.35201000
33.87451172,-83.83582000
33.90502930,-84.10899000
33.93554688,-83.68474000
33.96606445,-84.14186000
33.99658203,-86.12164000
34.02709961,-88.03165000
34.05761719,-88.41089000
34.08813477,-87.96447000
34.11865234,-86.83872000
34.14916992,-87.64464000
34.17968750,-92.25073000
34.21020508,-104.38240000
34.24072266,-97.31862000
34.27124023,-90.42963000
34.30175781,-85.39967000
34.33227539,-82.92101000
34.36279297,-83.96341000
34.39331055,-87.24667000
34.42382813,-86.12868000
34.45434570,-85.68509000
34.48486328,-88.46570000
34.51538086,-92.66830000
34.54589844,-93.62789000
34.57641602,-89.64427000
34.60693359,-87.52225000
34.63745117,-88.05490000
34.66796875,-88.56826000
34.69848633,-87.89321000
34.72900391,-90.07294000
34.75952148,-98.99515000
34.79003906,-92.24060000
34.82055664,-87.88882000
34.85107422,-84.60789000
34.88159180,-81.29276000
34.91210938,-80.18962000
34.94262695,-82.26654000
34.97314453,-88.48146000
35.00366211,-90.36293000
35.03417969,-87.11518000
35.06469727,-87.70451000
35.09521484,-88.30765000
35.12573242,-86.31943000
35.15625000,-86.91051000
35.18676758,-89.17407000
35.21728516,-85.81544000
35.24780273,-84.62093000
35.27832031,-87.08685000
35.30883789,-92.79868000
35.33935547,-111.10660000
35.36987305,-93.92807000
35.40039063,-88.36810000
35.43090820,-88.14932000
35.46142578,-92.76005000
35.49194336,-95.49137000
35.52246094,-91.31252000
35.55297852,-90.16072000
35.58349609,-88.46750000
35.61401367,-86.08669000
35.64453125,-85.30132000
35.67504883,-86.83069000
35.70556641,-91.15563000
35.73608398,-97.80428000
35.76660156,-92.16362000
35.79711914,-87.49889000
35.82763672,-83.96760000
35.85815430,-81.35773000
35.88867188,-80.74030000
35.91918945,-83.00164000
35.94970703,-88.96811000
35.98022461,-89.84978000
36.01074219,-87.80110000
36.04125977,-88.28448000
36.07177734,-88.09515000
36.10229492,-87.53613000
36.13281250,-85.23892000
36.16333008,-82.75375000
36.19384766,-83.05050000
36.22436523,-87.49074000
36.25488281,-84.60023000
36.28540039,-80.39565000
36.31591797,-80.83215000
36.34643555,-85.24311000
36.37695313,-86.90410000
36.40747070,-84.68385000
36.43798828,-85.82398000
36.46850586,-90.60297000
36.49902344,-101.97600000
36.52954102,-99.76735000
36.56005859,-92.31824000
36.59057617,-90.48997000
36.62109375,-91.55167000
36.65161133,-86.37917000
36.68212891,-82.01728000
36.71264648,-81.44398000
36.74316406,-84.87663000
36.77368164,-92.73507000
36.80419922,-88.08493000
36.83471680,-85.93230000
36.86523438,-87.32121000
36.89575195,-91.77786000
36.92626953,-100.14680000
36.95678711,-86.89526000
36.98730469,-83.61701000
37.01782227,-83.89263000
37.04833984,-85.35392000
37.07885742,-87.03394000
37.10937500,-90.49896000
37.13989258,-94.55847000
37.17041016,-91.27647000
37.20092773,-88.80515000
37.23144531,-87.52674000
37.26196289,-87.05453000
37.29248047,-87.12358000
37.32299805,-85.59312000
37.35351563,-84.18946000
37.38403320,-85.46352000
37.41455078,-89.06059000
37.44506836,-90.66106000
37.47558594,-91.25755000
37.50610352,-91.43535000
37.53662109,-91.14445000
37.56713867,-90.29181000
37.59765625,-87.20857000
37.62817383,-84.81151000
37.65869141,-84.42230000
37.68920898,-86.16595000
37.71972656,-89.76190000
37.75024414,-93.58784000
37.78076172,-93.77308000
37.81127930,-91.40953000
37.84179688,-90.08171000
37.87231445,-88.49621000
37.90283203,-86.77357000
37.93334961,-87.74435000
37.96386719,-91.83270000
37.99438477,-90.93586000
38.02490234,-88.81491000
38.05541992,-88.88345000
38.08593750,-89.93990000
38.11645508,-91.96756000
38.14697266,-93.53835000
38.17749023,-94.76268000
38.20800781,-99.83846000
38.23852539,-96.12910000
38.26904297,-91.73870000
38.29956055,-92.14967000
38.33007813,-96.43333000
38.36059570,-108.39650000
38.39111328,-105.21900000
38.42163086,-99.10243000
38.45214844,-96.82236000
38.48266602,-98.25592000
38.51318359,-105.81700000
38.54370117,-90.96864000
38.57421875,-87.21749000
38.60473633,-86.73413000
38.63525391,-84.96726000
38.66577148,-83.08211000
38.69628906,-82.09291000
38.72680664,-81.89270000
38.75732422,-83.86773000
38.78784180,-91.59103000
38.81835938,-94.36743000
38.84887695,-86.09517000
38.87939453,-85.53482000
38.90991211,-88.85713000
38.94042969,-93.67004000
38.97094727,-93.41310000
39.00146484,-90.10728000
39.03198242,-89.08364000
39.06250000,-90.36328000
39.09301758,-91.27902000
39.12353516,-88.50539000
39.15405273,-86.18763000
39.18457031,-86.87325000
39.21508789,-89.00569000
39.24560547,-86.43620000
39.27612305,-84.48540000
39.30664063,-85.97005000
39.33715820,-92.50188000
39.36767578,-107.65830000
39.39819336,-93.55521000
39.42871094,-90.84555000
39.45922852,-89.75971000
39.48974609,-89.66338000
39.52026367,-89.10991000
39.55078125,-86.90601000
39.58129883,-84.58517000
39.61181641,-83.84346000
39.64233398,-85.42825000
39.67285156,-89.55360000
39.70336914,-92.46950000
39.73388672,-90.91931000
39.76440430,-89.14407000
39.79492188,-87.15283000
39.82543945,-86.09626000
39.85595703,-85.96241000
39.88647461,-86.66416000
39.91699219,-89.47877000
39.94750977,-94.74547000
39.97802734,-90.08598000
40.00854492,-87.30400000
40.03906250,-87.68268000
40.06958008,-87.31528000
40.10009766,-84.73709000
40.13061523,-83.83672000
40.16113281,-85.90300000
40.19165039,-88.29955000
40.22216797,-86.03885000
40.25268555,-85.65842000
40.28320313,-89.50062000
40.31372070,-91.60713000
40.34423828,-85.43797000
40.37475586,-82.19451000
40.40527344,-80.96907000
40.43579102,-80.84412000
40.46630859,-81.27296000
40.49682617,-82.35741000
40.52734375,-83.79455000
40.55786133,-85.10867000
40.58837891,-86.38599000
40.61889648,-87.73312000
40.64941406,-90.32764000
40.67993164,-95.64742000
40.71044922,-102.34270000
40.74096680,-97.62616000
40.77148438,-90.43925000
40.80200195,-85.34026000
40.83251953,-83.29494000
40.86303711,-84.13940000
40.89355469,-86.53526000
40.92407227,-87.20116000
40.95458984,-86.41873000
40.98510742,-85.45201000
41.01562500,-85.01138000
41.04614258,-88.23040000
41.07666016,-97.19588000
41.10717773,-85.32777000
41.13769531,-82.76946000
41.16821289,-84.73656000
41.19873047,-90.12743000
41.22924805,-93.63583000
41.25976563,-88.26285000
41.29028320,-82.57076000
41.32080078,-79.70457000
41.35131836,-79.27258000
41.38183594,-80.68364000
41.41235352,-83.21046000
41.44287109,-85.48577000
41.47338867,-85.33357000
41.50390625,-83.06426000
41.53442383,-81.05783000
41.56494141,-80.30198000
41.59545898,-80.80098000
41.62597656,-82.70477000
41.65649414,-87.42942000
41.68701172,-93.05080000
41.71752930,-85.64836000
41.74804688,-82.96393000
41.77856445,-82.98611000
41.80908203,-83.90961000
41.83959961,-85.02168000
41.87011719,-86.51936000
41.90063477,-88.62411000
41.93115234,-90.00206000
41.96166992,-87.95948000
41.99218750,-87.03975000
42.02270508,-90.10883000
42.05322266,-102.51100000
42.08374023,-95.28528000
42.11425781,-90.37364000
42.14477539,-89.31609000
42.17529297,-89.97997000
42.20581055,-92.31393000
42.23632813,-97.42967000
42.26684570,-91.34320000
42.29736328,-86.48652000
42.32788086,-86.04794000
42.35839844,-89.36201000
42.38891602,-92.03297000
42.41943359,-90.92751000
42.44995117,-94.10706000
42.48046875,-97.34253000
42.51098633,-88.63638000
42.54150391,-85.95793000
42.57202148,-85.84781000
42.60253906,-86.23108000
42.63305664,-85.48181000
42.66357422,-83.85030000
42.69409180,-83.42797000
42.72460938,-85.29418000
42.75512695,-89.04560000
42.78564453,-90.91490000
42.81616211,-90.58292000
42.84667969,-92.56055000
42.87719727,-99.15536000
42.90771484,-92.61816000
42.93823242,-88.33792000
42.96875000,-88.37164000
42.99926758,-91.29501000
43.02978516,-96.79504000
43.06030273,-96.96975000
43.09082031,-93.32887000
43.12133789,-91.93321000
43.15185547,-90.20245000
43.18237305,-89.69524000
43.21289063,-89.88247000
43.24340820,-88.09250000
43.27392578,-87.97195000
43.30444336,-90.12165000
43.33496094,-90.77339000
43.36547852,-87.79002000
43.39599609,-84.19466000
43.42651367,-82.02007000
43.45703125,-82.34845000
43.48754883,-86.09651000
43.51806641,-95.55133000
43.54858398,-94.19136000
43.57910156,-86.96851000
43.60961914,-82.91962000
43.64013672,-80.99570000
43.67065430,-81.28643000
43.70117188,-84.54993000
43.73168945,-93.24802000
43.76220703,-100.13300000
43.79272461,-94.18328000
43.82324219,-89.31204000
43.85375977,-88.96632000
43.88427734,-97.68304000
43.91479492,-94.18050000
43.94531250,-89.54826000
43.97583008,-93.18404000
44.00634766,-89.68736000
44.03686523,-85.77541000
44.06738281,-87.44806000
44.09790039,-93.74696000
44.12841797,-89.23347000
44.15893555,-86.44962000
44.18945313,-86.41380000
44.21997070,-86.34663000
44.25048828,-84.98209000
44.28100586,-82.21447000
44.31152344,-79.22275000
44.34204102,-77.58218000
44.37255859,-78.05276000
44.40307617,-81.06590000
44.43359375,-86.85773000
44.46411133,-95.87280000
44.49462891,-100.88830000
44.52514648,-90.69939000
44.55566406,-89.22997000
44.58618164,-88.66067000
44.61669922,-85.27665000
44.64721680,-83.29987000
44.67773438,-83.69421000
44.70825195,-86.26559000
44.73876953,-89.69511000
44.76928711,-90.11392000
44.79980469,-88.21204000
44.83032227,-85.92216000
44.86083984,-84.24865000
44.89135742,-84.26284000
44.92187500,-87.34959000
44.95239258,-88.69350000
44.98291016,-82.61043000
45.01342773,-79.65859000
45.04394531,-79.95841000
45.07446289,-84.02988000
45.10498047,-93.58695000
45.13549805,-87.50194000
45.16601563,-84.03526000
45.19653320,-84.19991000
45.22705078,-87.48249000
45.25756836,-96.18150000
45.28808594,-107.76590000
45.31860352,-92.89748000
45.34912109,-83.42674000
45.37963867,-79.34361000
45.41015625,-79.18279000
45.44067383,-82.55731000
45.47119141,-89.13948000
45.50170898,-89.65659000
45.53222656,-87.06498000
45.56274414,-87.28105000
45.59326172,-88.83248000
45.62377930,-87.68326000
45.65429688,-84.29551000
45.68481445,-83.24917000
45.71533203,-86.95866000
45.74584961,-86.24336000
45.77636719,-81.42051000
45.80688477,-81.36547000
45.83740234,-84.05304000
45.86791992,-85.42590000
45.89843750,-85.35997000
45.92895508,-85.37292000
45.95947266,-83.63766000
45.98999023,-80.55878000
46.02050781,-78.69154000
46.05102539,-79.40294000
46.08154297,-82.80659000
46.11206055,-85.71954000
46.14257813,-84.49863000
46.17309570,-83.41035000
46.20361328,-85.02744000
46.23413086,-92.53525000
46.26464844,-94.99921000
46.29516602,-87.92767000
46.32568359,-85.70548000
46.35620117,-80.70771000
46.38671875,-78.38601000
46.41723633,-80.05355000
46.44775391,-86.38434000
46.47827148,-94.31953000
46.50878906,-87.79189000
46.53930664,-84.82701000
46.56982422,-84.13807000
46.60034180,-85.57041000
46.63085938,-87.39581000
46.66137695,-84.85857000
46.69189453,-82.03839000
46.72241211,-81.49364000
46.75292969,-82.65644000
46.78344727,-84.33185000
46.81396484,-86.79298000
46.84448242,-90.24681000
46.87500000,-89.51442000
46.90551758,-85.76583000
46.93603516,-83.30881000
46.96655273,-81.91082000
46.99707031,-80.88745000
47.02758789,-80.42354000
47.05810547,-81.87044000
47.08862305,-86.69997000
47.11914063,-87.29968000
47.14965820,-84.93183000
47.18017578,-86.98782000
47.21069336,-92.02083000
47.24121094,-96.64211000
47.27172852,-96.32652000
47.30224609,-88.85216000
47.33276367,-82.43453000
47.36328125,-78.94116000
47.39379883,-77.85876000
47.42431641,-78.59985000
47.45483398,-80.59765000
47.48535156,-83.52090000
47.51586914,-88.02677000
47.54638672,-95.25153000
47.57690430,-96.36702000
47.60742188,-94.30423000
47.63793945,-94.98383000
47.66845703,-102.94340000
47.69897461,-94.84870000
47.72949219,-88.13597000
47.76000977,-85.97284000
47.79052734,-85.71053000
47.82104492,-86.61023000
47.85156250,-88.01369000
47.88208008,-84.99228000
47.91259766,-81.76765000
47.94311523,-81.46515000
47.97363281,-82.81731000
48.00415039,-82.59225000
48.03466797,-82.32434000
48.06518555,-85.01837000
48.09570313,-91.39670000
48.12622070,-90.69556000
48.15673828,-93.01929000
48.18725586,-99.59383000
48.21777344,-89.14751000
48.24829102,-87.07268000
48.27880859,-86.89304000
48.30932617,-87.25937000
48.33984375,-87.77294000
48.37036133,-88.43826000
48.40087891,-89.17056000
48.43139648,-90.63355000
48.46191406,-96.30475000
48.49243164,-99.14802000
48.52294922,-90.29027000
48.55346680,-86.69170000
48.58398438,-85.54712000
48.61450195,-86.82323000
48.64501953,-91.28392000
48.67553711,-106.07960000
48.70605469,-95.07646000
48.73657227,-89.64806000
48.76708984,-89.97733000
48.79760742,-95.52037000
48.82812500,-111.12610000
48.85864258,-100.36920000
48.88916016,-98.10292000
48.91967773,-98.13554000
48.95019531,-97.65614000
48.98071289,-98.24910000
49.01123047,-95.63682000
49.04174805,-90.06639000
49.07226563,-88.64423000
49.10278320,-88.72237000
49.13330078,-86.07822000
49.16381836,-84.90762000
49.19433594,-86.41247000
49.22485352,-88.18943000
49.25537109,-86.48818000
49.28588867,-84.03671000
49.31640625,-83.19666000
49.34692383,-84.15634000
49.37744141,-86.47229000
49.40795898,-89.03489000
49.43847656,-91.05438000
49.46899414,-94.91518000
49.49951172,-97.16333000
49.53002930,-95.77511000
49.56054688,-93.69382000
49.59106445,-91.15482000
49.62158203,-92.58525000
49.65209961,-94.52216000
49.68261719,-90.21107000
49.71313477,-87.50599000
49.74365234,-86.48525000
49.77416992,-85.68628000
49.80468750,-84.76373000
49.83520508,-85.24197000
49.86572266,-87.89245000
49.89624023,-91.84789000
49.92675781,-93.32312000
49.95727539,-92.21404000
49.98779297,-91.65215000
50.01831055,-91.57783000
