Frequency,Channel A
(MHz),(dBu)

0.00000000,-10.90140000
0.03051758,-11.29928000
0.06103516,-16.59636000
0.09155273,-26.62166000
0.12207031,-45.20190000
0.15258789,-76.45216000
0.18310547,-65.43927000
0.21362305,-62.66927000
0.24414063,-65.69798000
0.27465820,-67.88934000
0.30517578,-64.89455000
0.33569336,-64.00916000
0.36621094,-57.76854000
0.39672852,-52.46101000
0.42724609,-50.52304000
0.45776367,-51.55480000
0.48828125,-54.90394000
0.51879883,-51.95723000
0.54931641,-48.89036000
0.57983398,-54.34661000
0.61035156,-44.20424000
0.64086914,-38.47082000
0.67138672,-38.14359000
0.70190430,-42.22945000
0.73242188,-51.75035000
0.76293945,-64.56373000
0.79345703,-71.80486000
0.82397461,-67.83927000
0.85449219,-68.07063000
0.88500977,-71.26387000
0.91552734,-66.65636000
0.94604492,-64.03369000
0.97656250,-66.53320000
1.00708008,-64.10763000
1.03759766,-63.96537000
1.06811523,-68.20746000
1.09863281,-64.69466000
1.12915039,-58.13527000
1.15966797,-53.82223000
1.19018555,-52.56500000
1.22070313,-53.68378000
1.25122070,-57.06208000
1.28173828,-64.21793000
1.31225586,-79.11978000
1.34277344,-71.50839000
1.37329102,-72.07858000
1.40380859,-74.24724000
1.43432617,-72.60802000
1.46484375,-65.89357000
1.49536133,-64.63430000
1.52587891,-65.83516000
1.55639648,-66.57895000
1.58691406,-67.00141000
1.61743164,-70.23976000
1.64794922,-66.08150000
1.67846680,-67.04768000
1.70898438,-67.91697000
1.73950195,-68.83737000
1.77001953,-74.19479000
1.80053711,-69.08517000
1.83105469,-65.40961000
1.86157227,-68.18219000
1.89208984,-81.74213000
1.92260742,-82.67134000
1.95312500,-72.70417000
1.98364258,-70.17576000
2.01416016,-76.36433000
2.04467773,-80.75431000
2.07519531,-75.16663000
2.10571289,-76.39694000
2.13623047,-80.31761000
2.16674805,-74.20912000
2.19726563,-69.98935000
2.22778320,-69.28830000
2.25830078,-69.70666000
2.28881836,-64.74987000
2.31933594,-61.74875000
2.34985352,-59.91765000
2.38037109,-59.07310000
2.41088867,-60.58068000
2.44140625,-65.13197000
2.47192383,-66.27523000
2.50244141,-66.30672000
2.53295898,-67.37416000
2.56347656,-68.35571000
2.59399414,-72.03914000
2.62451172,-71.65135000
2.65502930,-68.67443000
2.68554688,-73.00060000
2.71606445,-70.30649000
2.74658203,-68.26526000
2.77709961,-76.09795000
2.80761719,-75.19818000
2.83813477,-71.97786000
2.86865234,-76.50685000
2.89916992,-81.19948000
2.92968750,-84.89814000
2.96020508,-71.68256000
2.99072266,-67.64748000
3.02124023,-68.21237000
3.05175781,-69.93518000
3.08227539,-71.36595000
3.11279297,-68.40130000
3.14331055,-69.83054000
3.17382813,-78.58540000
3.20434570,-79.23748000
3.23486328,-75.48705000
3.26538086,-85.07820000
3.29589844,-77.57007000
3.32641602,-77.06792000
3.35693359,-65.47382000
3.38745117,-63.77721000
3.41796875,-67.56140000
3.44848633,-72.02553000
3.47900391,-69.53394000
3.50952148,-69.20377000
3.54003906,-70.72151000
3.57055664,-67.81150000
3.60107422,-65.40422000
3.63159180,-70.40869000
3.66210938,-69.32008000
3.69262695,-65.87763000
3.72314453,-69.45517000
3.75366211,-68.03163000
3.78417969,-70.18359000
3.81469727,-84.48244000
3.84521484,-70.92545000
3.87573242,-70.13107000
3.90625000,-76.33514000
3.93676758,-68.92760000
3.96728516,-71.85722000
3.99780273,-74.66534000
4.02832031,-73.46808000
4.05883789,-72.56706000
4.08935547,-80.20671000
4.11987305,-68.37515000
4.15039063,-76.09486000
4.18090820,-68.51624000
4.21142578,-65.56111000
4.24194336,-70.77453000
4.27246094,-72.78770000
4.30297852,-69.60257000
4.33349609,-74.23525000
4.36401367,-67.87537000
4.39453125,-69.12783000
4.42504883,-74.07838000
4.45556641,-65.20808000
4.48608398,-68.53740000
4.51660156,-79.75747000
4.54711914,-75.25227000
4.57763672,-67.80212000
4.60815430,-67.37927000
4.63867188,-71.89595000
4.66918945,-73.49484000
4.69970703,-65.89957000
4.73022461,-67.49436000
4.76074219,-79.58426000
4.79125977,-80.50932000
4.82177734,-84.88707000
4.85229492,-73.86343000
4.88281250,-68.12636000
4.91333008,-71.38919000
4.94384766,-79.55468000
4.97436523,-76.14249000
5.00488281,-78.00768000
5.03540039,-73.71516000
5.06591797,-76.23603000
5.09643555,-75.68337000
5.12695313,-69.81496000
5.15747070,-73.76224000
5.18798828,-76.13557000
5.21850586,-69.38299000
5.24902344,-73.05162000
5.27954102,-72.00411000
5.31005859,-70.77981000
5.34057617,-78.15955000
5.37109375,-77.34529000
5.40161133,-73.92175000
5.43212891,-76.94992000
5.46264648,-69.15821000
5.49316406,-72.99136000
5.52368164,-76.39046000
5.55419922,-68.06190000
5.58471680,-69.61272000
5.61523438,-79.27606000
5.64575195,-76.50689000
5.67626953,-73.58385000
5.70678711,-67.42193000
5.73730469,-64.03958000
5.76782227,-66.83354000
5.79833984,-84.91975000
5.82885742,-67.57023000
5.85937500,-69.19474000
5.88989258,-71.00716000
5.92041016,-68.40318000
5.95092773,-76.08539000
5.98144531,-71.17661000
6.01196289,-66.58538000
6.04248047,-74.04655000
6.07299805,-69.43117000
6.10351563,-66.20529000
6.13403320,-76.15817000
6.16455078,-70.05147000
6.19506836,-73.15845000
6.22558594,-72.98982000
6.25610352,-66.79250000
6.28662109,-68.82860000
6.31713867,-80.67766000
6.34765625,-69.60029000
6.37817383,-82.13632000
6.40869141,-68.09286000
6.43920898,-66.50605000
6.46972656,-78.62828000
6.50024414,-73.25008000
6.53076172,-72.31172000
6.56127930,-81.17744000
6.59179688,-72.34090000
6.62231445,-74.09933000
6.65283203,-84.65737000
6.68334961,-74.78345000
6.71386719,-78.81877000
6.74438477,-73.54333000
6.77490234,-72.89351000
6.80541992,-75.77569000
6.83593750,-73.65283000
6.86645508,-73.27817000
6.89697266,-77.73148000
6.92749023,-80.00434000
6.95800781,-76.19947000
6.98852539,-75.07907000
7.01904297,-80.04058000
7.04956055,-83.47011000
7.08007813,-76.62023000
7.11059570,-75.79560000
7.14111328,-75.38756000
7.17163086,-74.95753000
7.20214844,-76.18146000
7.23266602,-79.25574000
7.26318359,-83.81201000
7.29370117,-83.53856000
7.32421875,-79.40104000
7.35473633,-78.51742000
7.38525391,-81.04614000
7.41577148,-88.79655000
7.44628906,-86.52753000
7.47680664,-79.92288000
7.50732422,-77.39616000
7.53784180,-77.18412000
7.56835938,-79.28005000
7.59887695,-85.57384000
7.62939453,-96.81508000
7.65991211,-85.52670000
7.69042969,-89.72551000
7.72094727,-91.85037000
7.75146484,-89.97340000
7.78198242,-90.16000000
7.81250000,-81.54570000
7.84301758,-85.02071000
7.87353516,-85.28802000
7.90405273,-79.17419000
7.93457031,-79.09523000
7.96508789,-83.40527000
7.99560547,-85.36659000
8.02612305,-80.81864000
8.05664063,-75.73341000
8.08715820,-75.31230000
8.11767578,-78.44856000
8.14819336,-79.60245000
8.17871094,-79.76239000
8.20922852,-84.59960000
8.23974609,-90.34740000
8.27026367,-85.99390000
8.30078125,-78.51608000
8.33129883,-77.61166000
8.36181641,-83.99637000
8.39233398,-85.39443000
8.42285156,-93.68108000
8.45336914,-82.59098000
8.48388672,-78.37083000
8.51440430,-80.19667000
8.54492188,-96.47137000
8.57543945,-84.45709000
8.60595703,-82.32875000
8.63647461,-79.84186000
8.66699219,-80.68274000
8.69750977,-84.19595000
8.72802734,-86.09204000
8.75854492,-95.83831000
8.78906250,-85.54965000
8.81958008,-80.86140000
8.85009766,-86.03349000
8.88061523,-86.14220000
8.91113281,-82.73441000
8.94165039,-84.60171000
8.97216797,-80.26727000
9.00268555,-81.43314000
9.03320313,-85.50432000
9.06372070,-80.32854000
9.09423828,-79.55542000
9.12475586,-84.60625000
9.15527344,-93.48674000
9.18579102,-80.05653000
9.21630859,-76.16029000
9.24682617,-77.11858000
9.27734375,-83.23317000
9.30786133,-106.68580000
9.33837891,-86.66428000
9.36889648,-79.78316000
9.39941406,-77.56736000
9.42993164,-79.14632000
9.46044922,-85.10577000
9.49096680,-89.74432000
9.52148438,-88.82312000
9.55200195,-86.79005000
9.58251953,-81.23158000
9.61303711,-79.78033000
9.64355469,-81.43764000
9.67407227,-86.19228000
9.70458984,-83.65039000
9.73510742,-76.42001000
9.76562500,-74.85647000
9.79614258,-78.54044000
9.82666016,-89.50763000
9.85717773,-92.50462000
9.88769531,-91.49106000
9.91821289,-81.58534000
9.94873047,-78.67834000
9.97924805,-78.73269000
10.00976563,-83.25830000
10.04028320,-85.09444000
10.07080078,-75.46590000
10.10131836,-72.76520000
10.13183594,-73.61465000
10.16235352,-76.75838000
10.19287109,-80.05193000
10.22338867,-77.43495000
10.25390625,-74.63516000
10.28442383,-74.28667000
10.31494141,-75.42004000
10.34545898,-75.33382000
10.37597656,-73.47892000
10.40649414,-72.47678000
10.43701172,-73.30301000
10.46752930,-75.59456000
10.49804688,-76.53770000
10.52856445,-74.39515000
10.55908203,-73.43095000
10.58959961,-75.76154000
10.62011719,-82.86926000
10.65063477,-78.92879000
10.68115234,-73.23119000
10.71166992,-71.86565000
10.74218750,-74.68111000
10.77270508,-84.25927000
10.80322266,-93.68044000
10.83374023,-89.68327000
10.86425781,-90.44101000
10.89477539,-95.35381000
10.92529297,-81.50346000
10.95581055,-76.05477000
10.98632813,-74.30160000
11.01684570,-74.88550000
11.04736328,-78.00361000
11.07788086,-83.57754000
11.10839844,-77.90112000
11.13891602,-74.74327000
11.16943359,-73.80842000
11.19995117,-74.73146000
11.23046875,-79.15594000
11.26098633,-82.22626000
11.29150391,-75.93521000
11.32202148,-74.17134000
11.35253906,-72.85279000
11.38305664,-71.63442000
11.41357422,-73.02089000
11.44409180,-76.21674000
11.47460938,-78.06625000
11.50512695,-77.28523000
11.53564453,-75.28406000
11.56616211,-73.22314000
11.59667969,-72.09871000
11.62719727,-72.80994000
11.65771484,-75.56493000
11.68823242,-79.86934000
11.71875000,-80.21802000
11.74926758,-73.86890000
11.77978516,-70.54536000
11.81030273,-70.25553000
11.84082031,-72.23441000
11.87133789,-74.39652000
11.90185547,-75.04932000
11.93237305,-76.79681000
11.96289063,-81.48502000
11.99340820,-85.04243000
12.02392578,-79.99717000
12.05444336,-78.04134000
12.08496094,-78.49777000
12.11547852,-76.39226000
12.14599609,-74.27896000
12.17651367,-74.24957000
12.20703125,-74.39250000
12.23754883,-74.69717000
12.26806641,-76.51315000
12.29858398,-79.64810000
12.32910156,-80.50460000
12.35961914,-79.94802000
12.39013672,-78.92946000
12.42065430,-77.34941000
12.45117188,-78.02883000
12.48168945,-84.79393000
12.51220703,-92.99171000
12.54272461,-82.97133000
12.57324219,-79.04358000
12.60375977,-76.11688000
12.63427734,-74.99030000
12.66479492,-76.32924000
12.69531250,-78.43446000
12.72583008,-79.30614000
12.75634766,-79.60627000
12.78686523,-78.70570000
12.81738281,-81.10390000
12.84790039,-97.74495000
12.87841797,-83.66327000
12.90893555,-80.90535000
12.93945313,-78.64280000
12.96997070,-77.12707000
13.00048828,-79.85825000
13.03100586,-86.42963000
13.06152344,-78.95673000
13.09204102,-75.52779000
13.12255859,-76.82020000
13.15307617,-81.86850000
13.18359375,-81.90379000
13.21411133,-79.84674000
13.24462891,-80.80875000
13.27514648,-84.36826000
13.30566406,-83.92493000
13.33618164,-83.17894000
13.36669922,-85.70545000
13.39721680,-84.89919000
13.42773438,-83.34100000
13.45825195,-82.76457000
13.48876953,-74.83513000
13.51928711,-68.44984000
13.54980469,-65.98183000
13.58032227,-67.42740000
13.61083984,-73.60593000
13.64135742,-75.84789000
13.67187500,-71.88054000
13.70239258,-70.34393000
13.73291016,-69.46923000
13.76342773,-69.91891000
13.79394531,-73.44295000
13.82446289,-79.84771000
13.85498047,-77.91974000
13.88549805,-78.41650000
13.91601563,-83.73601000
13.94653320,-86.92130000
13.97705078,-87.09556000
14.00756836,-84.72829000
14.03808594,-82.54883000
14.06860352,-83.05047000
14.09912109,-84.12223000
14.12963867,-84.78245000
14.16015625,-83.72700000
14.19067383,-80.38407000
14.22119141,-77.19875000
14.25170898,-75.74540000
14.28222656,-76.21889000
14.31274414,-78.46900000
14.34326172,-82.37372000
14.37377930,-86.82408000
14.40429688,-86.70196000
14.43481445,-86.06062000
14.46533203,-90.70175000
14.49584961,-94.34444000
14.52636719,-85.89191000
14.55688477,-83.55999000
14.58740234,-82.63251000
14.61791992,-82.13273000
14.64843750,-82.89995000
14.67895508,-84.64638000
14.70947266,-86.07240000
14.73999023,-87.55124000
14.77050781,-92.65252000
14.80102539,-112.04810000
14.83154297,-97.93212000
14.86206055,-101.59130000
14.89257813,-88.77572000
14.92309570,-84.16003000
14.95361328,-85.79532000
14.98413086,-97.24551000
15.01464844,-91.60313000
15.04516602,-88.26160000
15.07568359,-88.37447000
15.10620117,-91.28233000
15.13671875,-91.32905000
15.16723633,-83.58822000
15.19775391,-81.45656000
15.22827148,-83.24928000
15.25878906,-88.06792000
15.28930664,-99.28989000
15.31982422,-88.94972000
15.35034180,-85.16865000
15.38085938,-86.65509000
15.41137695,-92.37953000
15.44189453,-91.01801000
15.47241211,-90.77419000
15.50292969,-92.48463000
15.53344727,-88.66508000
15.56396484,-85.51457000
15.59448242,-84.89194000
15.62500000,-87.70473000
15.65551758,-97.88609000
15.68603516,-96.74545000
15.71655273,-89.94945000
15.74707031,-88.88802000
15.77758789,-91.11905000
15.80810547,-91.93467000
15.83862305,-89.51667000
15.86914063,-90.54996000
15.89965820,-96.71310000
15.93017578,-92.81694000
15.96069336,-88.41037000
15.99121094,-88.31882000
16.02172852,-88.74672000
16.05224609,-85.68494000
16.08276367,-81.92844000
16.11328125,-79.56767000
16.14379883,-79.10697000
16.17431641,-79.95275000
16.20483398,-81.16599000
16.23535156,-83.10043000
16.26586914,-86.30097000
16.29638672,-87.26460000
16.32690430,-86.79386000
16.35742188,-87.43760000
16.38793945,-85.07628000
16.41845703,-82.16927000
16.44897461,-80.58040000
16.47949219,-80.42731000
16.51000977,-82.67297000
16.54052734,-89.78580000
16.57104492,-109.45970000
16.60156250,-102.38720000
16.63208008,-102.50070000
16.66259766,-94.44218000
16.69311523,-91.14265000
16.72363281,-86.39737000
16.75415039,-82.82362000
16.78466797,-82.51781000
16.81518555,-85.81377000
16.84570313,-90.93510000
16.87622070,-91.48708000
16.90673828,-91.22557000
16.93725586,-92.65026000
16.96777344,-89.27026000
16.99829102,-85.23263000
17.02880859,-86.25764000
17.05932617,-95.88741000
17.08984375,-96.50727000
17.12036133,-91.56799000
17.15087891,-90.66418000
17.18139648,-91.72149000
17.21191406,-92.87234000
17.24243164,-90.03358000
17.27294922,-87.58434000
17.30346680,-87.18262000
17.33398438,-90.11845000
17.36450195,-102.03710000
17.39501953,-98.39962000
17.42553711,-92.10954000
17.45605469,-87.85499000
17.48657227,-85.25797000
17.51708984,-85.46275000
17.54760742,-88.58140000
17.57812500,-90.96475000
17.60864258,-88.87025000
17.63916016,-81.30960000
17.66967773,-73.13006000
17.70019531,-68.03310000
17.73071289,-66.86079000
17.76123047,-71.09517000
17.79174805,-80.19199000
17.82226563,-70.82101000
17.85278320,-70.71053000
17.88330078,-75.11305000
17.91381836,-79.89134000
17.94433594,-82.03522000
17.97485352,-84.60007000
18.00537109,-86.58702000
18.03588867,-89.54655000
18.06640625,-93.68109000
18.09692383,-84.88593000
18.12744141,-80.37353000
18.15795898,-79.83607000
18.18847656,-83.04177000
18.21899414,-93.56742000
18.24951172,-89.71474000
18.28002930,-84.11803000
18.31054688,-82.41879000
18.34106445,-82.05284000
18.37158203,-83.59053000
18.40209961,-89.63031000
18.43261719,-101.39050000
18.46313477,-88.94401000
18.49365234,-86.23262000
18.52416992,-85.42122000
18.55468750,-85.41408000
18.58520508,-85.67998000
18.61572266,-84.16531000
18.64624023,-82.07096000
18.67675781,-82.29530000
18.70727539,-86.00377000
18.73779297,-91.56879000
18.76831055,-90.55144000
18.79882813,-89.44266000
18.82934570,-90.74311000
18.85986328,-102.56380000
18.89038086,-91.03055000
18.92089844,-86.71814000
18.95141602,-90.88403000
18.98193359,-100.28930000
19.01245117,-89.21201000
19.04296875,-88.65208000
19.07348633,-89.12441000
19.10400391,-86.78036000
19.13452148,-82.61262000
19.16503906,-79.20041000
19.19555664,-77.41353000
19.22607422,-77.56192000
19.25659180,-79.82100000
19.28710938,-84.71344000
19.31762695,-96.01258000
19.34814453,-94.35394000
19.37866211,-86.86054000
19.40917969,-84.60030000
19.43969727,-84.83582000
19.47021484,-85.96519000
19.50073242,-87.40204000
19.53125000,-88.23389000
19.56176758,-86.10963000
19.59228516,-87.15469000
19.62280273,-93.73474000
19.65332031,-89.03606000
19.68383789,-84.10237000
19.71435547,-82.84529000
19.74487305,-84.88472000
19.77539063,-91.73599000
19.80590820,-92.66338000
19.83642578,-83.91944000
19.86694336,-80.20575000
19.89746094,-79.77464000
19.92797852,-82.30890000
19.95849609,-86.75414000
19.98901367,-87.34511000
20.01953125,-83.63623000
20.05004883,-81.72517000
20.08056641,-82.34748000
20.11108398,-82.52507000
20.14160156,-81.56823000
20.17211914,-83.00198000
20.20263672,-86.29535000
20.23315430,-85.75355000
20.26367188,-84.36782000
20.29418945,-84.68558000
20.32470703,-87.28236000
20.35522461,-88.01018000
20.38574219,-84.84473000
20.41625977,-85.42945000
20.44677734,-88.68267000
20.47729492,-89.32511000
20.50781250,-94.37259000
20.53833008,-93.47794000
20.56884766,-83.38911000
20.59936523,-80.46678000
20.62988281,-81.15895000
20.66040039,-85.29227000
20.69091797,-86.70235000
20.72143555,-82.80106000
20.75195313,-81.93147000
20.78247070,-83.61276000
20.81298828,-85.98823000
20.84350586,-88.61493000
20.87402344,-98.21036000
20.90454102,-95.27039000
20.93505859,-88.80218000
20.96557617,-86.28761000
20.99609375,-83.77651000
21.02661133,-82.18803000
21.05712891,-81.82357000
21.08764648,-81.78677000
21.11816406,-81.59109000
21.14868164,-81.82330000
21.17919922,-81.82889000
21.20971680,-80.80735000
21.24023438,-80.49286000
21.27075195,-81.88073000
21.30126953,-84.92719000
21.33178711,-89.23369000
21.36230469,-92.84532000
21.39282227,-85.67544000
21.42333984,-82.30531000
21.45385742,-83.72283000
21.48437500,-85.38911000
21.51489258,-81.39384000
21.54541016,-80.49915000
21.57592773,-83.93829000
21.60644531,-99.33132000
21.63696289,-88.44991000
21.66748047,-84.46061000
21.69799805,-85.33440000
21.72851563,-90.26513000
21.75903320,-107.55780000
21.78955078,-96.77177000
21.82006836,-96.22433000
21.85058594,-88.48656000
21.88110352,-83.24983000
21.91162109,-82.04852000
21.94213867,-83.67834000
21.97265625,-87.27065000
22.00317383,-89.01900000
22.03369141,-84.66896000
22.06420898,-82.04988000
22.09472656,-81.38416000
22.12524414,-81.11172000
22.15576172,-80.89111000
22.18627930,-81.72000000
22.21679688,-84.53603000
22.24731445,-90.69531000
22.27783203,-95.04836000
22.30834961,-90.42418000
22.33886719,-91.57759000
22.36938477,-99.41933000
22.39990234,-88.17493000
22.43041992,-85.12249000
22.46093750,-86.69719000
22.49145508,-90.40633000
22.52197266,-92.08945000
22.55249023,-92.85025000
22.58300781,-97.35706000
22.61352539,-95.49440000
22.64404297,-89.79641000
22.67456055,-89.50880000
22.70507813,-93.05725000
22.73559570,-95.12665000
22.76611328,-98.20988000
22.79663086,-90.45343000
22.82714844,-83.43681000
22.85766602,-80.71484000
22.88818359,-80.44518000
22.91870117,-81.77003000
22.94921875,-84.39175000
22.97973633,-88.45593000
23.01025391,-91.88765000
23.04077148,-88.72705000
23.07128906,-84.20589000
23.10180664,-81.44691000
23.13232422,-80.86666000
23.16284180,-82.11414000
23.19335938,-83.79980000
23.22387695,-83.95154000
23.25439453,-83.24479000
23.28491211,-83.66443000
23.31542969,-86.63422000
23.34594727,-93.23022000
23.37646484,-92.67821000
23.40698242,-87.59968000
23.43750000,-84.14162000
23.46801758,-81.34880000
23.49853516,-79.80232000
23.52905273,-80.13773000
23.55957031,-82.41490000
23.59008789,-85.93911000
23.62060547,-89.91303000
23.65112305,-97.73563000
23.68164063,-99.05297000
23.71215820,-91.44759000
23.74267578,-93.72952000
23.77319336,-91.36628000
23.80371094,-85.23195000
23.83422852,-83.64909000
23.86474609,-84.68742000
23.89526367,-87.33849000
23.92578125,-91.00579000
23.95629883,-92.03255000
23.98681641,-88.47296000
24.01733398,-85.87737000
24.04785156,-85.22314000
24.07836914,-86.79944000
24.10888672,-91.38878000
24.13940430,-94.94294000
24.16992188,-92.45660000
24.20043945,-92.72686000
24.23095703,-92.49463000
24.26147461,-89.30754000
24.29199219,-87.63691000
24.32250977,-88.54053000
24.35302734,-91.47780000
24.38354492,-95.01265000
24.41406250,-93.91099000
24.44458008,-89.72830000
24.47509766,-86.99680000
24.50561523,-86.62587000
24.53613281,-89.39915000
24.56665039,-94.11284000
24.59716797,-95.66708000
24.62768555,-97.88232000
24.65820313,-90.54012000
24.68872070,-87.21416000
24.71923828,-87.29465000
24.74975586,-88.26633000
24.78027344,-88.85220000
24.81079102,-90.46459000
24.84130859,-90.87950000
24.87182617,-89.07962000
24.90234375,-89.34911000
24.93286133,-90.00515000
24.96337891,-86.89644000
24.99389648,-84.73573000
25.02441406,-85.59331000
25.05493164,-89.74464000
25.08544922,-89.28654000
25.11596680,-86.94355000
25.14648438,-89.17080000
25.17700195,-92.71689000
25.20751953,-90.73743000
25.23803711,-91.79776000
25.26855469,-94.70223000
25.29907227,-92.80518000
25.32958984,-89.20554000
25.36010742,-87.18934000
25.39062500,-87.23469000
25.42114258,-86.88897000
25.45166016,-84.15649000
25.48217773,-82.53336000
25.51269531,-83.01460000
25.54321289,-84.76709000
25.57373047,-86.12462000
25.60424805,-86.54469000
25.63476563,-87.11797000
25.66528320,-87.64337000
25.69580078,-87.84348000
25.72631836,-89.49326000
25.75683594,-94.04980000
25.78735352,-94.60831000
25.81787109,-95.29779000
25.84838867,-93.90797000
25.87890625,-90.26749000
25.90942383,-89.01763000
25.93994141,-88.54681000
25.97045898,-89.26498000
26.00097656,-90.47896000
26.03149414,-87.94728000
26.06201172,-86.39311000
26.09252930,-87.38947000
26.12304688,-89.27048000
26.15356445,-89.53693000
26.18408203,-88.31422000
26.21459961,-88.78993000
26.24511719,-93.39928000
26.27563477,-106.18890000
26.30615234,-92.98459000
26.33666992,-90.15044000
26.36718750,-88.46946000
26.39770508,-87.14203000
26.42822266,-87.76772000
26.45874023,-91.36219000
26.48925781,-94.52409000
26.51977539,-89.54651000
26.55029297,-87.34058000
26.58081055,-89.16607000
26.61132813,-96.67085000
26.64184570,-110.77980000
26.67236328,-94.94112000
26.70288086,-87.52614000
26.73339844,-84.65974000
26.76391602,-86.02686000
26.79443359,-90.81631000
26.82495117,-90.99434000
26.85546875,-88.62733000
26.88598633,-86.28418000
26.91650391,-84.25351000
26.94702148,-83.22671000
26.97753906,-84.32372000
27.00805664,-88.07403000
27.03857422,-89.06738000
27.06909180,-84.99805000
27.09960938,-82.72792000
27.13012695,-81.90314000
27.16064453,-81.86116000
27.19116211,-82.66151000
27.22167969,-84.44253000
27.25219727,-87.02489000
27.28271484,-89.45644000
27.31323242,-90.64811000
27.34375000,-93.67413000
27.37426758,-95.70617000
27.40478516,-92.04391000
27.43530273,-89.36662000
27.46582031,-88.02477000
27.49633789,-86.77577000
27.52685547,-84.62304000
27.55737305,-83.23541000
27.58789063,-83.05840000
27.61840820,-83.85375000
27.64892578,-85.26933000
27.67944336,-85.29189000
27.70996094,-83.84538000
27.74047852,-83.44685000
27.77099609,-84.47284000
27.80151367,-85.74292000
27.83203125,-85.83803000
27.86254883,-84.42600000
27.89306641,-82.53065000
27.92358398,-81.36723000
27.95410156,-81.09618000
27.98461914,-81.48576000
28.01513672,-82.53371000
28.04565430,-84.36905000
28.07617188,-86.32106000
28.10668945,-86.73463000
28.13720703,-85.18388000
28.16772461,-83.13178000
28.19824219,-81.67834000
28.22875977,-81.05674000
28.25927734,-81.45567000
28.28979492,-83.81647000
28.32031250,-90.89876000
28.35083008,-95.34006000
28.38134766,-87.84009000
28.41186523,-88.48644000
28.44238281,-98.92943000
28.47290039,-94.90903000
28.50341797,-90.85463000
28.53393555,-96.37490000
28.56445313,-98.50356000
28.59497070,-89.72503000
28.62548828,-87.65049000
28.65600586,-87.88718000
28.68652344,-89.95438000
28.71704102,-94.20885000
28.74755859,-96.59878000
28.77807617,-91.99467000
28.80859375,-87.44895000
28.83911133,-85.73831000
28.86962891,-86.40214000
28.90014648,-88.12191000
28.93066406,-89.73382000
28.96118164,-94.79277000
28.99169922,-106.11310000
29.02221680,-93.67768000
29.05273438,-93.34691000
29.08325195,-93.84251000
29.11376953,-91.09364000
29.14428711,-88.55019000
29.17480469,-87.76106000
29.20532227,-87.82989000
29.23583984,-87.24988000
29.26635742,-85.84155000
29.29687500,-85.00004000
29.32739258,-85.17461000
29.35791016,-85.43242000
29.38842773,-85.01446000
29.41894531,-84.63451000
29.44946289,-85.52670000
29.47998047,-88.05309000
29.51049805,-90.74548000
29.54101563,-91.18492000
29.57153320,-90.17079000
29.60205078,-88.21408000
29.63256836,-85.62522000
29.66308594,-83.11127000
29.69360352,-81.47678000
29.72412109,-81.51930000
29.75463867,-84.01314000
29.78515625,-90.22325000
29.81567383,-99.50286000
29.84619141,-97.55205000
29.87670898,-101.04970000
29.90722656,-94.20720000
29.93774414,-91.02118000
29.96826172,-92.99481000
29.99877930,-101.44090000
30.02929688,-105.80850000
30.05981445,-96.27130000
30.09033203,-93.23257000
30.12084961,-91.94780000
30.15136719,-91.83258000
30.18188477,-92.72443000
30.21240234,-93.45844000
30.24291992,-91.93495000
30.27343750,-91.26863000
30.30395508,-94.10091000
30.33447266,-97.36481000
30.36499023,-92.19655000
30.39550781,-87.65067000
30.42602539,-85.59696000
30.45654297,-86.15391000
30.48706055,-85.80162000
30.51757813,-83.52037000
30.54809570,-83.64961000
30.57861328,-87.02470000
30.60913086,-94.43042000
30.63964844,-121.87810000
30.67016602,-101.16940000
30.70068359,-97.56874000
30.73120117,-94.52079000
30.76171875,-89.43714000
30.79223633,-85.30860000
30.82275391,-83.13895000
30.85327148,-82.41356000
30.88378906,-82.79080000
30.91430664,-84.24956000
30.94482422,-86.58415000
30.97534180,-89.87652000
31.00585938,-90.45040000
31.03637695,-86.57869000
31.06689453,-84.52290000
31.09741211,-83.88075000
31.12792969,-83.50486000
31.15844727,-84.55882000
31.18896484,-89.32178000
31.21948242,-96.30875000
31.25000000,-89.18015000
31.28051758,-85.57804000
31.31103516,-83.89682000
31.34155273,-84.25224000
31.37207031,-87.14885000
31.40258789,-90.89874000
31.43310547,-92.93718000
31.46362305,-104.62820000
31.49414063,-94.18934000
31.52465820,-89.78959000
31.55517578,-88.85588000
31.58569336,-85.91900000
31.61621094,-84.09732000
31.64672852,-84.08081000
31.67724609,-84.23071000
31.70776367,-83.17104000
31.73828125,-82.16605000
31.76879883,-82.01140000
31.79931641,-82.50362000
31.82983398,-83.72413000
31.86035156,-85.90536000
31.89086914,-88.32491000
31.92138672,-89.34038000
31.95190430,-89.68738000
31.98242188,-92.80003000
32.01293945,-105.22280000
32.04345703,-92.96197000
32.07397461,-88.74998000
32.10449219,-88.06178000
32.13500977,-89.16481000
32.16552734,-89.73790000
32.19604492,-89.26411000
32.22656250,-89.82489000
32.25708008,-89.94711000
32.28759766,-87.79335000
32.31811523,-87.24891000
32.34863281,-91.40237000
32.37915039,-96.13952000
32.40966797,-88.38909000
32.44018555,-86.58145000
32.47070313,-87.95101000
32.50122070,-92.35785000
32.53173828,-98.88953000
32.56225586,-91.07774000
32.59277344,-88.30350000
32.62329102,-89.21630000
32.65380859,-90.70827000
32.68432617,-91.30532000
32.71484375,-92.51629000
32.74536133,-93.09772000
32.77587891,-92.66687000
32.80639648,-92.27563000
32.83691406,-92.41322000
32.86743164,-92.50058000
32.89794922,-89.73654000
32.92846680,-86.83719000
32.95898438,-84.71211000
32.98950195,-83.53204000
33.02001953,-84.61290000
33.05053711,-90.44310000
33.08105469,-92.23203000
33.11157227,-86.82692000
33.14208984,-87.79663000
33.17260742,-94.33708000
33.20312500,-99.79384000
33.23364258,-107.11640000
33.26416016,-94.64081000
33.29467773,-88.24296000
33.32519531,-87.04630000
33.35571289,-88.86467000
33.38623047,-94.16681000
33.41674805,-96.72231000
33.44726563,-93.13040000
33.47778320,-96.49751000
33.50830078,-100.41730000
33.53881836,-95.19402000
33.56933594,-91.21231000
33.59985352,-87.89696000
33.63037109,-86.27631000
33.66088867,-85.20427000
33.69140625,-83.86066000
33.72192383,-82.23827000
33.75244141,-81.22180000
33.78295898,-81.06581000
33.81347656,-81.31295000
33.84399414,-81.89200000
33.87451172,-83.13548000
33.90502930,-85.15762000
33.93554688,-87.63586000
33.96606445,-88.69797000
33.99658203,-86.85931000
34.02709961,-84.95734000
34.05761719,-84.30901000
34.08813477,-84.80643000
34.11865234,-86.42361000
34.14916992,-89.90248000
34.17968750,-95.04223000
34.21020508,-98.29658000
34.24072266,-100.71590000
34.27124023,-92.29369000
34.30175781,-88.96035000
34.33227539,-88.57066000
34.36279297,-88.74443000
34.39331055,-89.12363000
34.42382813,-91.64634000
34.45434570,-96.45522000
34.48486328,-99.53741000
34.51538086,-93.52432000
34.54589844,-89.24910000
34.57641602,-88.31400000
34.60693359,-89.07134000
34.63745117,-89.39119000
34.66796875,-87.87215000
34.69848633,-85.73508000
34.72900391,-84.08753000
34.75952148,-83.07969000
34.79003906,-82.65311000
34.82055664,-82.83967000
34.85107422,-83.89795000
34.88159180,-86.27048000
34.91210938,-89.86897000
34.94262695,-90.47865000
34.97314453,-87.60049000
35.00366211,-85.91279000
35.03417969,-85.97548000
35.06469727,-87.57463000
35.09521484,-90.24809000
35.12573242,-94.25304000
35.15625000,-94.84256000
35.18676758,-95.51732000
35.21728516,-104.33960000
35.24780273,-89.15092000
35.27832031,-87.83005000
35.30883789,-94.77940000
35.33935547,-91.39536000
35.36987305,-87.74873000
35.40039063,-90.90523000
35.43090820,-109.40350000
35.46142578,-93.41647000
35.49194336,-90.23858000
35.52246094,-89.88271000
35.55297852,-88.67026000
35.58349609,-87.85111000
35.61401367,-88.56435000
35.64453125,-89.59602000
35.67504883,-89.50758000
35.70556641,-88.93047000
35.73608398,-88.40824000
35.76660156,-87.73567000
35.79711914,-88.08275000
35.82763672,-91.64712000
35.85815430,-105.09680000
35.88867188,-100.01040000
35.91918945,-96.18439000
35.94970703,-92.90259000
35.98022461,-88.93181000
36.01074219,-86.29395000
36.04125977,-84.68095000
36.07177734,-83.60158000
36.10229492,-82.87265000
36.13281250,-82.89352000
36.16333008,-84.20547000
36.19384766,-87.14272000
36.22436523,-89.29477000
36.25488281,-84.42937000
36.28540039,-81.82924000
36.31591797,-83.44691000
36.34643555,-92.23700000
36.37695313,-90.17830000
36.40747070,-83.35941000
36.43798828,-81.63898000
36.46850586,-82.36389000
36.49902344,-84.81544000
36.52954102,-88.70929000
36.56005859,-95.11945000
36.59057617,-101.24190000
36.62109375,-91.73659000
36.65161133,-87.90390000
36.68212891,-86.59201000
36.71264648,-86.22980000
36.74316406,-86.41714000
36.77368164,-88.38768000
36.80419922,-93.82333000
36.83471680,-88.65670000
36.86523438,-83.18795000
36.89575195,-81.22005000
36.92626953,-81.90517000
36.95678711,-84.59205000
36.98730469,-86.76673000
37.01782227,-87.66068000
37.04833984,-90.48286000
37.07885742,-93.50905000
37.10937500,-89.63680000
37.13989258,-86.31649000
37.17041016,-84.74155000
37.20092773,-84.40304000
37.23144531,-85.46523000
37.26196289,-87.73827000
37.29248047,-89.05969000
37.32299805,-88.49273000
37.35351563,-88.83720000
37.38403320,-94.94608000
37.41455078,-96.43274000
37.44506836,-88.44022000
37.47558594,-86.20602000
37.50610352,-84.37541000
37.53662109,-81.80022000
37.56713867,-80.14256000
37.59765625,-80.29644000
37.62817383,-82.63337000
37.65869141,-88.73103000
37.68920898,-100.04370000
37.71972656,-87.88082000
37.75024414,-85.15389000
37.78076172,-85.30962000
37.81127930,-86.56860000
37.84179688,-88.32089000
37.87231445,-91.59412000
37.90283203,-98.81576000
37.93334961,-91.11092000
37.96386719,-85.25291000
37.99438477,-83.45166000
38.02490234,-84.86333000
38.05541992,-89.60965000
38.08593750,-96.58843000
38.11645508,-97.60005000
38.14697266,-94.97780000
38.17749023,-93.09662000
38.20800781,-90.81244000
38.23852539,-88.96598000
38.26904297,-90.37742000
38.29956055,-94.29424000
38.33007813,-90.81712000
38.36059570,-85.60623000
38.39111328,-83.10658000
38.42163086,-83.91557000
38.45214844,-88.79630000
38.48266602,-92.54472000
38.51318359,-87.07000000
38.54370117,-84.19857000
38.57421875,-82.91385000
38.60473633,-82.63515000
38.63525391,-83.09655000
38.66577148,-84.22214000
38.69628906,-86.80833000
38.72680664,-90.92557000
38.75732422,-91.27728000
38.78784180,-91.52229000
38.81835938,-91.58846000
38.84887695,-88.36694000
38.87939453,-86.66465000
38.90991211,-86.17929000
38.94042969,-85.33943000
38.97094727,-83.75561000
39.00146484,-82.23235000
39.03198242,-81.94948000
39.06250000,-84.39610000
39.09301758,-94.04572000
39.12353516,-90.80957000
39.15405273,-84.41476000
39.18457031,-82.18687000
39.21508789,-80.94221000
39.24560547,-80.87628000
39.27612305,-82.90828000
39.30664063,-88.61130000
39.33715820,-91.85036000
39.36767578,-85.07693000
39.39819336,-83.05565000
39.42871094,-84.09167000
39.45922852,-87.60784000
39.48974609,-92.89624000
39.52026367,-99.56768000
39.55078125,-89.98206000
39.58129883,-85.03304000
39.61181641,-84.18546000
39.64233398,-86.58708000
39.67285156,-92.61935000
39.70336914,-97.38560000
39.73388672,-92.27164000
39.76440430,-88.85364000
39.79492188,-87.47929000
39.82543945,-88.12585000
39.85595703,-89.64501000
39.88647461,-90.31844000
39.91699219,-92.22851000
39.94750977,-116.95170000
39.97802734,-88.79067000
40.00854492,-84.32396000
40.03906250,-86.06361000
40.06958008,-101.53080000
40.10009766,-88.30170000
40.13061523,-83.41003000
40.16113281,-82.70471000
40.19165039,-83.68805000
40.22216797,-85.28889000
40.25268555,-87.24289000
40.28320313,-88.57138000
40.31372070,-90.02005000
40.34423828,-90.12056000
40.37475586,-87.22795000
40.40527344,-87.06174000
40.43579102,-88.72898000
40.46630859,-86.16803000
40.49682617,-84.19486000
40.52734375,-84.60086000
40.55786133,-85.54559000
40.58837891,-85.15851000
40.61889648,-85.12534000
40.64941406,-87.00309000
40.67993164,-89.40715000
40.71044922,-90.66189000
40.74096680,-93.33287000
40.77148438,-97.20656000
40.80200195,-98.36272000
40.83251953,-98.28595000
40.86303711,-97.19963000
40.89355469,-94.36687000
40.92407227,-90.20096000
40.95458984,-87.17363000
40.98510742,-85.77995000
41.01562500,-85.38621000
41.04614258,-85.20770000
41.07666016,-84.46438000
41.10717773,-84.11536000
41.13769531,-86.47325000
41.16821289,-94.94431000
41.19873047,-89.88591000
41.22924805,-86.33881000
41.25976563,-89.28780000
41.29028320,-93.95573000
41.32080078,-86.81289000
41.35131836,-85.79303000
41.38183594,-89.96281000
41.41235352,-101.65360000
41.44287109,-93.94654000
41.47338867,-93.28667000
41.50390625,-93.67072000
41.53442383,-87.67188000
41.56494141,-84.60387000
41.59545898,-83.82098000
41.62597656,-84.06244000
41.65649414,-84.93897000
41.68701172,-85.15036000
41.71752930,-84.89071000
41.74804688,-87.40724000
41.77856445,-91.70726000
41.80908203,-86.95927000
41.83959961,-85.63759000
41.87011719,-88.49779000
41.90063477,-94.16074000
41.93115234,-96.24030000
41.96166992,-95.96579000
41.99218750,-91.99146000
42.02270508,-88.79901000
42.05322266,-89.41818000
42.08374023,-90.88917000
42.11425781,-87.86203000
42.14477539,-86.40820000
42.17529297,-86.84528000
42.20581055,-87.27088000
42.23632813,-87.24666000
42.26684570,-85.75591000
42.29736328,-84.44243000
42.32788086,-86.19791000
42.35839844,-92.97603000
42.38891602,-94.03757000
42.41943359,-92.29454000
42.44995117,-92.50203000
42.48046875,-89.20734000
42.51098633,-89.93254000
42.54150391,-98.48861000
42.57202148,-92.93355000
42.60253906,-88.20831000
42.63305664,-87.20454000
42.66357422,-87.89005000
42.69409180,-90.09796000
42.72460938,-95.48634000
42.75512695,-98.83641000
42.78564453,-90.90750000
42.81616211,-87.16608000
42.84667969,-86.02707000
42.87719727,-86.07390000
42.90771484,-86.68526000
42.93823242,-88.48335000
42.96875000,-92.39784000
42.99926758,-97.35393000
43.02978516,-92.00058000
43.06030273,-88.36035000
43.09082031,-87.37637000
43.12133789,-87.54365000
43.15185547,-86.85295000
43.18237305,-84.61121000
43.21289063,-82.97086000
43.24340820,-83.48438000
43.27392578,-87.06071000
43.30444336,-95.79285000
43.33496094,-101.99800000
43.36547852,-90.89764000
43.39599609,-85.12358000
43.42651367,-82.42026000
43.45703125,-82.35016000
43.48754883,-84.37862000
43.51806641,-86.86108000
43.54858398,-87.37846000
43.57910156,-87.88686000
43.60961914,-91.46274000
43.64013672,-98.98257000
43.67065430,-90.95390000
43.70117188,-86.58977000
43.73168945,-85.59389000
43.76220703,-88.15643000
43.79272461,-91.74400000
43.82324219,-86.20052000
43.85375977,-84.64840000
43.88427734,-87.80150000
43.91479492,-93.95581000
43.94531250,-89.40452000
43.97583008,-86.12393000
44.00634766,-84.68353000
44.03686523,-83.94121000
44.06738281,-83.50780000
44.09790039,-83.53706000
44.12841797,-84.00371000
44.15893555,-83.38223000
44.18945313,-81.81001000
44.21997070,-81.04169000
44.25048828,-81.22368000
44.28100586,-82.10361000
44.31152344,-83.24237000
44.34204102,-84.31965000
44.37255859,-85.69328000
44.40307617,-87.19077000
44.43359375,-88.86942000
44.46411133,-91.92619000
44.49462891,-92.13611000
44.52514648,-88.68259000
44.55566406,-87.79267000
44.58618164,-90.15724000
44.61669922,-89.59305000
44.64721680,-86.34029000
44.67773438,-86.15831000
44.70825195,-86.25035000
44.73876953,-85.43354000
44.76928711,-85.70686000
44.79980469,-85.88910000
44.83032227,-85.28481000
44.86083984,-85.70171000
44.89135742,-89.67236000
44.92187500,-100.54950000
44.95239258,-96.92611000
44.98291016,-98.31381000
45.01342773,-95.80910000
45.04394531,-94.07648000
45.07446289,-87.86233000
45.10498047,-83.76563000
45.13549805,-82.84386000
45.16601563,-84.14435000
45.19653320,-86.52806000
45.22705078,-87.85321000
45.25756836,-86.41570000
45.28808594,-84.29398000
45.31860352,-83.68836000
45.34912109,-84.46537000
45.37963867,-84.95278000
45.41015625,-85.27737000
45.44067383,-86.59488000
45.47119141,-88.52707000
45.50170898,-90.16463000
45.53222656,-91.15521000
45.56274414,-93.43795000
45.59326172,-93.45557000
45.62377930,-89.98914000
45.65429688,-90.95428000
45.68481445,-101.90090000
45.71533203,-95.42922000
45.74584961,-94.00363000
45.77636719,-100.31090000
45.80688477,-86.34024000
45.83740234,-82.70621000
45.86791992,-82.65450000
45.89843750,-84.02221000
45.92895508,-86.58584000
45.95947266,-90.02081000
45.98999023,-85.33557000
46.02050781,-81.58215000
46.05102539,-80.84488000
46.08154297,-81.90268000
46.11206055,-83.34555000
46.14257813,-85.00014000
46.17309570,-89.42371000
46.20361328,-94.42771000
46.23413086,-85.89444000
46.26464844,-83.72189000
46.29516602,-85.18367000
46.32568359,-88.94665000
46.35620117,-91.48963000
46.38671875,-87.18190000
46.41723633,-84.36618000
46.44775391,-85.34483000
46.47827148,-89.71579000
46.50878906,-85.96207000
46.53930664,-82.69168000
46.56982422,-82.87895000
46.60034180,-85.37335000
46.63085938,-89.44209000
46.66137695,-95.58887000
46.69189453,-94.43719000
46.72241211,-87.84065000
46.75292969,-86.31313000
46.78344727,-91.66792000
46.81396484,-93.18638000
46.84448242,-84.79903000
46.87500000,-83.71883000
46.90551758,-84.77151000
46.93603516,-84.61844000
46.96655273,-85.54105000
46.99707031,-90.39787000
47.02758789,-94.26421000
47.05810547,-90.56100000
47.08862305,-90.53893000
47.11914063,-91.89934000
47.14965820,-92.43134000
47.18017578,-92.04134000
47.21069336,-89.90581000
47.24121094,-88.19740000
47.27172852,-89.45999000
47.30224609,-94.69058000
47.33276367,-99.07422000
47.36328125,-106.51560000
47.39379883,-100.16690000
47.42431641,-95.02837000
47.45483398,-96.55736000
47.48535156,-92.40424000
47.51586914,-89.79417000
47.54638672,-90.02076000
47.57690430,-89.99335000
47.60742188,-89.75793000
47.63793945,-92.50968000
47.66845703,-101.81810000
47.69897461,-96.26781000
47.72949219,-97.62992000
47.76000977,-104.90140000
47.79052734,-94.54182000
47.82104492,-94.11255000
47.85156250,-95.88673000
47.88208008,-90.55671000
47.91259766,-88.07259000
47.94311523,-88.62274000
47.97363281,-89.63249000
48.00415039,-89.30112000
48.03466797,-88.94716000
48.06518555,-90.36110000
48.09570313,-98.19028000
48.12622070,-91.29535000
48.15673828,-84.15999000
48.18725586,-81.37627000
48.21777344,-80.74449000
48.24829102,-81.60191000
48.27880859,-83.97007000
48.30932617,-87.43790000
48.33984375,-87.38999000
48.37036133,-84.44560000
48.40087891,-82.77065000
48.43139648,-83.10107000
48.46191406,-86.08253000
48.49243164,-93.72841000
48.52294922,-101.84600000
48.55346680,-90.72135000
48.58398438,-86.50215000
48.61450195,-84.34659000
48.64501953,-84.63960000
48.67553711,-87.54686000
48.70605469,-92.78856000
48.73657227,-95.93612000
48.76708984,-93.16219000
48.79760742,-91.18958000
48.82812500,-90.86568000
48.85864258,-96.23517000
48.88916016,-101.06420000
48.91967773,-91.21439000
48.95019531,-90.20569000
48.98071289,-91.24816000
49.01123047,-92.11594000
49.04174805,-99.86093000
49.07226563,-94.26314000
49.10278320,-86.90311000
49.13330078,-85.90154000
49.16381836,-86.16980000
49.19433594,-84.96698000
49.22485352,-85.49419000
49.25537109,-85.89326000
49.28588867,-81.44592000
49.31640625,-78.49676000
49.34692383,-78.24048000
49.37744141,-80.59135000
49.40795898,-86.11090000
49.43847656,-100.12080000
49.46899414,-92.36728000
49.49951172,-85.13611000
49.53002930,-82.47818000
49.56054688,-82.10815000
49.59106445,-83.47332000
49.62158203,-88.84312000
49.65209961,-97.26846000
49.68261719,-85.78522000
49.71313477,-84.89430000
49.74365234,-89.15615000
49.77416992,-97.10980000
49.80468750,-94.63945000
49.83520508,-87.68463000
49.86572266,-84.39523000
49.89624023,-82.90639000
49.92675781,-81.98689000
49.95727539,-82.04011000
49.98779297,-83.80120000
50.01831055,-88.02815000
