Frequency,Channel A
(MHz),(dBu)

0.00000000,-43.18758000
0.03051758,-41.54716000
0.06103516,-42.36963000
0.09155273,-45.76703000
0.12207031,-49.82966000
0.15258789,-52.63000000
0.18310547,-58.09924000
0.21362305,-60.06189000
0.24414063,-56.60602000
0.27465820,-55.66511000
0.30517578,-56.87351000
0.33569336,-62.84113000
0.36621094,-69.07738000
0.39672852,-58.05824000
0.42724609,-56.62813000
0.45776367,-58.87078000
0.48828125,-59.57576000
0.51879883,-59.22348000
0.54931641,-61.89182000
0.57983398,-59.16222000
0.61035156,-53.04333000
0.64086914,-49.47042000
0.67138672,-48.32654000
0.70190430,-49.84718000
0.73242188,-55.11205000
0.76293945,-66.81740000
0.79345703,-60.29451000
0.82397461,-58.00037000
0.85449219,-57.84705000
0.88500977,-59.38061000
0.91552734,-65.68761000
0.94604492,-67.34747000
0.97656250,-60.47195000
1.00708008,-59.18829000
1.03759766,-60.01322000
1.06811523,-60.76447000
1.09863281,-60.79708000
1.12915039,-59.93201000
1.15966797,-59.43464000
1.19018555,-61.45533000
1.22070313,-67.12666000
1.25122070,-66.64902000
1.28173828,-65.17101000
1.31225586,-65.37580000
1.34277344,-62.07537000
1.37329102,-60.39224000
1.40380859,-61.21023000
1.43432617,-63.47158000
1.46484375,-66.05898000
1.49536133,-64.86832000
1.52587891,-61.62352000
1.55639648,-60.30937000
1.58691406,-61.08015000
1.61743164,-63.13078000
1.64794922,-63.63644000
1.67846680,-62.32840000
1.70898438,-62.15963000
1.73950195,-64.63133000
1.77001953,-66.28680000
1.80053711,-61.13641000
1.83105469,-58.83218000
1.86157227,-59.87527000
1.89208984,-64.57057000
1.92260742,-73.96452000
1.95312500,-67.58704000
1.98364258,-64.38562000
2.01416016,-63.93459000
2.04467773,-64.09827000
2.07519531,-64.25623000
2.10571289,-64.99918000
2.13623047,-66.08409000
2.16674805,-66.19414000
2.19726563,-66.36681000
2.22778320,-67.78782000
2.25830078,-68.68565000
2.28881836,-68.44413000
2.31933594,-67.88000000
2.34985352,-66.79066000
2.38037109,-66.39160000
2.41088867,-66.89549000
2.44140625,-67.77689000
2.47192383,-68.84820000
2.50244141,-70.46053000
2.53295898,-69.86813000
2.56347656,-65.76707000
2.59399414,-63.23375000
2.62451172,-62.02369000
2.65502930,-62.00286000
2.68554688,-65.24546000
2.71606445,-75.27473000
2.74658203,-65.80901000
2.77709961,-62.88216000
2.80761719,-63.37966000
2.83813477,-64.27682000
2.86865234,-63.83247000
2.89916992,-63.15488000
2.92968750,-63.56182000
2.96020508,-64.90961000
2.99072266,-66.14563000
3.02124023,-66.43901000
3.05175781,-64.98032000
3.08227539,-63.66207000
3.11279297,-63.48227000
3.14331055,-62.97810000
3.17382813,-62.02888000
3.20434570,-62.21780000
3.23486328,-63.42138000
3.26538086,-63.56506000
3.29589844,-63.29622000
3.32641602,-64.97408000
3.35693359,-68.13572000
3.38745117,-68.14640000
3.41796875,-65.86809000
3.44848633,-62.99854000
3.47900391,-61.38504000
3.50952148,-61.82676000
3.54003906,-62.68864000
3.57055664,-62.35576000
3.60107422,-63.80865000
3.63159180,-71.10989000
3.66210938,-68.92410000
3.69262695,-62.86665000
3.72314453,-61.09581000
3.75366211,-60.99415000
3.78417969,-61.96575000
3.81469727,-63.49698000
3.84521484,-64.36827000
3.87573242,-65.15440000
3.90625000,-66.61288000
3.93676758,-67.80776000
3.96728516,-68.33190000
3.99780273,-67.44031000
4.02832031,-64.94050000
4.05883789,-62.93692000
4.08935547,-62.60285000
4.11987305,-64.04079000
4.15039063,-66.60416000
4.18090820,-69.91219000
4.21142578,-75.45692000
4.24194336,-72.75643000
4.27246094,-66.55431000
4.30297852,-63.40378000
4.33349609,-62.40281000
4.36401367,-62.78241000
4.39453125,-63.78513000
4.42504883,-65.67789000
4.45556641,-67.90056000
4.48608398,-68.62521000
4.51660156,-72.91003000
4.54711914,-73.27122000
4.57763672,-63.93884000
4.60815430,-60.50123000
4.63867188,-59.58951000
4.66918945,-60.15421000
4.69970703,-62.09539000
4.73022461,-65.55631000
4.76074219,-68.16525000
4.79125977,-69.10026000
4.82177734,-70.45604000
4.85229492,-67.00595000
4.88281250,-64.41651000
4.91333008,-63.93322000
4.94384766,-64.27249000
4.97436523,-65.80741000
5.00488281,-70.33028000
5.03540039,-80.67124000
5.06591797,-78.54892000
5.09643555,-70.94946000
5.12695313,-66.00854000
5.15747070,-63.64839000
5.18798828,-62.61733000
5.21850586,-61.81614000
5.24902344,-61.59196000
5.27954102,-62.59783000
5.31005859,-63.95634000
5.34057617,-63.40935000
5.37109375,-63.02786000
5.40161133,-65.38054000
5.43212891,-70.49203000
5.46264648,-74.31085000
5.49316406,-81.24969000
5.52368164,-68.94807000
5.55419922,-63.77034000
5.58471680,-60.81421000
5.61523438,-58.98948000
5.64575195,-58.98716000
5.67626953,-60.52192000
5.70678711,-62.08894000
5.73730469,-62.92512000
5.76782227,-62.16928000
5.79833984,-60.47162000
5.82885742,-59.63060000
5.85937500,-59.36796000
5.88989258,-59.38321000
5.92041016,-60.43485000
5.95092773,-62.78436000
5.98144531,-66.63037000
6.01196289,-74.64734000
6.04248047,-65.74602000
6.07299805,-60.74449000
6.10351563,-58.83115000
6.13403320,-57.92534000
6.16455078,-57.90987000
6.19506836,-59.22621000
6.22558594,-61.42296000
6.25610352,-64.38209000
6.28662109,-68.13435000
6.31713867,-67.04507000
6.34765625,-64.81443000
6.37817383,-63.86141000
6.40869141,-63.67687000
6.43920898,-63.86619000
6.46972656,-63.91715000
6.50024414,-64.90665000
6.53076172,-68.14646000
6.56127930,-73.63864000
6.59179688,-74.88663000
6.62231445,-70.62538000
6.65283203,-67.41882000
6.68334961,-65.51759000
6.71386719,-64.60967000
6.74438477,-65.07777000
6.77490234,-67.37596000
6.80541992,-70.59038000
6.83593750,-71.88409000
6.86645508,-72.57102000
6.89697266,-72.19491000
6.92749023,-70.60487000
6.95800781,-70.41730000
6.98852539,-71.27593000
7.01904297,-71.53041000
7.04956055,-71.89921000
7.08007813,-74.05881000
7.11059570,-76.37056000
7.14111328,-74.56431000
7.17163086,-71.30385000
7.20214844,-68.48708000
7.23266602,-66.83041000
7.26318359,-66.28108000
7.29370117,-66.90003000
7.32421875,-68.88908000
7.35473633,-71.71758000
7.38525391,-73.66118000
7.41577148,-75.29378000
7.44628906,-79.51826000
7.47680664,-87.72701000
7.50732422,-88.63388000
7.53784180,-80.46785000
7.56835938,-75.44395000
7.59887695,-73.89455000
7.62939453,-74.40826000
7.65991211,-76.10429000
7.69042969,-79.94682000
7.72094727,-88.68738000
7.75146484,-85.30892000
7.78198242,-79.86626000
7.81250000,-78.88161000
7.84301758,-81.78465000
7.87353516,-81.82410000
7.90405273,-76.35835000
7.93457031,-74.20002000
7.96508789,-74.98473000
7.99560547,-78.45424000
8.02612305,-83.30140000
8.05664063,-83.60215000
8.08715820,-79.51755000
8.11767578,-75.98458000
8.14819336,-72.86265000
8.17871094,-70.49322000
8.20922852,-69.83090000
8.23974609,-70.99851000
8.27026367,-73.38860000
8.30078125,-75.93420000
8.33129883,-78.15461000
8.36181641,-77.81924000
8.39233398,-74.82423000
8.42285156,-72.60207000
8.45336914,-71.63529000
8.48388672,-71.57536000
8.51440430,-71.86077000
8.54492188,-72.38293000
8.57543945,-74.30988000
8.60595703,-79.86810000
8.63647461,-90.95941000
8.66699219,-80.98134000
8.69750977,-77.99091000
8.72802734,-77.64783000
8.75854492,-77.61970000
8.78906250,-75.96010000
8.81958008,-74.66395000
8.85009766,-74.95210000
8.88061523,-76.76817000
8.91113281,-79.59482000
8.94165039,-81.56387000
8.97216797,-81.31839000
9.00268555,-80.70403000
9.03320313,-81.05933000
9.06372070,-78.18773000
9.09423828,-74.18968000
9.12475586,-72.92184000
9.15527344,-74.20094000
9.18579102,-76.89587000
9.21630859,-80.38515000
9.24682617,-83.84560000
9.27734375,-81.08977000
9.30786133,-79.43292000
9.33837891,-79.63506000
9.36889648,-77.72357000
9.39941406,-75.15332000
9.42993164,-74.48371000
9.46044922,-75.72260000
9.49096680,-77.70667000
9.52148438,-80.11609000
9.55200195,-86.07892000
9.58251953,-88.84294000
9.61303711,-81.16116000
9.64355469,-76.16899000
9.67407227,-73.22559000
9.70458984,-72.41943000
9.73510742,-73.22490000
9.76562500,-74.70282000
9.79614258,-76.04155000
9.82666016,-76.89249000
9.85717773,-76.76558000
9.88769531,-75.77290000
9.91821289,-74.68900000
9.94873047,-73.85143000
9.97924805,-73.30415000
10.00976563,-73.44713000
10.04028320,-75.41785000
10.07080078,-81.11652000
10.10131836,-94.20528000
10.13183594,-94.51013000
10.16235352,-89.09737000
10.19287109,-82.07226000
10.22338867,-80.40237000
10.25390625,-80.30145000
10.28442383,-79.26671000
10.31494141,-78.91113000
10.34545898,-80.09242000
10.37597656,-81.89686000
10.40649414,-81.95938000
10.43701172,-79.44516000
10.46752930,-77.51991000
10.49804688,-77.84600000
10.52856445,-79.79466000
10.55908203,-79.94994000
10.58959961,-78.57251000
10.62011719,-77.63414000
10.65063477,-76.68473000
10.68115234,-76.13133000
10.71166992,-76.61909000
10.74218750,-77.10806000
10.77270508,-76.49590000
10.80322266,-75.81527000
10.83374023,-75.06722000
10.86425781,-74.62674000
10.89477539,-75.49289000
10.92529297,-77.51616000
10.95581055,-78.83116000
10.98632813,-78.55102000
11.01684570,-77.75073000
11.04736328,-76.57070000
11.07788086,-75.37090000
11.10839844,-74.60515000
11.13891602,-74.42438000
11.16943359,-74.93651000
11.19995117,-75.90115000
11.23046875,-76.64615000
11.26098633,-77.22861000
11.29150391,-77.42009000
11.32202148,-76.83323000
11.35253906,-75.55836000
11.38305664,-73.71700000
11.41357422,-72.69441000
11.44409180,-73.02328000
11.47460938,-74.48973000
11.50512695,-76.74100000
11.53564453,-79.03531000
11.56616211,-81.06392000
11.59667969,-84.84659000
11.62719727,-92.59277000
11.65771484,-90.27187000
11.68823242,-89.05021000
11.71875000,-90.13969000
11.74926758,-87.82010000
11.77978516,-81.32221000
11.81030273,-75.88995000
11.84082031,-73.75709000
11.87133789,-74.60208000
11.90185547,-77.68227000
11.93237305,-81.34665000
11.96289063,-84.74532000
11.99340820,-84.80865000
12.02392578,-81.37913000
12.05444336,-80.11519000
12.08496094,-79.47974000
12.11547852,-77.31065000
12.14599609,-75.20174000
12.17651367,-74.32783000
12.20703125,-75.17410000
12.23754883,-78.64880000
12.26806641,-84.54429000
12.29858398,-83.16657000
12.32910156,-82.70318000
12.35961914,-82.99573000
12.39013672,-81.02545000
12.42065430,-80.97726000
12.45117188,-84.77477000
12.48168945,-96.31313000
12.51220703,-91.53220000
12.54272461,-86.17441000
12.57324219,-83.83183000
12.60375977,-84.28712000
12.63427734,-88.80952000
12.66479492,-90.29809000
12.69531250,-83.48198000
12.72583008,-78.71590000
12.75634766,-75.16970000
12.78686523,-73.49593000
12.81738281,-74.29004000
12.84790039,-77.33826000
12.87841797,-78.42899000
12.90893555,-77.33704000
12.93945313,-78.12073000
12.96997070,-79.68083000
13.00048828,-80.04012000
13.03100586,-80.07454000
13.06152344,-80.95750000
13.09204102,-83.18681000
13.12255859,-86.23707000
13.15307617,-87.92981000
13.18359375,-87.17999000
13.21411133,-84.61736000
13.24462891,-84.71595000
13.27514648,-93.83821000
13.30566406,-88.25966000
13.33618164,-82.47452000
13.36669922,-80.17277000
13.39721680,-78.77608000
13.42773438,-79.60814000
13.45825195,-80.24609000
13.48876953,-77.46680000
13.51928711,-69.84537000
13.54980469,-65.77013000
13.58032227,-65.43058000
13.61083984,-68.13361000
13.64135742,-71.99322000
13.67187500,-71.96185000
13.70239258,-68.02750000
13.73291016,-65.60323000
13.76342773,-66.05077000
13.79394531,-69.66292000
13.82446289,-75.69768000
13.85498047,-76.97935000
13.88549805,-76.96585000
13.91601563,-79.56382000
13.94653320,-83.27596000
13.97705078,-84.83119000
14.00756836,-84.35536000
14.03808594,-84.27338000
14.06860352,-84.61264000
14.09912109,-85.39680000
14.12963867,-85.35640000
14.16015625,-83.62474000
14.19067383,-83.25645000
14.22119141,-84.75873000
14.25170898,-85.67282000
14.28222656,-84.02177000
14.31274414,-82.78160000
14.34326172,-82.92076000
14.37377930,-81.83441000
14.40429688,-79.83060000
14.43481445,-79.08753000
14.46533203,-79.38049000
14.49584961,-80.48120000
14.52636719,-83.52243000
14.55688477,-91.63070000
14.58740234,-92.37884000
14.61791992,-85.05566000
14.64843750,-83.83328000
14.67895508,-87.11499000
14.70947266,-97.06674000
14.73999023,-87.42687000
14.77050781,-84.66912000
14.80102539,-85.88263000
14.83154297,-88.08692000
14.86206055,-91.52572000
14.89257813,-89.49876000
14.92309570,-83.30620000
14.95361328,-80.48695000
14.98413086,-80.10070000
15.01464844,-81.67459000
15.04516602,-85.13558000
15.07568359,-91.48009000
15.10620117,-100.52950000
15.13671875,-86.01081000
15.16723633,-81.33119000
15.19775391,-79.42545000
15.22827148,-78.30627000
15.25878906,-78.01200000
15.28930664,-79.89483000
15.31982422,-85.68173000
15.35034180,-91.72031000
15.38085938,-90.65724000
15.41137695,-100.66120000
15.44189453,-83.96361000
15.47241211,-78.18669000
15.50292969,-75.62112000
15.53344727,-74.91429000
15.56396484,-75.77462000
15.59448242,-78.34428000
15.62500000,-83.28607000
15.65551758,-89.33900000
15.68603516,-87.23286000
15.71655273,-87.79570000
15.74707031,-88.33064000
15.77758789,-86.46865000
15.80810547,-92.42912000
15.83862305,-87.29796000
15.86914063,-81.53429000
15.89965820,-82.35432000
15.93017578,-89.20073000
15.96069336,-90.21450000
15.99121094,-92.21082000
16.02172852,-94.77431000
16.05224609,-84.58649000
16.08276367,-84.56848000
16.11328125,-95.34837000
16.14379883,-89.47770000
16.17431641,-84.91421000
16.20483398,-86.95907000
16.23535156,-92.74150000
16.26586914,-95.16013000
16.29638672,-95.62233000
16.32690430,-90.95283000
16.35742188,-87.37051000
16.38793945,-86.72803000
16.41845703,-86.21994000
16.44897461,-81.98251000
16.47949219,-79.73263000
16.51000977,-80.52769000
16.54052734,-82.64279000
16.57104492,-83.75787000
16.60156250,-86.45344000
16.63208008,-91.35240000
16.66259766,-88.64928000
16.69311523,-87.81686000
16.72363281,-90.92537000
16.75415039,-91.73377000
16.78466797,-88.27510000
16.81518555,-86.15318000
16.84570313,-84.26627000
16.87622070,-83.11453000
16.90673828,-84.81602000
16.93725586,-94.69705000
16.96777344,-87.54447000
16.99829102,-82.15100000
17.02880859,-80.52390000
17.05932617,-79.13240000
17.08984375,-77.84641000
17.12036133,-78.03622000
17.15087891,-80.61996000
17.18139648,-86.19037000
17.21191406,-93.77406000
17.24243164,-89.84837000
17.27294922,-84.97070000
17.30346680,-82.10984000
17.33398438,-81.13219000
17.36450195,-82.54625000
17.39501953,-86.88884000
17.42553711,-95.35956000
17.45605469,-95.62217000
17.48657227,-86.94107000
17.51708984,-83.85042000
17.54760742,-84.31303000
17.57812500,-88.43067000
17.60864258,-100.10390000
17.63916016,-82.50954000
17.66967773,-73.94885000
17.70019531,-68.83367000
17.73071289,-66.88864000
17.76123047,-67.91320000
17.79174805,-70.50187000
17.82226563,-71.51955000
17.85278320,-72.92886000
17.88330078,-77.15997000
17.91381836,-84.72304000
17.94433594,-97.51050000
17.97485352,-91.93884000
18.00537109,-83.52692000
18.03588867,-79.73376000
18.06640625,-78.76241000
18.09692383,-80.08096000
18.12744141,-82.58179000
18.15795898,-83.70759000
18.18847656,-84.15314000
18.21899414,-84.77871000
18.24951172,-85.48797000
18.28002930,-88.23781000
18.31054688,-88.24292000
18.34106445,-84.58462000
18.37158203,-84.24205000
18.40209961,-87.80643000
18.43261719,-93.52662000
18.46313477,-89.13721000
18.49365234,-85.80023000
18.52416992,-85.45171000
18.55468750,-89.12697000
18.58520508,-101.85970000
18.61572266,-83.24286000
18.64624023,-78.70614000
18.67675781,-78.98631000
18.70727539,-83.57285000
18.73779297,-86.63622000
18.76831055,-87.16770000
18.79882813,-85.04070000
18.82934570,-80.55331000
18.85986328,-79.95432000
18.89038086,-81.84081000
18.92089844,-82.53870000
18.95141602,-82.03664000
18.98193359,-83.52829000
19.01245117,-88.12138000
19.04296875,-94.25832000
19.07348633,-93.13982000
19.10400391,-91.27242000
19.13452148,-91.53775000
19.16503906,-102.08440000
19.19555664,-90.06294000
19.22607422,-83.19518000
19.25659180,-82.63065000
19.28710938,-89.27191000
19.31762695,-90.14865000
19.34814453,-82.52025000
19.37866211,-81.61325000
19.40917969,-82.64600000
19.43969727,-81.39447000
19.47021484,-80.96869000
19.50073242,-85.41259000
19.53125000,-95.75340000
19.56176758,-85.15504000
19.59228516,-84.65183000
19.62280273,-89.65107000
19.65332031,-87.69676000
19.68383789,-84.28443000
19.71435547,-87.64101000
19.74487305,-90.73792000
19.77539063,-83.02059000
19.80590820,-83.27570000
19.83642578,-89.93489000
19.86694336,-86.40620000
19.89746094,-85.37656000
19.92797852,-93.96819000
19.95849609,-85.57149000
19.98901367,-83.21293000
20.01953125,-88.74897000
20.05004883,-83.28680000
20.08056641,-79.30016000
20.11108398,-80.44374000
20.14160156,-86.45200000
20.17211914,-102.62860000
20.20263672,-100.28110000
20.23315430,-88.90385000
20.26367188,-82.15326000
20.29418945,-81.87189000
20.32470703,-92.17059000
20.35522461,-85.81706000
20.38574219,-81.22021000
20.41625977,-83.08627000
20.44677734,-83.32854000
20.47729492,-81.62399000
20.50781250,-83.57538000
20.53833008,-84.20483000
20.56884766,-83.11584000
20.59936523,-86.71034000
20.62988281,-90.85571000
20.66040039,-83.44692000
20.69091797,-79.87653000
20.72143555,-79.96442000
20.75195313,-82.91403000
20.78247070,-82.91549000
20.81298828,-83.51219000
20.84350586,-86.05742000
20.87402344,-78.57039000
20.90454102,-75.52471000
20.93505859,-77.07891000
20.96557617,-84.81143000
20.99609375,-85.64928000
21.02661133,-83.62907000
21.05712891,-96.45276000
21.08764648,-84.59154000
21.11816406,-79.91934000
21.14868164,-81.96257000
21.17919922,-100.02280000
21.20971680,-82.61157000
21.24023438,-79.54055000
21.27075195,-79.50561000
21.30126953,-78.71302000
21.33178711,-80.73693000
21.36230469,-95.65120000
21.39282227,-84.05384000
21.42333984,-80.32217000
21.45385742,-82.36247000
21.48437500,-89.28564000
21.51489258,-88.10426000
21.54541016,-84.36491000
21.57592773,-84.59176000
21.60644531,-87.55344000
21.63696289,-92.69310000
21.66748047,-89.06712000
21.69799805,-80.40557000
21.72851563,-77.75599000
21.75903320,-80.13998000
21.78955078,-88.61573000
21.82006836,-82.00734000
21.85058594,-80.09950000
21.88110352,-85.39395000
21.91162109,-86.54759000
21.94213867,-78.90626000
21.97265625,-78.39008000
22.00317383,-82.76862000
22.03369141,-86.92161000
22.06420898,-84.81877000
22.09472656,-88.35789000
22.12524414,-99.42204000
22.15576172,-89.96207000
22.18627930,-91.45804000
22.21679688,-93.06080000
22.24731445,-85.29250000
22.27783203,-82.79713000
22.30834961,-82.76473000
22.33886719,-84.12422000
22.36938477,-87.55569000
22.39990234,-88.60529000
22.43041992,-83.04086000
22.46093750,-79.90375000
22.49145508,-79.37630000
22.52197266,-80.97207000
22.55249023,-83.55999000
22.58300781,-85.25478000
22.61352539,-84.83194000
22.64404297,-83.39082000
22.67456055,-83.02583000
22.70507813,-84.02953000
22.73559570,-85.86815000
22.76611328,-88.49117000
22.79663086,-92.34673000
22.82714844,-91.62843000
22.85766602,-89.85692000
22.88818359,-90.75658000
22.91870117,-88.66014000
22.94921875,-86.37542000
22.97973633,-87.65010000
23.01025391,-90.94041000
23.04077148,-90.00382000
23.07128906,-88.05698000
23.10180664,-86.09504000
23.13232422,-84.62920000
23.16284180,-84.00128000
23.19335938,-83.82320000
23.22387695,-84.24679000
23.25439453,-85.06461000
23.28491211,-84.84058000
23.31542969,-84.63794000
23.34594727,-86.85379000
23.37646484,-92.15393000
23.40698242,-93.24187000
23.43750000,-91.30833000
23.46801758,-88.55476000
23.49853516,-85.62854000
23.52905273,-84.63723000
23.55957031,-84.86756000
23.59008789,-84.36368000
23.62060547,-83.20615000
23.65112305,-83.19691000
23.68164063,-83.00065000
23.71215820,-81.61833000
23.74267578,-81.89609000
23.77319336,-84.36040000
23.80371094,-87.30771000
23.83422852,-90.28793000
23.86474609,-91.01948000
23.89526367,-89.18739000
23.92578125,-89.06444000
23.95629883,-88.69622000
23.98681641,-87.35278000
24.01733398,-87.38591000
24.04785156,-89.40075000
24.07836914,-92.26344000
24.10888672,-92.73258000
24.13940430,-90.88327000
24.16992188,-89.30341000
24.20043945,-88.77437000
24.23095703,-89.57813000
24.26147461,-92.06847000
24.29199219,-95.24821000
24.32250977,-94.27764000
24.35302734,-92.58159000
24.38354492,-92.85194000
24.41406250,-94.37315000
24.44458008,-97.01649000
24.47509766,-99.69588000
24.50561523,-105.61710000
24.53613281,-103.29060000
24.56665039,-93.27110000
24.59716797,-89.40608000
24.62768555,-87.10910000
24.65820313,-85.15217000
24.68872070,-83.52779000
24.71923828,-82.47085000
24.74975586,-82.45011000
24.78027344,-84.33051000
24.81079102,-89.38269000
24.84130859,-95.94568000
24.87182617,-90.25713000
24.90234375,-86.97993000
24.93286133,-87.75800000
24.96337891,-94.35172000
24.99389648,-91.75931000
25.02441406,-88.45799000
25.05493164,-90.25311000
25.08544922,-94.73505000
25.11596680,-94.40247000
25.14648438,-90.02937000
25.17700195,-86.64003000
25.20751953,-84.74590000
25.23803711,-84.15230000
25.26855469,-85.04111000
25.29907227,-88.77373000
25.32958984,-96.35978000
25.36010742,-93.36725000
25.39062500,-92.36201000
25.42114258,-96.19395000
25.45166016,-113.59560000
25.48217773,-97.44073000
25.51269531,-90.42113000
25.54321289,-87.48013000
25.57373047,-86.63650000
25.60424805,-87.35828000
25.63476563,-92.10491000
25.66528320,-99.72427000
25.69580078,-91.19392000
25.72631836,-91.68146000
25.75683594,-97.08502000
25.78735352,-94.65169000
25.81787109,-91.13290000
25.84838867,-89.85178000
25.87890625,-90.30084000
25.90942383,-91.00073000
25.93994141,-89.18884000
25.97045898,-85.82137000
26.00097656,-83.44997000
26.03149414,-82.70141000
26.06201172,-83.03284000
26.09252930,-84.70443000
26.12304688,-90.93171000
26.15356445,-92.93788000
26.18408203,-83.34281000
26.21459961,-81.20985000
26.24511719,-83.00719000
26.27563477,-88.34631000
26.30615234,-93.74709000
26.33666992,-89.92982000
26.36718750,-86.57204000
26.39770508,-85.92937000
26.42822266,-87.03029000
26.45874023,-87.12615000
26.48925781,-85.88907000
26.51977539,-86.07827000
26.55029297,-88.17815000
26.58081055,-86.05599000
26.61132813,-82.30556000
26.64184570,-81.95504000
26.67236328,-85.58162000
26.70288086,-92.42278000
26.73339844,-92.41547000
26.76391602,-85.11254000
26.79443359,-82.26840000
26.82495117,-84.26711000
26.85546875,-93.85479000
26.88598633,-93.92761000
26.91650391,-86.77139000
26.94702148,-84.46068000
26.97753906,-84.16763000
27.00805664,-85.69260000
27.03857422,-89.19481000
27.06909180,-94.48621000
27.09960938,-90.76244000
27.13012695,-87.94327000
27.16064453,-88.71476000
27.19116211,-89.77409000
27.22167969,-89.35067000
27.25219727,-90.06470000
27.28271484,-93.09533000
27.31323242,-103.49820000
27.34375000,-88.52322000
27.37426758,-83.18092000
27.40478516,-82.63026000
27.43530273,-84.94768000
27.46582031,-85.31989000
27.49633789,-84.75896000
27.52685547,-85.18439000
27.55737305,-83.74960000
27.58789063,-83.15246000
27.61840820,-86.00726000
27.64892578,-90.73938000
27.67944336,-87.38888000
27.70996094,-86.58594000
27.74047852,-89.99345000
27.77099609,-97.14362000
27.80151367,-95.28438000
27.83203125,-90.36360000
27.86254883,-87.83743000
27.89306641,-86.11249000
27.92358398,-85.23466000
27.95410156,-86.64695000
27.98461914,-92.62553000
28.01513672,-104.29140000
28.04565430,-105.14920000
28.07617188,-95.57357000
28.10668945,-89.81456000
28.13720703,-87.44862000
28.16772461,-84.79297000
28.19824219,-82.83883000
28.22875977,-81.40990000
28.25927734,-80.29225000
28.28979492,-80.16906000
28.32031250,-81.55064000
28.35083008,-84.81268000
28.38134766,-89.47238000
28.41186523,-93.91505000
28.44238281,-107.33870000
28.47290039,-98.62366000
28.50341797,-94.65224000
28.53393555,-93.23607000
28.56445313,-93.63760000
28.59497070,-95.15697000
28.62548828,-92.49097000
28.65600586,-89.11307000
28.68652344,-86.57513000
28.71704102,-86.39235000
28.74755859,-87.88277000
28.77807617,-88.91318000
28.80859375,-89.29356000
28.83911133,-89.66511000
28.86962891,-89.39082000
28.90014648,-90.13023000
28.93066406,-94.75696000
28.96118164,-97.23687000
28.99169922,-92.32196000
29.02221680,-88.83519000
29.05273438,-86.98187000
29.08325195,-89.47900000
29.11376953,-93.70552000
29.14428711,-88.39258000
29.17480469,-87.65108000
29.20532227,-89.36053000
29.23583984,-88.97546000
29.26635742,-86.62285000
29.29687500,-84.26975000
29.32739258,-83.09669000
29.35791016,-83.23212000
29.38842773,-84.70203000
29.41894531,-87.64954000
29.44946289,-93.00714000
29.47998047,-97.17906000
29.51049805,-89.98550000
29.54101563,-88.00385000
29.57153320,-89.95620000
29.60205078,-96.39005000
29.63256836,-99.57491000
29.66308594,-93.49648000
29.69360352,-90.99930000
29.72412109,-88.37788000
29.75463867,-86.50986000
29.78515625,-86.26799000
29.81567383,-86.52229000
29.84619141,-86.17370000
29.87670898,-85.99734000
29.90722656,-87.30573000
29.93774414,-90.67986000
29.96826172,-98.05924000
29.99877930,-99.92512000
30.02929688,-90.27440000
30.05981445,-88.21609000
30.09033203,-92.02916000
30.12084961,-106.20490000
30.15136719,-90.61568000
30.18188477,-88.88203000
30.21240234,-91.87183000
30.24291992,-95.57205000
30.27343750,-91.33667000
30.30395508,-88.98680000
30.33447266,-89.60611000
30.36499023,-89.04003000
30.39550781,-85.41210000
30.42602539,-83.86110000
30.45654297,-85.12890000
30.48706055,-90.11600000
30.51757813,-101.63510000
30.54809570,-90.04333000
30.57861328,-87.25987000
30.60913086,-88.20120000
30.63964844,-89.74109000
30.67016602,-90.03806000
30.70068359,-88.79578000
30.73120117,-86.31769000
30.76171875,-85.46043000
30.79223633,-87.32864000
30.82275391,-93.16489000
30.85327148,-99.75195000
30.88378906,-95.14822000
30.91430664,-95.62720000
30.94482422,-98.15873000
30.97534180,-98.10374000
31.00585938,-97.11213000
31.03637695,-98.28190000
31.06689453,-110.86140000
31.09741211,-95.65192000
31.12792969,-95.40591000
31.15844727,-102.92110000
31.18896484,-88.71933000
31.21948242,-83.23529000
31.25000000,-81.42887000
31.28051758,-82.45714000
31.31103516,-86.44296000
31.34155273,-93.47248000
31.37207031,-88.37724000
31.40258789,-84.54517000
31.43310547,-84.39029000
31.46362305,-86.59601000
31.49414063,-89.13277000
31.52465820,-92.85813000
31.55517578,-90.90186000
31.58569336,-86.62528000
31.61621094,-86.25077000
31.64672852,-88.51004000
31.67724609,-94.16602000
31.70776367,-109.81520000
31.73828125,-101.30670000
31.76879883,-100.35250000
31.79931641,-94.75198000
31.82983398,-97.12208000
31.86035156,-97.83701000
31.89086914,-92.77243000
31.92138672,-94.17392000
31.95190430,-92.22592000
31.98242188,-89.35204000
32.01293945,-89.76924000
32.04345703,-89.31773000
32.07397461,-88.66115000
32.10449219,-92.08031000
32.13500977,-109.10780000
32.16552734,-93.17380000
32.19604492,-88.45679000
32.22656250,-86.86561000
32.25708008,-86.85340000
32.28759766,-87.94176000
32.31811523,-90.49586000
32.34863281,-98.67265000
32.37915039,-97.17842000
32.40966797,-91.00591000
32.44018555,-92.77314000
32.47070313,-115.41860000
32.50122070,-93.61530000
32.53173828,-90.28771000
32.56225586,-90.99831000
32.59277344,-88.62407000
32.62329102,-85.93024000
32.65380859,-85.60760000
32.68432617,-85.31544000
32.71484375,-84.08611000
32.74536133,-83.44839000
32.77587891,-84.34807000
32.80639648,-86.98035000
32.83691406,-90.24387000
32.86743164,-92.51015000
32.89794922,-90.50727000
32.92846680,-86.34338000
32.95898438,-83.24467000
32.98950195,-82.33369000
33.02001953,-84.15925000
33.05053711,-88.29448000
33.08105469,-88.89499000
33.11157227,-89.01234000
33.14208984,-92.20576000
33.17260742,-87.86107000
33.20312500,-84.96400000
33.23364258,-86.58554000
33.26416016,-95.73001000
33.29467773,-92.15623000
33.32519531,-86.84647000
33.35571289,-87.11250000
33.38623047,-90.93878000
33.41674805,-92.64874000
33.44726563,-86.66838000
33.47778320,-83.45128000
33.50830078,-83.22659000
33.53881836,-85.23971000
33.56933594,-87.79972000
33.59985352,-87.30606000
33.63037109,-85.54230000
33.66088867,-85.59853000
33.69140625,-87.66808000
33.72192383,-90.74123000
33.75244141,-90.05395000
33.78295898,-87.79498000
33.81347656,-86.61667000
33.84399414,-86.92831000
33.87451172,-89.91238000
33.90502930,-91.67782000
33.93554688,-84.08006000
33.96606445,-80.45113000
33.99658203,-80.24121000
34.02709961,-82.89171000
34.05761719,-87.79655000
34.08813477,-92.92200000
34.11865234,-95.22862000
34.14916992,-90.70129000
34.17968750,-85.40344000
34.21020508,-83.30217000
34.24072266,-84.49599000
34.27124023,-90.52486000
34.30175781,-95.52798000
34.33227539,-85.32352000
34.36279297,-82.40070000
34.39331055,-82.93988000
34.42382813,-87.45500000
34.45434570,-101.20140000
34.48486328,-91.03118000
34.51538086,-88.36333000
34.54589844,-87.73637000
34.57641602,-87.23639000
34.60693359,-86.73133000
34.63745117,-86.46607000
34.66796875,-87.56054000
34.69848633,-88.84560000
34.72900391,-86.78418000
34.75952148,-83.56534000
34.79003906,-81.57616000
34.82055664,-81.14702000
34.85107422,-81.74059000
34.88159180,-83.20545000
34.91210938,-87.61732000
34.94262695,-108.49000000
34.97314453,-86.22196000
35.00366211,-82.21587000
35.03417969,-81.95779000
35.06469727,-84.36308000
35.09521484,-89.06343000
35.12573242,-95.03468000
35.15625000,-100.57670000
35.18676758,-99.57864000
35.21728516,-97.54730000
35.24780273,-105.81480000
35.27832031,-95.51444000
35.30883789,-88.70985000
35.33935547,-87.14905000
35.36987305,-89.59282000
35.40039063,-100.46840000
35.43090820,-93.54031000
35.46142578,-89.51656000
35.49194336,-93.06702000
35.52246094,-107.10200000
35.55297852,-90.85159000
35.58349609,-88.01376000
35.61401367,-88.32803000
35.64453125,-89.67747000
35.67504883,-89.55624000
35.70556641,-87.57552000
35.73608398,-85.47632000
35.76660156,-84.29218000
35.79711914,-85.43961000
35.82763672,-90.88074000
35.85815430,-107.46650000
35.88867188,-90.95425000
35.91918945,-86.68674000
35.94970703,-85.56642000
35.98022461,-86.35347000
36.01074219,-89.27159000
36.04125977,-92.90216000
36.07177734,-88.73733000
36.10229492,-86.77263000
36.13281250,-88.40488000
36.16333008,-92.12776000
36.19384766,-96.17700000
36.22436523,-109.24630000
36.25488281,-96.83290000
36.28540039,-89.28291000
36.31591797,-86.05758000
36.34643555,-85.71087000
36.37695313,-88.67629000
36.40747070,-94.27760000
36.43798828,-91.69270000
36.46850586,-90.48866000
36.49902344,-93.86092000
36.52954102,-92.43623000
36.56005859,-86.53386000
36.59057617,-84.80309000
36.62109375,-86.56552000
36.65161133,-88.68598000
36.68212891,-89.16681000
36.71264648,-95.17966000
36.74316406,-97.14378000
36.77368164,-93.44727000
36.80419922,-100.40880000
36.83471680,-92.03023000
36.86523438,-87.51527000
36.89575195,-87.90163000
36.92626953,-92.34891000
36.95678711,-101.08610000
36.98730469,-100.01580000
37.01782227,-93.21141000
37.04833984,-91.52101000
37.07885742,-92.05566000
37.10937500,-87.80949000
37.13989258,-85.51469000
37.17041016,-87.73457000
37.20092773,-91.24298000
37.23144531,-85.67092000
37.26196289,-82.92453000
37.29248047,-82.46390000
37.32299805,-82.68897000
37.35351563,-82.45012000
37.38403320,-81.90128000
37.41455078,-82.25720000
37.44506836,-85.23412000
37.47558594,-94.08783000
37.50610352,-87.94043000
37.53662109,-84.30718000
37.56713867,-85.32669000
37.59765625,-89.76991000
37.62817383,-96.37285000
37.65869141,-94.24251000
37.68920898,-89.32379000
37.71972656,-87.69927000
37.75024414,-89.49089000
37.78076172,-95.80324000
37.81127930,-103.41160000
37.84179688,-94.12695000
37.87231445,-91.69223000
37.90283203,-94.74998000
37.93334961,-119.71080000
37.96386719,-93.42564000
37.99438477,-89.28404000
38.02490234,-88.28175000
38.05541992,-88.37468000
38.08593750,-89.53241000
38.11645508,-92.76950000
38.14697266,-96.23778000
38.17749023,-93.27905000
38.20800781,-90.69431000
38.23852539,-91.20328000
38.26904297,-98.08834000
38.29956055,-94.77400000
38.33007813,-89.03445000
38.36059570,-90.35489000
38.39111328,-98.16447000
38.42163086,-95.18349000
38.45214844,-91.64962000
38.48266602,-90.70389000
38.51318359,-89.98755000
38.54370117,-87.54141000
38.57421875,-86.38169000
38.60473633,-87.75340000
38.63525391,-90.35241000
38.66577148,-90.86991000
38.69628906,-88.72314000
38.72680664,-86.83176000
38.75732422,-86.44829000
38.78784180,-86.98058000
38.81835938,-85.54027000
38.84887695,-83.79723000
38.87939453,-83.56847000
38.90991211,-83.05254000
38.94042969,-82.00230000
38.97094727,-81.90670000
39.00146484,-83.13974000
39.03198242,-86.28341000
39.06250000,-93.23009000
39.09301758,-106.51420000
39.12353516,-110.43700000
39.15405273,-98.47901000
39.18457031,-92.07010000
39.21508789,-86.79454000
39.24560547,-83.04093000
39.27612305,-82.27273000
39.30664063,-84.18087000
39.33715820,-87.30003000
39.36767578,-87.50069000
39.39819336,-85.35529000
39.42871094,-85.21971000
39.45922852,-86.98685000
39.48974609,-85.68034000
39.52026367,-82.70590000
39.55078125,-81.40842000
39.58129883,-81.33910000
39.61181641,-81.69641000
39.64233398,-83.85764000
39.67285156,-91.40194000
39.70336914,-89.55505000
39.73388672,-85.71614000
39.76440430,-86.75414000
39.79492188,-90.48372000
39.82543945,-93.56802000
39.85595703,-92.62524000
39.88647461,-93.26156000
39.91699219,-93.76958000
39.94750977,-90.44961000
39.97802734,-88.94740000
40.00854492,-91.42066000
40.03906250,-102.35850000
40.06958008,-92.68264000
40.10009766,-88.62785000
40.13061523,-90.40810000
40.16113281,-101.84080000
40.19165039,-93.63339000
40.22216797,-90.92392000
40.25268555,-94.92838000
40.28320313,-93.10812000
40.31372070,-85.16722000
40.34423828,-81.31468000
40.37475586,-80.41972000
40.40527344,-82.75872000
40.43579102,-89.27037000
40.46630859,-90.05681000
40.49682617,-88.76756000
40.52734375,-92.48534000
40.55786133,-91.78733000
40.58837891,-85.33641000
40.61889648,-81.27126000
40.64941406,-80.01822000
40.67993164,-81.33704000
40.71044922,-84.15214000
40.74096680,-86.19736000
40.77148438,-85.03971000
40.80200195,-81.71535000
40.83251953,-80.89046000
40.86303711,-84.15381000
40.89355469,-91.26736000
40.92407227,-88.95412000
40.95458984,-86.98183000
40.98510742,-83.78811000
41.01562500,-83.25974000
41.04614258,-88.94128000
41.07666016,-102.32260000
41.10717773,-94.68726000
41.13769531,-94.37473000
41.16821289,-82.50650000
41.19873047,-78.76505000
41.22924805,-78.00153000
41.25976563,-78.59780000
41.29028320,-79.66789000
41.32080078,-81.34866000
41.35131836,-84.39763000
41.38183594,-87.77173000
41.41235352,-89.40501000
41.44287109,-89.71291000
41.47338867,-87.00359000
41.50390625,-85.52529000
41.53442383,-86.90762000
41.56494141,-92.35093000
41.59545898,-107.63140000
41.62597656,-97.39040000
41.65649414,-98.45744000
41.68701172,-101.42930000
41.71752930,-96.29739000
41.74804688,-94.38255000
41.77856445,-94.26694000
41.80908203,-95.24433000
41.83959961,-94.53571000
41.87011719,-87.18525000
41.90063477,-83.56689000
41.93115234,-82.79408000
41.96166992,-83.62665000
41.99218750,-86.23666000
42.02270508,-95.43645000
42.05322266,-91.71378000
42.08374023,-84.57758000
42.11425781,-83.30597000
42.14477539,-85.03482000
42.17529297,-85.74072000
42.20581055,-82.20176000
42.23632813,-79.91035000
42.26684570,-79.53422000
42.29736328,-80.84790000
42.32788086,-84.16808000
42.35839844,-89.75409000
42.38891602,-96.93519000
42.41943359,-98.84023000
42.44995117,-92.70546000
42.48046875,-86.99957000
42.51098633,-83.97729000
42.54150391,-82.93799000
42.57202148,-83.74714000
42.60253906,-88.02641000
42.63305664,-98.72641000
42.66357422,-94.43188000
42.69409180,-96.75171000
42.72460938,-92.31058000
42.75512695,-88.78688000
42.78564453,-88.28416000
42.81616211,-87.41878000
42.84667969,-86.60574000
42.87719727,-87.12754000
42.90771484,-90.03781000
42.93823242,-97.26200000
42.96875000,-87.59541000
42.99926758,-83.12419000
43.02978516,-82.58441000
43.06030273,-84.39909000
43.09082031,-88.43368000
43.12133789,-92.84370000
43.15185547,-88.34143000
43.18237305,-85.27253000
43.21289063,-84.65633000
43.24340820,-85.71150000
43.27392578,-87.49918000
43.30444336,-90.62531000
43.33496094,-101.53830000
43.36547852,-95.10849000
43.39599609,-90.96632000
43.42651367,-93.30573000
43.45703125,-96.73539000
43.48754883,-99.37593000
43.51806641,-105.90510000
43.54858398,-91.70036000
43.57910156,-88.09737000
43.60961914,-89.72187000
43.64013672,-99.17068000
43.67065430,-89.19742000
43.70117188,-86.71996000
43.73168945,-88.60463000
43.76220703,-91.33798000
43.79272461,-89.42302000
43.82324219,-88.56631000
43.85375977,-92.13388000
43.88427734,-96.45249000
43.91479492,-88.99056000
43.94531250,-85.16019000
43.97583008,-84.23141000
44.00634766,-84.75900000
44.03686523,-85.78735000
44.06738281,-89.95957000
44.09790039,-105.23510000
44.12841797,-97.55973000
44.15893555,-116.74440000
44.18945313,-92.34870000
44.21997070,-87.22123000
44.25048828,-85.80328000
44.28100586,-86.89899000
44.31152344,-94.12389000
44.34204102,-92.61830000
44.37255859,-84.75035000
44.40307617,-83.65009000
44.43359375,-84.56384000
44.46411133,-81.50665000
44.49462891,-78.63805000
44.52514648,-78.11020000
44.55566406,-79.41035000
44.58618164,-81.93716000
44.61669922,-85.59310000
44.64721680,-88.46477000
44.67773438,-86.96732000
44.70825195,-87.53289000
44.73876953,-91.94778000
44.76928711,-96.00731000
44.79980469,-91.38698000
44.83032227,-87.36368000
44.86083984,-86.92488000
44.89135742,-88.97507000
44.92187500,-90.37553000
44.95239258,-89.79748000
44.98291016,-85.30387000
45.01342773,-80.99847000
45.04394531,-79.73950000
45.07446289,-81.44298000
45.10498047,-86.02176000
45.13549805,-91.30273000
45.16601563,-87.81258000
45.19653320,-84.20731000
45.22705078,-82.85585000
45.25756836,-83.71864000
45.28808594,-88.10310000
45.31860352,-103.79100000
45.34912109,-85.87367000
45.37963867,-82.17465000
45.41015625,-82.97122000
45.44067383,-87.06175000
45.47119141,-91.43657000
45.50170898,-89.47364000
45.53222656,-84.68892000
45.56274414,-83.01609000
45.59326172,-84.47737000
45.62377930,-88.11855000
45.65429688,-97.40592000
45.68481445,-87.57025000
45.71533203,-81.86407000
45.74584961,-81.05620000
45.77636719,-82.68420000
45.80688477,-83.64545000
45.83740234,-82.46088000
45.86791992,-81.82267000
45.89843750,-82.86879000
45.92895508,-85.60854000
45.95947266,-89.43163000
45.98999023,-86.83300000
46.02050781,-80.67413000
46.05102539,-77.41050000
46.08154297,-77.29810000
46.11206055,-80.34066000
46.14257813,-86.78288000
46.17309570,-88.74297000
46.20361328,-83.58758000
46.23413086,-81.75226000
46.26464844,-82.83893000
46.29516602,-86.42073000
46.32568359,-85.98891000
46.35620117,-81.02928000
46.38671875,-79.54405000
46.41723633,-81.97240000
46.44775391,-87.93697000
46.47827148,-91.28150000
46.50878906,-91.14362000
46.53930664,-89.66132000
46.56982422,-90.31442000
46.60034180,-95.34606000
46.63085938,-111.56930000
46.66137695,-89.09056000
46.69189453,-82.45284000
46.72241211,-80.29953000
46.75292969,-81.47168000
46.78344727,-86.07643000
46.81396484,-96.64046000
46.84448242,-90.62540000
46.87500000,-87.02629000
46.90551758,-88.50356000
46.93603516,-95.46922000
46.96655273,-97.66359000
46.99707031,-87.81951000
47.02758789,-82.41151000
47.05810547,-80.09981000
47.08862305,-81.12113000
47.11914063,-86.29225000
47.14965820,-106.49130000
47.18017578,-89.20110000
47.21069336,-83.54325000
47.24121094,-81.60400000
47.27172852,-81.68059000
47.30224609,-83.67011000
47.33276367,-85.84458000
47.36328125,-82.90775000
47.39379883,-81.16028000
47.42431641,-82.73079000
47.45483398,-87.08843000
47.48535156,-91.91006000
47.51586914,-92.13954000
47.54638672,-87.65370000
47.57690430,-84.45540000
47.60742188,-83.02013000
47.63793945,-83.70551000
47.66845703,-88.59001000
47.69897461,-91.25413000
47.72949219,-83.96294000
47.76000977,-83.20901000
47.79052734,-87.03518000
47.82104492,-95.20153000
47.85156250,-97.27820000
47.88208008,-92.36606000
47.91259766,-93.21522000
47.94311523,-100.51190000
47.97363281,-93.75510000
48.00415039,-88.09523000
48.03466797,-85.02161000
48.06518555,-83.97809000
48.09570313,-85.54544000
48.12622070,-89.40765000
48.15673828,-89.33511000
48.18725586,-88.17297000
48.21777344,-88.43606000
48.24829102,-87.58419000
48.27880859,-88.24833000
48.30932617,-93.23889000
48.33984375,-93.75556000
48.37036133,-89.82154000
48.40087891,-92.13435000
48.43139648,-123.68020000
48.46191406,-91.70106000
48.49243164,-87.00088000
48.52294922,-86.67383000
48.55346680,-91.04974000
48.58398438,-93.80654000
48.61450195,-87.08382000
48.64501953,-85.30273000
48.67553711,-86.39625000
48.70605469,-88.44322000
48.73657227,-89.21796000
48.76708984,-88.18741000
48.79760742,-86.30203000
48.82812500,-84.88456000
48.85864258,-85.55786000
48.88916016,-90.32737000
48.91967773,-95.61084000
48.95019531,-89.91016000
48.98071289,-90.88260000
49.01123047,-97.63131000
49.04174805,-93.18144000
49.07226563,-87.54829000
49.10278320,-85.06151000
49.13330078,-85.40549000
49.16381836,-86.18026000
49.19433594,-84.02769000
49.22485352,-81.87645000
49.25537109,-81.80481000
49.28588867,-84.59146000
49.31640625,-92.96677000
49.34692383,-94.41357000
49.37744141,-86.09589000
49.40795898,-84.49686000
49.43847656,-86.57711000
49.46899414,-89.65049000
49.49951172,-87.45803000
49.53002930,-84.42610000
49.56054688,-82.98116000
49.59106445,-84.04047000
49.62158203,-85.53909000
49.65209961,-82.29804000
49.68261719,-80.87915000
49.71313477,-82.88440000
49.74365234,-87.97672000
49.77416992,-90.17004000
49.80468750,-86.04192000
49.83520508,-83.77513000
49.86572266,-83.88620000
49.89624023,-85.48254000
49.92675781,-85.69688000
49.95727539,-85.44414000
49.98779297,-89.00175000
50.01831055,-118.26840000
