Frequency,Channel A
(MHz),(dBu)

0.00000000,-13.78695000
0.03051758,-14.16636000
0.06103516,-19.43397000
0.09155273,-29.69725000
0.12207031,-52.20111000
0.15258789,-48.52781000
0.18310547,-50.20214000
0.21362305,-51.17481000
0.24414063,-53.15415000
0.27465820,-53.46285000
0.30517578,-54.72670000
0.33569336,-54.47858000
0.36621094,-52.41135000
0.39672852,-52.52068000
0.42724609,-56.52417000
0.45776367,-69.61076000
0.48828125,-57.83413000
0.51879883,-54.44037000
0.54931641,-55.72371000
0.57983398,-62.89301000
0.61035156,-63.04111000
0.64086914,-54.55337000
0.67138672,-51.74133000
0.70190430,-51.71459000
0.73242188,-53.94589000
0.76293945,-58.97856000
0.79345703,-70.22498000
0.82397461,-63.62965000
0.85449219,-58.56190000
0.88500977,-56.31451000
0.91552734,-55.38141000
0.94604492,-55.49216000
0.97656250,-55.56049000
1.00708008,-54.19860000
1.03759766,-52.54488000
1.06811523,-51.87924000
1.09863281,-52.76215000
1.12915039,-56.05489000
1.15966797,-62.71885000
1.19018555,-60.53341000
1.22070313,-58.51674000
1.25122070,-60.92459000
1.28173828,-62.24777000
1.31225586,-59.83420000
1.34277344,-58.83675000
1.37329102,-57.54525000
1.40380859,-55.75710000
1.43432617,-55.25337000
1.46484375,-56.14470000
1.49536133,-57.62703000
1.52587891,-58.94478000
1.55639648,-59.67390000
1.58691406,-59.86623000
1.61743164,-60.29258000
1.64794922,-61.20571000
1.67846680,-61.42973000
1.70898438,-60.18716000
1.73950195,-59.01476000
1.77001953,-59.06340000
1.80053711,-59.94151000
1.83105469,-59.77204000
1.86157227,-58.64837000
1.89208984,-58.27295000
1.92260742,-59.11881000
1.95312500,-60.69571000
1.98364258,-60.95553000
2.01416016,-59.39999000
2.04467773,-58.24823000
2.07519531,-58.21788000
2.10571289,-59.46212000
2.13623047,-62.95807000
2.16674805,-70.12804000
2.19726563,-63.65050000
2.22778320,-59.08648000
2.25830078,-57.73610000
2.28881836,-58.17108000
2.31933594,-59.41800000
2.34985352,-60.15093000
2.38037109,-60.39522000
2.41088867,-62.31797000
2.44140625,-64.89146000
2.47192383,-61.50018000
2.50244141,-60.03207000
2.53295898,-62.42832000
2.56347656,-65.32648000
2.59399414,-61.94309000
2.62451172,-60.45929000
2.65502930,-61.47011000
2.68554688,-61.49442000
2.71606445,-58.95248000
2.74658203,-57.20438000
2.77709961,-57.24424000
2.80761719,-59.10122000
2.83813477,-61.38492000
2.86865234,-60.64640000
2.89916992,-59.26900000
2.92968750,-59.87480000
2.96020508,-62.64275000
2.99072266,-62.69930000
3.02124023,-59.46714000
3.05175781,-58.27968000
3.08227539,-59.15926000
3.11279297,-60.83698000
3.14331055,-60.84616000
3.17382813,-59.17348000
3.20434570,-57.94302000
3.23486328,-57.80441000
3.26538086,-58.49372000
3.29589844,-59.59396000
3.32641602,-60.77080000
3.35693359,-60.95977000
3.38745117,-60.10590000
3.41796875,-59.92989000
3.44848633,-60.38910000
3.47900391,-59.82233000
3.50952148,-58.72088000
3.54003906,-58.03692000
3.57055664,-57.21661000
3.60107422,-56.05197000
3.63159180,-55.26376000
3.66210938,-55.70243000
3.69262695,-57.65716000
3.72314453,-58.56277000
3.75366211,-56.96741000
3.78417969,-56.33212000
3.81469727,-56.04900000
3.84521484,-54.83778000
3.87573242,-54.15500000
3.90625000,-54.76265000
3.93676758,-56.02156000
3.96728516,-56.72140000
3.99780273,-56.21052000
4.02832031,-55.11238000
4.05883789,-54.53291000
4.08935547,-54.85435000
4.11987305,-55.48254000
4.15039063,-55.62230000
4.18090820,-55.86247000
4.21142578,-57.04991000
4.24194336,-58.22385000
4.27246094,-57.45767000
4.30297852,-56.19139000
4.33349609,-55.60829000
4.36401367,-55.61091000
4.39453125,-56.29227000
4.42504883,-57.96404000
4.45556641,-60.25831000
4.48608398,-61.17412000
4.51660156,-60.53949000
4.54711914,-60.20837000
4.57763672,-60.09704000
4.60815430,-59.90329000
4.63867188,-60.43198000
4.66918945,-62.31642000
4.69970703,-64.36385000
4.73022461,-63.32762000
4.76074219,-61.43034000
4.79125977,-60.61995000
4.82177734,-60.26823000
4.85229492,-59.89677000
4.88281250,-60.59315000
4.91333008,-63.68961000
4.94384766,-65.42492000
4.97436523,-61.36078000
5.00488281,-59.55963000
5.03540039,-59.50022000
5.06591797,-58.77925000
5.09643555,-57.82047000
5.12695313,-58.33334000
5.15747070,-60.23052000
5.18798828,-61.77208000
5.21850586,-62.00713000
5.24902344,-61.58637000
5.27954102,-60.38349000
5.31005859,-59.30508000
5.34057617,-59.63081000
5.37109375,-62.13842000
5.40161133,-66.42664000
5.43212891,-65.68578000
5.46264648,-63.14583000
5.49316406,-62.80512000
5.52368164,-63.81725000
5.55419922,-65.28699000
5.58471680,-68.79936000
5.61523438,-82.42827000
5.64575195,-69.32758000
5.67626953,-63.53408000
5.70678711,-60.26759000
5.73730469,-58.36580000
5.76782227,-58.27416000
5.79833984,-59.98680000
5.82885742,-61.13617000
5.85937500,-59.30094000
5.88989258,-57.09034000
5.92041016,-55.30251000
5.95092773,-54.24480000
5.98144531,-54.35234000
6.01196289,-55.51451000
6.04248047,-56.81686000
6.07299805,-57.40824000
6.10351563,-57.06489000
6.13403320,-55.52171000
6.16455078,-54.09958000
6.19506836,-54.05876000
6.22558594,-55.51432000
6.25610352,-57.45372000
6.28662109,-58.42070000
6.31713867,-58.97944000
6.34765625,-59.58501000
6.37817383,-59.20586000
6.40869141,-58.18889000
6.43920898,-57.90808000
6.46972656,-58.89826000
6.50024414,-61.08535000
6.53076172,-64.22072000
6.56127930,-68.24506000
6.59179688,-70.43102000
6.62231445,-67.47863000
6.65283203,-65.12679000
6.68334961,-64.48148000
6.71386719,-65.37461000
6.74438477,-67.83790000
6.77490234,-72.26259000
6.80541992,-81.16310000
6.83593750,-87.39799000
6.86645508,-78.47221000
6.89697266,-77.45461000
6.92749023,-77.53677000
6.95800781,-75.61917000
6.98852539,-74.10210000
7.01904297,-73.99757000
7.04956055,-75.07552000
7.08007813,-76.56539000
7.11059570,-77.22123000
7.14111328,-77.07565000
7.17163086,-77.95995000
7.20214844,-79.38082000
7.23266602,-74.88488000
7.26318359,-72.00330000
7.29370117,-72.50766000
7.32421875,-76.49934000
7.35473633,-88.62898000
7.38525391,-80.18684000
7.41577148,-73.36931000
7.44628906,-70.59669000
7.47680664,-69.93736000
7.50732422,-70.85025000
7.53784180,-73.22523000
7.56835938,-77.16212000
7.59887695,-84.45748000
7.62939453,-89.36295000
7.65991211,-76.94009000
7.69042969,-73.04043000
7.72094727,-72.71428000
7.75146484,-75.26826000
7.78198242,-76.98119000
7.81250000,-74.15165000
7.84301758,-72.34376000
7.87353516,-73.08163000
7.90405273,-79.25821000
7.93457031,-82.40559000
7.96508789,-73.23375000
7.99560547,-71.61827000
8.02612305,-72.12086000
8.05664063,-71.16522000
8.08715820,-69.85727000
8.11767578,-70.76747000
8.14819336,-74.69210000
8.17871094,-75.18168000
8.20922852,-70.78185000
8.23974609,-68.70973000
8.27026367,-68.08290000
8.30078125,-67.90894000
8.33129883,-68.47398000
8.36181641,-70.46260000
8.39233398,-72.97575000
8.42285156,-73.67140000
8.45336914,-73.07320000
8.48388672,-72.19228000
8.51440430,-72.14593000
8.54492188,-73.86389000
8.57543945,-76.79319000
8.60595703,-79.82133000
8.63647461,-86.54959000
8.66699219,-89.52751000
8.69750977,-79.39444000
8.72802734,-75.91478000
8.75854492,-74.16752000
8.78906250,-73.89503000
8.81958008,-75.70695000
8.85009766,-80.38522000
8.88061523,-91.89759000
8.91113281,-88.60942000
8.94165039,-80.88647000
8.97216797,-78.64850000
9.00268555,-79.58950000
9.03320313,-83.74998000
9.06372070,-94.30469000
9.09423828,-92.23617000
9.12475586,-86.16263000
9.15527344,-87.46589000
9.18579102,-101.51810000
9.21630859,-82.40427000
9.24682617,-78.77769000
9.27734375,-79.22232000
9.30786133,-81.98750000
9.33837891,-85.73842000
9.36889648,-87.97936000
9.39941406,-86.03987000
9.42993164,-82.73103000
9.46044922,-81.71802000
9.49096680,-83.00205000
9.52148438,-81.95184000
9.55200195,-81.75327000
9.58251953,-88.51585000
9.61303711,-88.86505000
9.64355469,-79.89897000
9.67407227,-77.39127000
9.70458984,-77.36569000
9.73510742,-78.64701000
9.76562500,-79.68795000
9.79614258,-78.67997000
9.82666016,-77.01655000
9.85717773,-76.17747000
9.88769531,-76.22766000
9.91821289,-76.78630000
9.94873047,-77.44634000
9.97924805,-78.02805000
10.00976563,-78.21090000
10.04028320,-77.30775000
10.07080078,-75.58631000
10.10131836,-74.29153000
10.13183594,-74.24097000
10.16235352,-75.50484000
10.19287109,-76.87717000
10.22338867,-75.51439000
10.25390625,-73.34165000
10.28442383,-73.22639000
10.31494141,-76.32922000
10.34545898,-86.05743000
10.37597656,-88.09218000
10.40649414,-81.58601000
10.43701172,-80.52682000
10.46752930,-76.46183000
10.49804688,-72.03992000
10.52856445,-70.60593000
10.55908203,-71.71721000
10.58959961,-72.02876000
10.62011719,-70.18419000
10.65063477,-69.78465000
10.68115234,-71.82845000
10.71166992,-77.23093000
10.74218750,-81.13777000
10.77270508,-75.34885000
10.80322266,-73.67601000
10.83374023,-74.61615000
10.86425781,-76.72778000
10.89477539,-80.25613000
10.92529297,-84.20692000
10.95581055,-78.83345000
10.98632813,-75.71910000
11.01684570,-76.88087000
11.04736328,-83.05995000
11.07788086,-84.54151000
11.10839844,-78.84104000
11.13891602,-76.43773000
11.16943359,-76.26949000
11.19995117,-79.35207000
11.23046875,-92.53920000
11.26098633,-83.65012000
11.29150391,-79.69040000
11.32202148,-82.19201000
11.35253906,-88.45847000
11.38305664,-77.48030000
11.41357422,-72.05833000
11.44409180,-69.57986000
11.47460938,-69.45919000
11.50512695,-71.54977000
11.53564453,-75.43227000
11.56616211,-79.05490000
11.59667969,-78.25208000
11.62719727,-77.60667000
11.65771484,-77.93930000
11.68823242,-74.56242000
11.71875000,-71.26685000
11.74926758,-69.81805000
11.77978516,-69.73992000
11.81030273,-70.80058000
11.84082031,-73.49821000
11.87133789,-79.10097000
11.90185547,-81.98058000
11.93237305,-78.29459000
11.96289063,-77.78375000
11.99340820,-75.24377000
12.02392578,-72.06883000
12.05444336,-70.59576000
12.08496094,-70.26443000
12.11547852,-70.70332000
12.14599609,-72.25213000
12.17651367,-75.66100000
12.20703125,-81.29979000
12.23754883,-85.83107000
12.26806641,-83.24726000
12.29858398,-77.26107000
12.32910156,-73.59990000
12.35961914,-71.95362000
12.39013672,-71.75853000
12.42065430,-73.07621000
12.45117188,-77.06464000
12.48168945,-83.09802000
12.51220703,-75.28313000
12.54272461,-71.51752000
12.57324219,-70.06226000
12.60375977,-69.08032000
12.63427734,-68.80355000
12.66479492,-69.96159000
12.69531250,-72.36410000
12.72583008,-75.65472000
12.75634766,-82.45187000
12.78686523,-89.16634000
12.81738281,-78.55372000
12.84790039,-77.72598000
12.87841797,-83.37401000
12.90893555,-83.86117000
12.93945313,-77.10783000
12.96997070,-76.52516000
13.00048828,-79.19836000
13.03100586,-80.64259000
13.06152344,-80.29781000
13.09204102,-79.06831000
13.12255859,-76.71085000
13.15307617,-75.31017000
13.18359375,-75.68671000
13.21411133,-77.32180000
13.24462891,-78.65485000
13.27514648,-78.23328000
13.30566406,-76.95627000
13.33618164,-76.19677000
13.36669922,-76.80359000
13.39721680,-80.09892000
13.42773438,-87.47779000
13.45825195,-77.60014000
13.48876953,-70.04231000
13.51928711,-65.52656000
13.54980469,-63.46708000
13.58032227,-63.74944000
13.61083984,-66.22786000
13.64135742,-70.79850000
13.67187500,-79.20778000
13.70239258,-85.99275000
13.73291016,-75.39757000
13.76342773,-73.23965000
13.79394531,-73.17439000
13.82446289,-72.35147000
13.85498047,-70.91388000
13.88549805,-70.63021000
13.91601563,-72.30498000
13.94653320,-76.27211000
13.97705078,-83.00961000
14.00756836,-83.34358000
14.03808594,-79.37650000
14.06860352,-78.57983000
14.09912109,-79.57646000
14.12963867,-79.48462000
14.16015625,-77.19871000
14.19067383,-75.66451000
14.22119141,-76.29605000
14.25170898,-79.93072000
14.28222656,-84.89885000
14.31274414,-81.07039000
14.34326172,-79.03591000
14.37377930,-80.59182000
14.40429688,-85.25264000
14.43481445,-84.53385000
14.46533203,-82.57285000
14.49584961,-83.95766000
14.52636719,-88.15408000
14.55688477,-94.28532000
14.58740234,-95.21889000
14.61791992,-88.66058000
14.64843750,-84.72453000
14.67895508,-85.79490000
14.70947266,-95.32571000
14.73999023,-91.26228000
14.77050781,-91.65964000
14.80102539,-98.76453000
14.83154297,-84.34457000
14.86206055,-79.98165000
14.89257813,-78.41959000
14.92309570,-78.24442000
14.95361328,-78.95370000
14.98413086,-81.66771000
15.01464844,-88.38691000
15.04516602,-85.28204000
15.07568359,-81.66466000
15.10620117,-82.75593000
15.13671875,-83.85252000
15.16723633,-77.33969000
15.19775391,-73.74802000
15.22827148,-73.27319000
15.25878906,-75.18211000
15.28930664,-77.29594000
15.31982422,-76.96693000
15.35034180,-77.09040000
15.38085938,-78.08541000
15.41137695,-76.78367000
15.44189453,-75.13236000
15.47241211,-75.81026000
15.50292969,-79.96406000
15.53344727,-84.16897000
15.56396484,-78.19966000
15.59448242,-75.68996000
15.62500000,-76.07597000
15.65551758,-78.34687000
15.68603516,-81.28605000
15.71655273,-82.66959000
15.74707031,-82.37850000
15.77758789,-82.75079000
15.80810547,-83.89462000
15.83862305,-85.47464000
15.86914063,-87.73919000
15.89965820,-90.38618000
15.93017578,-93.73879000
15.96069336,-97.00182000
15.99121094,-95.88687000
16.02172852,-92.68079000
16.05224609,-86.62648000
16.08276367,-82.78548000
16.11328125,-82.44804000
16.14379883,-86.10834000
16.17431641,-87.10486000
16.20483398,-80.76880000
16.23535156,-77.30057000
16.26586914,-75.84365000
16.29638672,-75.94733000
16.32690430,-77.50845000
16.35742188,-80.60874000
16.38793945,-86.06968000
16.41845703,-96.69154000
16.44897461,-94.84555000
16.47949219,-92.66870000
16.51000977,-90.73428000
16.54052734,-86.84365000
16.57104492,-84.44942000
16.60156250,-85.10998000
16.63208008,-91.80885000
16.66259766,-94.82828000
16.69311523,-85.12105000
16.72363281,-82.04088000
16.75415039,-81.06841000
16.78466797,-81.58864000
16.81518555,-84.38340000
16.84570313,-92.26042000
16.87622070,-92.02188000
16.90673828,-87.23469000
16.93725586,-87.94769000
16.96777344,-91.61636000
16.99829102,-89.40726000
17.02880859,-85.26398000
17.05932617,-83.52245000
17.08984375,-83.70129000
17.12036133,-86.03528000
17.15087891,-93.26598000
17.18139648,-96.09811000
17.21191406,-87.26395000
17.24243164,-84.53106000
17.27294922,-83.52846000
17.30346680,-84.14014000
17.33398438,-88.13949000
17.36450195,-102.86670000
17.39501953,-89.43223000
17.42553711,-84.79594000
17.45605469,-82.81357000
17.48657227,-81.41896000
17.51708984,-80.29431000
17.54760742,-80.12696000
17.57812500,-81.67966000
17.60864258,-87.78432000
17.63916016,-83.42990000
17.66967773,-72.73346000
17.70019531,-67.75908000
17.73071289,-66.05101000
17.76123047,-66.64321000
17.79174805,-67.76960000
17.82226563,-68.37056000
17.85278320,-69.95414000
17.88330078,-73.15885000
17.91381836,-77.27457000
17.94433594,-81.24072000
17.97485352,-84.23156000
18.00537109,-85.72496000
18.03588867,-86.76273000
18.06640625,-90.03116000
18.09692383,-102.80700000
18.12744141,-94.70013000
18.15795898,-90.74944000
18.18847656,-91.94037000
18.21899414,-102.72600000
18.24951172,-92.35289000
18.28002930,-87.31727000
18.31054688,-86.48946000
18.34106445,-87.69995000
18.37158203,-89.44519000
18.40209961,-88.37218000
18.43261719,-85.45264000
18.46313477,-83.11786000
18.49365234,-81.78619000
18.52416992,-81.18738000
18.55468750,-80.70201000
18.58520508,-80.41226000
18.61572266,-81.47440000
18.64624023,-85.18584000
18.67675781,-89.06018000
18.70727539,-85.52506000
18.73779297,-82.98213000
18.76831055,-81.93366000
18.79882813,-81.85180000
18.82934570,-82.77052000
18.85986328,-84.96430000
18.89038086,-89.17525000
18.92089844,-91.80334000
18.95141602,-86.40018000
18.98193359,-83.48470000
19.01245117,-82.54678000
19.04296875,-82.52121000
19.07348633,-83.81362000
19.10400391,-86.65580000
19.13452148,-90.24345000
19.16503906,-91.74870000
19.19555664,-88.02418000
19.22607422,-83.95844000
19.25659180,-81.92490000
19.28710938,-82.73260000
19.31762695,-86.80922000
19.34814453,-94.73795000
19.37866211,-105.04490000
19.40917969,-96.87759000
19.43969727,-96.65303000
19.47021484,-105.64650000
19.50073242,-93.83722000
19.53125000,-90.10194000
19.56176758,-88.76672000
19.59228516,-87.59799000
19.62280273,-87.23483000
19.65332031,-88.18719000
19.68383789,-88.45153000
19.71435547,-86.11661000
19.74487305,-84.20801000
19.77539063,-83.63695000
19.80590820,-83.45883000
19.83642578,-83.67730000
19.86694336,-84.72130000
19.89746094,-84.54898000
19.92797852,-84.13120000
19.95849609,-85.42056000
19.98901367,-87.83739000
20.01953125,-89.22586000
20.05004883,-88.86342000
20.08056641,-90.37172000
20.11108398,-90.88718000
20.14160156,-88.73420000
20.17211914,-88.70227000
20.20263672,-88.66212000
20.23315430,-84.68155000
20.26367188,-81.54670000
20.29418945,-80.70261000
20.32470703,-81.54881000
20.35522461,-83.29047000
20.38574219,-86.48810000
20.41625977,-89.83418000
20.44677734,-84.29855000
20.47729492,-81.49365000
20.50781250,-82.44836000
20.53833008,-86.14163000
20.56884766,-87.98138000
20.59936523,-86.03415000
20.62988281,-83.65347000
20.66040039,-82.41792000
20.69091797,-82.36035000
20.72143555,-83.11103000
20.75195313,-84.44843000
20.78247070,-87.64960000
20.81298828,-97.91032000
20.84350586,-90.52171000
20.87402344,-84.92843000
20.90454102,-82.05945000
20.93505859,-80.74944000
20.96557617,-80.93207000
20.99609375,-82.69695000
21.02661133,-86.72899000
21.05712891,-93.23811000
21.08764648,-93.78910000
21.11816406,-92.73553000
21.14868164,-91.88103000
21.17919922,-88.90399000
21.20971680,-88.11261000
21.24023438,-94.78011000
21.27075195,-89.67975000
21.30126953,-81.98262000
21.33178711,-79.67344000
21.36230469,-80.12306000
21.39282227,-82.18315000
21.42333984,-84.08952000
21.45385742,-84.46384000
21.48437500,-84.85854000
21.51489258,-86.49323000
21.54541016,-85.36990000
21.57592773,-82.93141000
21.60644531,-82.52132000
21.63696289,-83.64293000
21.66748047,-85.56395000
21.69799805,-88.42400000
21.72851563,-92.23137000
21.75903320,-93.45757000
21.78955078,-89.06226000
21.82006836,-85.63040000
21.85058594,-84.65309000
21.88110352,-86.25824000
21.91162109,-94.66336000
21.94213867,-92.59292000
21.97265625,-85.74931000
22.00317383,-85.94151000
22.03369141,-90.63950000
22.06420898,-98.75528000
22.09472656,-91.50372000
22.12524414,-86.52625000
22.15576172,-85.06042000
22.18627930,-87.55447000
22.21679688,-92.21619000
22.24731445,-88.09473000
22.27783203,-87.49870000
22.30834961,-90.76484000
22.33886719,-92.82178000
22.36938477,-88.67347000
22.39990234,-84.74232000
22.43041992,-83.72760000
22.46093750,-85.87474000
22.49145508,-92.35371000
22.52197266,-96.37241000
22.55249023,-93.09035000
22.58300781,-97.04251000
22.61352539,-98.36312000
22.64404297,-94.34501000
22.67456055,-94.42402000
22.70507813,-91.42088000
22.73559570,-87.40265000
22.76611328,-86.18828000
22.79663086,-86.89514000
22.82714844,-87.12325000
22.85766602,-86.79948000
22.88818359,-87.55058000
22.91870117,-88.96239000
22.94921875,-89.84378000
22.97973633,-90.86456000
23.01025391,-92.43953000
23.04077148,-90.76435000
23.07128906,-90.34067000
23.10180664,-95.85703000
23.13232422,-104.18090000
23.16284180,-97.48097000
23.19335938,-92.43094000
23.22387695,-87.73133000
23.25439453,-85.20023000
23.28491211,-83.37088000
23.31542969,-81.74247000
23.34594727,-80.98758000
23.37646484,-81.34102000
23.40698242,-82.15127000
23.43750000,-82.86679000
23.46801758,-84.04562000
23.49853516,-86.39824000
23.52905273,-90.48383000
23.55957031,-94.21177000
23.59008789,-89.31530000
23.62060547,-86.49300000
23.65112305,-87.27909000
23.68164063,-90.28358000
23.71215820,-91.81815000
23.74267578,-94.03296000
23.77319336,-106.43740000
23.80371094,-99.14577000
23.83422852,-96.47484000
23.86474609,-102.76180000
23.89526367,-99.70467000
23.92578125,-90.20378000
23.95629883,-87.02221000
23.98681641,-86.96351000
24.01733398,-88.01541000
24.04785156,-88.45300000
24.07836914,-89.45522000
24.10888672,-94.50098000
24.13940430,-92.31467000
24.16992188,-85.58263000
24.20043945,-82.48828000
24.23095703,-81.56107000
24.26147461,-82.50040000
24.29199219,-85.61708000
24.32250977,-89.34001000
24.35302734,-86.70853000
24.38354492,-85.78258000
24.41406250,-88.90166000
24.44458008,-92.31106000
24.47509766,-90.23658000
24.50561523,-90.21447000
24.53613281,-92.10212000
24.56665039,-90.67212000
24.59716797,-89.78135000
24.62768555,-95.88762000
24.65820313,-93.79752000
24.68872070,-86.23031000
24.71923828,-84.42747000
24.74975586,-84.90472000
24.78027344,-86.31591000
24.81079102,-88.37820000
24.84130859,-91.48022000
24.87182617,-96.38315000
24.90234375,-98.90977000
24.93286133,-96.22384000
24.96337891,-93.62667000
24.99389648,-90.95596000
25.02441406,-89.83835000
25.05493164,-89.60512000
25.08544922,-88.43066000
25.11596680,-87.10540000
25.14648438,-85.97591000
25.17700195,-84.98999000
25.20751953,-84.45683000
25.23803711,-84.02730000
25.26855469,-84.01740000
25.29907227,-84.72456000
25.32958984,-85.46462000
25.36010742,-85.04866000
25.39062500,-83.22272000
25.42114258,-81.54736000
25.45166016,-81.28549000
25.48217773,-82.79160000
25.51269531,-85.54203000
25.54321289,-88.61404000
25.57373047,-93.28805000
25.60424805,-106.27810000
25.63476563,-93.03722000
25.66528320,-90.58984000
25.69580078,-91.11225000
25.72631836,-94.16724000
25.75683594,-102.30280000
25.78735352,-86.89349000
25.81787109,-83.11317000
25.84838867,-83.13567000
25.87890625,-85.24910000
25.90942383,-88.88942000
25.93994141,-96.33170000
25.97045898,-101.68580000
26.00097656,-105.98050000
26.03149414,-95.14350000
26.06201172,-86.55303000
26.09252930,-83.88963000
26.12304688,-84.56438000
26.15356445,-87.04728000
26.18408203,-87.29865000
26.21459961,-84.78302000
26.24511719,-82.00398000
26.27563477,-80.52008000
26.30615234,-81.07671000
26.33666992,-83.62156000
26.36718750,-87.21088000
26.39770508,-90.06036000
26.42822266,-90.67234000
26.45874023,-89.91771000
26.48925781,-89.64534000
26.51977539,-89.88730000
26.55029297,-89.87834000
26.58081055,-89.79150000
26.61132813,-90.05560000
26.64184570,-91.92163000
26.67236328,-91.97117000
26.70288086,-88.55843000
26.73339844,-88.33683000
26.76391602,-90.35232000
26.79443359,-89.49856000
26.82495117,-86.77721000
26.85546875,-85.28174000
26.88598633,-85.16145000
26.91650391,-84.99108000
26.94702148,-82.64905000
26.97753906,-80.53638000
27.00805664,-80.31559000
27.03857422,-81.24650000
27.06909180,-81.95328000
27.09960938,-83.02722000
27.13012695,-86.95329000
27.16064453,-96.36676000
27.19116211,-90.00928000
27.22167969,-89.62645000
27.25219727,-96.52501000
27.28271484,-100.75120000
27.31323242,-89.63930000
27.34375000,-84.93179000
27.37426758,-83.24013000
27.40478516,-83.45895000
27.43530273,-84.83018000
27.46582031,-86.31694000
27.49633789,-86.68314000
27.52685547,-86.63889000
27.55737305,-86.68538000
27.58789063,-86.62238000
27.61840820,-85.95078000
27.64892578,-84.79491000
27.67944336,-84.54942000
27.70996094,-86.19217000
27.74047852,-89.17078000
27.77099609,-91.68433000
27.80151367,-89.51529000
27.83203125,-86.04622000
27.86254883,-85.37148000
27.89306641,-85.95607000
27.92358398,-84.83495000
27.95410156,-84.39735000
27.98461914,-86.64648000
28.01513672,-91.17535000
28.04565430,-95.37815000
28.07617188,-93.93047000
28.10668945,-90.12453000
28.13720703,-87.66480000
28.16772461,-85.11496000
28.19824219,-83.90603000
28.22875977,-85.34209000
28.25927734,-85.01431000
28.28979492,-83.01471000
28.32031250,-85.44026000
28.35083008,-99.00949000
28.38134766,-86.86572000
28.41186523,-83.34248000
28.44238281,-84.51034000
28.47290039,-89.25481000
28.50341797,-91.72128000
28.53393555,-91.87505000
28.56445313,-103.35670000
28.59497070,-92.19305000
28.62548828,-85.98785000
28.65600586,-84.36732000
28.68652344,-84.61978000
28.71704102,-85.04372000
28.74755859,-84.55716000
28.77807617,-83.72399000
28.80859375,-83.88489000
28.83911133,-85.33006000
28.86962891,-88.02894000
28.90014648,-92.16301000
28.93066406,-93.71535000
28.96118164,-93.47768000
28.99169922,-94.39553000
29.02221680,-91.88354000
29.05273438,-89.54051000
29.08325195,-90.60854000
29.11376953,-97.97067000
29.14428711,-108.92700000
29.17480469,-112.10400000
29.20532227,-97.17064000
29.23583984,-92.38171000
29.26635742,-96.05750000
29.29687500,-103.20220000
29.32739258,-88.91365000
29.35791016,-84.39729000
29.38842773,-83.96733000
29.41894531,-88.26778000
29.44946289,-96.54233000
29.47998047,-86.04584000
29.51049805,-82.34122000
29.54101563,-81.55664000
29.57153320,-82.95824000
29.60205078,-86.66336000
29.63256836,-95.10506000
29.66308594,-99.73237000
29.69360352,-91.11398000
29.72412109,-89.09630000
29.75463867,-88.18023000
29.78515625,-88.13594000
29.81567383,-88.89084000
29.84619141,-89.62730000
29.87670898,-90.87009000
29.90722656,-92.73959000
29.93774414,-92.53059000
29.96826172,-88.02748000
29.99877930,-85.12245000
30.02929688,-86.45155000
30.05981445,-95.10962000
30.09033203,-96.07187000
30.12084961,-91.46571000
30.15136719,-92.50974000
30.18188477,-92.24771000
30.21240234,-88.15749000
30.24291992,-85.17036000
30.27343750,-84.24780000
30.30395508,-83.87184000
30.33447266,-83.44437000
30.36499023,-84.08096000
30.39550781,-87.07363000
30.42602539,-94.69422000
30.45654297,-112.28710000
30.48706055,-101.23360000
30.51757813,-100.05060000
30.54809570,-91.83636000
30.57861328,-87.89757000
30.60913086,-86.46018000
30.63964844,-86.79429000
30.67016602,-88.92514000
30.70068359,-91.68110000
30.73120117,-89.81324000
30.76171875,-86.50185000
30.79223633,-85.38831000
30.82275391,-86.43388000
30.85327148,-88.85579000
30.88378906,-91.89728000
30.91430664,-95.48606000
30.94482422,-98.60332000
30.97534180,-99.86690000
31.00585938,-100.02690000
31.03637695,-94.59916000
31.06689453,-89.77885000
31.09741211,-85.37441000
31.12792969,-82.15750000
31.15844727,-80.88287000
31.18896484,-81.74770000
31.21948242,-84.70672000
31.25000000,-90.07970000
31.28051758,-103.67620000
31.31103516,-92.76611000
31.34155273,-87.26213000
31.37207031,-87.10529000
31.40258789,-89.96159000
31.43310547,-88.74005000
31.46362305,-87.18909000
31.49414063,-85.67752000
31.52465820,-84.75152000
31.55517578,-87.10648000
31.58569336,-94.78537000
31.61621094,-96.38132000
31.64672852,-93.93495000
31.67724609,-96.72553000
31.70776367,-104.52330000
31.73828125,-98.64640000
31.76879883,-91.57241000
31.79931641,-88.25139000
31.82983398,-86.05415000
31.86035156,-83.89640000
31.89086914,-82.31582000
31.92138672,-82.30470000
31.95190430,-84.33585000
31.98242188,-87.33376000
32.01293945,-87.70398000
32.04345703,-86.81767000
32.07397461,-86.18709000
32.10449219,-86.41478000
32.13500977,-87.85384000
32.16552734,-88.89217000
32.19604492,-87.75969000
32.22656250,-85.81264000
32.25708008,-85.27173000
32.28759766,-86.74667000
32.31811523,-88.93884000
32.34863281,-89.03907000
32.37915039,-87.43254000
32.40966797,-87.35558000
32.44018555,-90.02618000
32.47070313,-93.70267000
32.50122070,-92.77153000
32.53173828,-88.75070000
32.56225586,-86.44524000
32.59277344,-86.12762000
32.62329102,-86.47173000
32.65380859,-86.66138000
32.68432617,-87.29932000
32.71484375,-88.07426000
32.74536133,-88.38847000
32.77587891,-87.54065000
32.80639648,-84.42855000
32.83691406,-81.68186000
32.86743164,-81.39182000
32.89794922,-84.21814000
32.92846680,-91.03545000
32.95898438,-93.69162000
32.98950195,-87.23529000
33.02001953,-83.74574000
33.05053711,-82.93465000
33.08105469,-85.76913000
33.11157227,-97.79659000
33.14208984,-92.16396000
33.17260742,-87.24803000
33.20312500,-85.95222000
33.23364258,-84.42752000
33.26416016,-83.14655000
33.29467773,-83.97689000
33.32519531,-88.31001000
33.35571289,-96.33064000
33.38623047,-94.84557000
33.41674805,-93.55067000
33.44726563,-91.72211000
33.47778320,-88.56870000
33.50830078,-85.92677000
33.53881836,-84.29938000
33.56933594,-83.74265000
33.59985352,-83.88899000
33.63037109,-83.89716000
33.66088867,-83.26883000
33.69140625,-82.34091000
33.72192383,-81.85700000
33.75244141,-82.70699000
33.78295898,-85.88770000
33.81347656,-93.47151000
33.84399414,-94.98140000
33.87451172,-92.14905000
33.90502930,-100.46520000
33.93554688,-93.21510000
33.96606445,-87.17739000
33.99658203,-85.96887000
34.02709961,-86.89268000
34.05761719,-88.38890000
34.08813477,-88.37714000
34.11865234,-87.28429000
34.14916992,-86.85551000
34.17968750,-87.23153000
34.21020508,-88.36590000
34.24072266,-90.42439000
34.27124023,-93.20697000
34.30175781,-93.30356000
34.33227539,-90.87166000
34.36279297,-90.15750000
34.39331055,-91.56085000
34.42382813,-95.91068000
34.45434570,-100.29890000
34.48486328,-93.37189000
34.51538086,-88.76354000
34.54589844,-86.50944000
34.57641602,-85.95654000
34.60693359,-86.37048000
34.63745117,-87.17484000
34.66796875,-87.87431000
34.69848633,-88.61134000
34.72900391,-91.28188000
34.75952148,-92.38123000
34.79003906,-88.23973000
34.82055664,-86.44292000
34.85107422,-86.54376000
34.88159180,-87.62527000
34.91210938,-86.62981000
34.94262695,-83.45706000
34.97314453,-82.63291000
35.00366211,-86.12504000
35.03417969,-100.39900000
35.06469727,-95.67606000
35.09521484,-95.58147000
35.12573242,-105.41390000
35.15625000,-95.31654000
35.18676758,-86.94289000
35.21728516,-82.90147000
35.24780273,-82.81890000
35.27832031,-88.13816000
35.30883789,-100.15760000
35.33935547,-86.76183000
35.36987305,-85.23856000
35.40039063,-85.84927000
35.43090820,-84.98009000
35.46142578,-83.66726000
35.49194336,-82.89094000
35.52246094,-83.00202000
35.55297852,-84.86205000
35.58349609,-89.77924000
35.61401367,-98.58884000
35.64453125,-97.11183000
35.67504883,-93.78989000
35.70556641,-90.67178000
35.73608398,-89.41698000
35.76660156,-88.94215000
35.79711914,-90.28083000
35.82763672,-91.69597000
35.85815430,-88.43109000
35.88867188,-86.19559000
35.91918945,-85.80543000
35.94970703,-85.80795000
35.98022461,-84.22151000
36.01074219,-82.85023000
36.04125977,-83.14056000
36.07177734,-84.76914000
36.10229492,-86.03381000
36.13281250,-85.42007000
36.16333008,-84.86855000
36.19384766,-86.01304000
36.22436523,-89.02571000
36.25488281,-94.07600000
36.28540039,-98.02070000
36.31591797,-89.58420000
36.34643555,-84.96062000
36.37695313,-83.57169000
36.40747070,-83.47307000
36.43798828,-82.75773000
36.46850586,-82.21618000
36.49902344,-83.26617000
36.52954102,-86.79000000
36.56005859,-91.84126000
36.59057617,-89.72472000
36.62109375,-88.38940000
36.65161133,-91.60454000
36.68212891,-91.28073000
36.71264648,-87.21722000
36.74316406,-87.01796000
36.77368164,-87.96104000
36.80419922,-87.73578000
36.83471680,-87.68483000
36.86523438,-85.70664000
36.89575195,-83.04287000
36.92626953,-82.32433000
36.95678711,-84.34953000
36.98730469,-89.41214000
37.01782227,-91.05197000
37.04833984,-88.06230000
37.07885742,-84.74839000
37.10937500,-82.68326000
37.13989258,-83.40762000
37.17041016,-88.03989000
37.20092773,-101.45150000
37.23144531,-99.41387000
37.26196289,-93.34817000
37.29248047,-88.48026000
37.32299805,-86.81499000
37.35351563,-87.91478000
37.38403320,-90.66391000
37.41455078,-93.87343000
37.44506836,-100.62990000
37.47558594,-135.28430000
37.50610352,-108.38810000
37.53662109,-92.96873000
37.56713867,-86.71408000
37.59765625,-83.83134000
37.62817383,-83.53736000
37.65869141,-86.10202000
37.68920898,-86.87784000
37.71972656,-83.74347000
37.75024414,-83.54697000
37.78076172,-86.16397000
37.81127930,-86.45232000
37.84179688,-84.28877000
37.87231445,-84.39189000
37.90283203,-87.02702000
37.93334961,-87.59029000
37.96386719,-83.67891000
37.99438477,-81.23276000
38.02490234,-80.52459000
38.05541992,-80.74493000
38.08593750,-81.44726000
38.11645508,-83.77367000
38.14697266,-89.79073000
38.17749023,-91.74480000
38.20800781,-89.16968000
38.23852539,-92.35454000
38.26904297,-94.22163000
38.29956055,-92.76382000
38.33007813,-99.47670000
38.36059570,-103.32010000
38.39111328,-96.76666000
38.42163086,-95.58472000
38.45214844,-93.39731000
38.48266602,-93.46111000
38.51318359,-96.12126000
38.54370117,-94.90470000
38.57421875,-91.26520000
38.60473633,-90.84027000
38.63525391,-94.53968000
38.66577148,-107.11210000
38.69628906,-97.65105000
38.72680664,-90.19014000
38.75732422,-86.09376000
38.78784180,-84.65454000
38.81835938,-86.21253000
38.84887695,-93.26038000
38.87939453,-97.62443000
38.90991211,-88.21902000
38.94042969,-88.64639000
38.97094727,-105.94480000
39.00146484,-86.79107000
39.03198242,-82.60565000
39.06250000,-83.23920000
39.09301758,-85.93613000
39.12353516,-85.86266000
39.15405273,-85.54719000
39.18457031,-87.90603000
39.21508789,-92.47842000
39.24560547,-90.55019000
39.27612305,-84.98459000
39.30664063,-81.93494000
39.33715820,-80.85120000
39.36767578,-80.97296000
39.39819336,-81.92168000
39.42871094,-84.05213000
39.45922852,-88.24094000
39.48974609,-93.01208000
39.52026367,-92.80396000
39.55078125,-94.78336000
39.58129883,-97.18911000
39.61181641,-93.58985000
39.64233398,-95.44406000
39.67285156,-114.70720000
39.70336914,-94.27639000
39.73388672,-93.38591000
39.76440430,-103.03190000
39.79492188,-96.02802000
39.82543945,-88.05405000
39.85595703,-84.29216000
39.88647461,-82.84673000
39.91699219,-83.41694000
39.94750977,-85.40253000
39.97802734,-86.90034000
40.00854492,-86.34903000
40.03906250,-85.30297000
40.06958008,-87.49444000
40.10009766,-102.38930000
40.13061523,-89.04312000
40.16113281,-85.56771000
40.19165039,-86.37511000
40.22216797,-87.81326000
40.25268555,-87.13747000
40.28320313,-87.98386000
40.31372070,-92.59218000
40.34423828,-87.76955000
40.37475586,-83.64227000
40.40527344,-82.23476000
40.43579102,-81.98831000
40.46630859,-82.82012000
40.49682617,-85.36159000
40.52734375,-90.01320000
40.55786133,-94.72987000
40.58837891,-92.20403000
40.61889648,-88.53031000
40.64941406,-87.13065000
40.67993164,-87.10801000
40.71044922,-87.60756000
40.74096680,-90.20718000
40.77148438,-100.42240000
40.80200195,-97.33745000
40.83251953,-95.30417000
40.86303711,-91.59001000
40.89355469,-83.84641000
40.92407227,-80.68986000
40.95458984,-80.43931000
40.98510742,-82.94411000
41.01562500,-89.30798000
41.04614258,-100.99400000
41.07666016,-111.71830000
41.10717773,-98.79903000
41.13769531,-98.98858000
41.16821289,-113.30760000
41.19873047,-93.32755000
41.22924805,-87.76147000
41.25976563,-85.74604000
41.29028320,-87.28062000
41.32080078,-95.73867000
41.35131836,-91.39405000
41.38183594,-85.02193000
41.41235352,-82.94071000
41.44287109,-82.70685000
41.47338867,-83.77328000
41.50390625,-86.51430000
41.53442383,-92.96454000
41.56494141,-91.86130000
41.59545898,-85.33632000
41.62597656,-83.55594000
41.65649414,-84.12196000
41.68701172,-84.37880000
41.71752930,-83.13995000
41.74804688,-82.68738000
41.77856445,-84.89589000
41.80908203,-91.83128000
41.83959961,-106.38370000
41.87011719,-101.55050000
41.90063477,-95.14149000
41.93115234,-90.04539000
41.96166992,-87.55531000
41.99218750,-86.69228000
42.02270508,-85.64635000
42.05322266,-83.87083000
42.08374023,-83.32526000
42.11425781,-84.14746000
42.14477539,-85.43891000
42.17529297,-87.55050000
42.20581055,-92.68098000
42.23632813,-110.58380000
42.26684570,-99.20682000
42.29736328,-91.58019000
42.32788086,-85.44133000
42.35839844,-82.28329000
42.38891602,-81.48125000
42.41943359,-82.29626000
42.44995117,-84.71397000
42.48046875,-87.36832000
42.51098633,-85.20872000
42.54150391,-84.06221000
42.57202148,-86.12462000
42.60253906,-89.61811000
42.63305664,-90.23579000
42.66357422,-87.43727000
42.69409180,-83.96564000
42.72460938,-82.10907000
42.75512695,-82.61413000
42.78564453,-85.48494000
42.81616211,-89.94496000
42.84667969,-92.54530000
42.87719727,-91.89536000
42.90771484,-92.75360000
42.93823242,-92.92550000
42.96875000,-89.10201000
42.99926758,-88.34809000
43.02978516,-88.44115000
43.06030273,-84.92233000
43.09082031,-82.65659000
43.12133789,-82.49168000
43.15185547,-83.70644000
43.18237305,-85.49911000
43.21289063,-86.92734000
43.24340820,-87.33979000
43.27392578,-86.61205000
43.30444336,-85.91400000
43.33496094,-86.10058000
43.36547852,-86.64061000
43.39599609,-87.11258000
43.42651367,-89.07994000
43.45703125,-94.97478000
43.48754883,-92.00482000
43.51806641,-86.60790000
43.54858398,-84.40507000
43.57910156,-83.83147000
43.60961914,-84.54085000
43.64013672,-86.59296000
43.67065430,-88.70724000
43.70117188,-88.83688000
43.73168945,-89.02225000
43.76220703,-89.89461000
43.79272461,-90.27748000
43.82324219,-90.40353000
43.85375977,-90.72737000
43.88427734,-90.44762000
43.91479492,-89.58640000
43.94531250,-92.71595000
43.97583008,-91.88519000
44.00634766,-84.41148000
44.03686523,-82.22285000
44.06738281,-82.37801000
44.09790039,-82.93958000
44.12841797,-84.00377000
44.15893555,-85.53970000
44.18945313,-85.91557000
44.21997070,-86.72377000
44.25048828,-88.90662000
44.28100586,-90.44551000
44.31152344,-93.17138000
44.34204102,-101.26870000
44.37255859,-101.17160000
44.40307617,-100.95780000
44.43359375,-95.49422000
44.46411133,-88.42953000
44.49462891,-86.24266000
44.52514648,-89.45337000
44.55566406,-99.46695000
44.58618164,-86.37003000
44.61669922,-83.47415000
44.64721680,-83.85764000
44.67773438,-86.08612000
44.70825195,-91.08347000
44.73876953,-95.25803000
44.76928711,-96.70013000
44.79980469,-100.13980000
44.83032227,-89.54077000
44.86083984,-86.39642000
44.89135742,-86.00127000
44.92187500,-87.16038000
44.95239258,-91.70984000
44.98291016,-103.21330000
45.01342773,-93.73989000
45.04394531,-113.45240000
45.07446289,-87.50886000
45.10498047,-82.67121000
45.13549805,-84.17586000
45.16601563,-95.28993000
45.19653320,-87.31625000
45.22705078,-82.28098000
45.25756836,-80.93280000
45.28808594,-81.20536000
45.31860352,-82.26941000
45.34912109,-82.88568000
45.37963867,-82.39143000
45.41015625,-81.49156000
45.44067383,-80.58907000
45.47119141,-79.64149000
45.50170898,-79.49989000
45.53222656,-81.77666000
45.56274414,-87.54173000
45.59326172,-84.20859000
45.62377930,-81.25880000
45.65429688,-82.78329000
45.68481445,-86.62308000
45.71533203,-83.83527000
45.74584961,-81.47244000
45.77636719,-81.99123000
45.80688477,-83.92271000
45.83740234,-84.28102000
45.86791992,-82.14939000
45.89843750,-80.23090000
45.92895508,-79.63968000
45.95947266,-80.11913000
45.98999023,-81.42871000
46.02050781,-83.73501000
46.05102539,-86.24191000
46.08154297,-87.18675000
46.11206055,-89.41682000
46.14257813,-90.17571000
46.17309570,-88.29647000
46.20361328,-87.56710000
46.23413086,-87.03773000
46.26464844,-86.02428000
46.29516602,-84.15211000
46.32568359,-83.03830000
46.35620117,-83.51975000
46.38671875,-85.81551000
46.41723633,-89.43272000
46.44775391,-90.83815000
46.47827148,-87.60622000
46.50878906,-83.90338000
46.53930664,-81.83089000
46.56982422,-82.25037000
46.60034180,-85.97793000
46.63085938,-90.06806000
46.66137695,-85.19998000
46.69189453,-82.47314000
46.72241211,-82.50629000
46.75292969,-85.12587000
46.78344727,-91.02684000
46.81396484,-101.13040000
46.84448242,-100.56120000
46.87500000,-93.38005000
46.90551758,-86.93901000
46.93603516,-83.42928000
46.96655273,-81.98310000
46.99707031,-82.34386000
47.02758789,-84.05964000
47.05810547,-84.98595000
47.08862305,-83.44331000
47.11914063,-81.94779000
47.14965820,-82.20879000
47.18017578,-83.69663000
47.21069336,-84.24968000
47.24121094,-84.46338000
47.27172852,-84.78767000
47.30224609,-83.59585000
47.33276367,-82.36195000
47.36328125,-82.87769000
47.39379883,-84.34640000
47.42431641,-84.10197000
47.45483398,-83.30722000
47.48535156,-83.36181000
47.51586914,-84.29874000
47.54638672,-85.37897000
47.57690430,-85.53490000
47.60742188,-84.76871000
47.63793945,-84.09979000
47.66845703,-84.73305000
47.69897461,-87.94940000
47.72949219,-94.23920000
47.76000977,-94.15279000
47.79052734,-90.97588000
47.82104492,-90.26498000
47.85156250,-91.93023000
47.88208008,-95.05186000
47.91259766,-104.07860000
47.94311523,-96.19187000
47.97363281,-88.26160000
48.00415039,-86.61103000
48.03466797,-89.48836000
48.06518555,-96.04504000
48.09570313,-92.84911000
48.12622070,-91.58184000
48.15673828,-92.98260000
48.18725586,-97.85919000
48.21777344,-92.70380000
48.24829102,-86.38477000
48.27880859,-85.55027000
48.30932617,-89.60521000
48.33984375,-100.16520000
48.37036133,-93.15112000
48.40087891,-90.08174000
48.43139648,-90.33489000
48.46191406,-92.12365000
48.49243164,-90.84489000
48.52294922,-86.21349000
48.55346680,-83.63298000
48.58398438,-83.45264000
48.61450195,-84.32346000
48.64501953,-84.79549000
48.67553711,-86.24567000
48.70605469,-90.66469000
48.73657227,-88.16116000
48.76708984,-84.00948000
48.79760742,-82.44689000
48.82812500,-82.56241000
48.85864258,-85.20934000
48.88916016,-92.99454000
48.91967773,-98.76653000
48.95019531,-95.15112000
48.98071289,-89.90955000
49.01123047,-87.10240000
49.04174805,-87.94513000
49.07226563,-90.26970000
49.10278320,-90.94089000
49.13330078,-91.47511000
49.16381836,-98.28185000
49.19433594,-95.12901000
49.22485352,-87.21040000
49.25537109,-85.59369000
49.28588867,-88.76559000
49.31640625,-95.72964000
49.34692383,-87.48668000
49.37744141,-84.74591000
49.40795898,-85.53954000
49.43847656,-88.23723000
49.46899414,-89.07116000
49.49951172,-88.76010000
49.53002930,-90.47594000
49.56054688,-87.40283000
49.59106445,-83.10025000
49.62158203,-81.22737000
49.65209961,-81.29856000
49.68261719,-83.35866000
49.71313477,-88.62725000
49.74365234,-101.26790000
49.77416992,-91.68192000
49.80468750,-89.72380000
49.83520508,-89.89608000
49.86572266,-88.31371000
49.89624023,-89.04799000
49.92675781,-96.29965000
49.95727539,-97.46026000
49.98779297,-89.30768000
50.01831055,-89.35902000
