Frequency,Channel A
(MHz),(dBu)

0.00000000,-13.55353000
0.03051758,-14.01278000
0.06103516,-19.60582000
0.09155273,-31.07010000
0.12207031,-49.22941000
0.15258789,-45.97750000
0.18310547,-49.63973000
0.21362305,-51.04079000
0.24414063,-52.80957000
0.27465820,-52.91936000
0.30517578,-53.87886000
0.33569336,-54.03105000
0.36621094,-52.92505000
0.39672852,-51.71662000
0.42724609,-50.66841000
0.45776367,-50.99707000
0.48828125,-53.37922000
0.51879883,-53.55609000
0.54931641,-48.96137000
0.57983398,-45.43131000
0.61035156,-42.25742000
0.64086914,-39.42079000
0.67138672,-38.29995000
0.70190430,-39.43714000
0.73242188,-42.64965000
0.76293945,-47.11134000
0.79345703,-50.96287000
0.82397461,-52.42081000
0.85449219,-52.67300000
0.88500977,-53.64525000
0.91552734,-55.45948000
0.94604492,-55.54714000
0.97656250,-54.15693000
1.00708008,-54.17915000
1.03759766,-56.38756000
1.06811523,-60.12460000
1.09863281,-60.10673000
1.12915039,-57.01871000
1.15966797,-55.26504000
1.19018555,-55.63657000
1.22070313,-57.64451000
1.25122070,-57.48993000
1.28173828,-55.65332000
1.31225586,-55.11399000
1.34277344,-55.79001000
1.37329102,-56.91536000
1.40380859,-57.68253000
1.43432617,-58.04304000
1.46484375,-58.60115000
1.49536133,-59.18185000
1.52587891,-58.64450000
1.55639648,-57.32958000
1.58691406,-56.30526000
1.61743164,-55.87685000
1.64794922,-56.23534000
1.67846680,-57.31322000
1.70898438,-58.32487000
1.73950195,-58.31004000
1.77001953,-57.48150000
1.80053711,-56.68186000
1.83105469,-56.42841000
1.86157227,-56.80547000
1.89208984,-57.54000000
1.92260742,-58.42911000
1.95312500,-59.30463000
1.98364258,-59.38802000
2.01416016,-58.70382000
2.04467773,-58.49480000
2.07519531,-59.22323000
2.10571289,-60.33564000
2.13623047,-60.61630000
2.16674805,-59.87577000
2.19726563,-59.35323000
2.22778320,-59.53489000
2.25830078,-59.78180000
2.28881836,-59.17162000
2.31933594,-57.71966000
2.34985352,-56.51751000
2.38037109,-56.65057000
2.41088867,-58.26085000
2.44140625,-59.34058000
2.47192383,-58.47784000
2.50244141,-58.18739000
2.53295898,-59.37459000
2.56347656,-60.37181000
2.59399414,-59.55301000
2.62451172,-58.71818000
2.65502930,-58.74055000
2.68554688,-59.26024000
2.71606445,-59.75311000
2.74658203,-59.96227000
2.77709961,-59.85409000
2.80761719,-59.49742000
2.83813477,-58.99542000
2.86865234,-58.59612000
2.89916992,-58.68153000
2.92968750,-59.47609000
2.96020508,-60.82961000
2.99072266,-61.77312000
3.02124023,-60.90128000
3.05175781,-58.93881000
3.08227539,-57.26588000
3.11279297,-56.25761000
3.14331055,-55.85856000
3.17382813,-55.97253000
3.20434570,-56.44226000
3.23486328,-56.92614000
3.26538086,-57.07413000
3.29589844,-56.89137000
3.32641602,-56.57708000
3.35693359,-56.23898000
3.38745117,-55.99443000
3.41796875,-56.04920000
3.44848633,-56.44682000
3.47900391,-56.68690000
3.50952148,-56.23664000
3.54003906,-55.46042000
3.57055664,-54.90244000
3.60107422,-54.80822000
3.63159180,-55.08175000
3.66210938,-55.00192000
3.69262695,-54.26777000
3.72314453,-53.70195000
3.75366211,-53.62199000
3.78417969,-53.56998000
3.81469727,-53.19563000
3.84521484,-52.68644000
3.87573242,-52.27692000
3.90625000,-52.06941000
3.93676758,-52.10876000
3.96728516,-52.35155000
3.99780273,-52.76790000
4.02832031,-53.31169000
4.05883789,-53.63475000
4.08935547,-53.38913000
4.11987305,-52.82261000
4.15039063,-52.31269000
4.18090820,-51.93322000
4.21142578,-51.67319000
4.24194336,-51.62632000
4.27246094,-51.87457000
4.30297852,-52.31959000
4.33349609,-52.72503000
4.36401367,-52.97598000
4.39453125,-53.15475000
4.42504883,-53.29599000
4.45556641,-53.36572000
4.48608398,-53.51853000
4.51660156,-54.04113000
4.54711914,-54.92752000
4.57763672,-55.67418000
4.60815430,-55.87660000
4.63867188,-55.76442000
4.66918945,-55.71103000
4.69970703,-55.97208000
4.73022461,-56.67105000
4.76074219,-57.58674000
4.79125977,-58.08641000
4.82177734,-57.90426000
4.85229492,-57.54326000
4.88281250,-57.38661000
4.91333008,-57.26598000
4.94384766,-56.80016000
4.97436523,-56.14488000
5.00488281,-55.78736000
5.03540039,-55.84301000
5.06591797,-56.09303000
5.09643555,-56.37341000
5.12695313,-56.64516000
5.15747070,-56.81638000
5.18798828,-56.80774000
5.21850586,-56.78668000
5.24902344,-57.05861000
5.27954102,-57.73115000
5.31005859,-58.66278000
5.34057617,-59.60701000
5.37109375,-60.29594000
5.40161133,-60.57251000
5.43212891,-60.58387000
5.46264648,-60.62952000
5.49316406,-60.79470000
5.52368164,-60.85671000
5.55419922,-60.53909000
5.58471680,-59.87322000
5.61523438,-59.19296000
5.64575195,-58.79335000
5.67626953,-58.72145000
5.70678711,-58.67216000
5.73730469,-58.09686000
5.76782227,-56.79451000
5.79833984,-55.19506000
5.82885742,-53.81269000
5.85937500,-52.88537000
5.88989258,-52.42915000
5.92041016,-52.32952000
5.95092773,-52.38207000
5.98144531,-52.36378000
6.01196289,-52.15421000
6.04248047,-51.81631000
6.07299805,-51.55789000
6.10351563,-51.57826000
6.13403320,-51.91619000
6.16455078,-52.46343000
6.19506836,-53.08884000
6.22558594,-53.64283000
6.25610352,-53.94621000
6.28662109,-53.96529000
6.31713867,-53.91016000
6.34765625,-54.04538000
6.37817383,-54.47508000
6.40869141,-55.17722000
6.43920898,-56.13527000
6.46972656,-57.32008000
6.50024414,-58.61835000
6.53076172,-59.85418000
6.56127930,-60.85197000
6.59179688,-61.56931000
6.62231445,-62.25063000
6.65283203,-63.14102000
6.68334961,-64.13664000
6.71386719,-65.13193000
6.74438477,-66.41022000
6.77490234,-68.24139000
6.80541992,-70.46693000
6.83593750,-72.51027000
6.86645508,-73.92146000
6.89697266,-75.02967000
6.92749023,-76.01533000
6.95800781,-76.16078000
6.98852539,-75.66495000
7.01904297,-75.07430000
7.04956055,-73.96155000
7.08007813,-72.79559000
7.11059570,-72.81857000
7.14111328,-75.00627000
7.17163086,-80.64172000
7.20214844,-97.09950000
7.23266602,-87.53757000
7.26318359,-83.18727000
7.29370117,-84.71814000
7.32421875,-82.62711000
7.35473633,-76.31438000
7.38525391,-74.11989000
7.41577148,-74.88736000
7.44628906,-78.56397000
7.47680664,-88.36193000
7.50732422,-87.24221000
7.53784180,-85.48412000
7.56835938,-87.24252000
7.59887695,-83.28767000
7.62939453,-79.83585000
7.65991211,-78.07394000
7.69042969,-79.50568000
7.72094727,-82.99397000
7.75146484,-80.88227000
7.78198242,-78.33271000
7.81250000,-76.12311000
7.84301758,-73.31860000
7.87353516,-70.97675000
7.90405273,-69.98352000
7.93457031,-69.87086000
7.96508789,-69.59515000
7.99560547,-69.45857000
8.02612305,-69.99052000
8.05664063,-70.69128000
8.08715820,-70.91383000
8.11767578,-70.58450000
8.14819336,-69.95149000
8.17871094,-69.49627000
8.20922852,-69.80622000
8.23974609,-70.59828000
8.27026367,-70.43117000
8.30078125,-69.42265000
8.33129883,-68.60146000
8.36181641,-67.96609000
8.39233398,-67.40681000
8.42285156,-67.16416000
8.45336914,-67.29758000
8.48388672,-67.51125000
8.51440430,-67.89422000
8.54492188,-68.87928000
8.57543945,-70.33549000
8.60595703,-71.28278000
8.63647461,-71.07590000
8.66699219,-70.71590000
8.69750977,-71.06279000
8.72802734,-71.84066000
8.75854492,-72.88324000
8.78906250,-74.72595000
8.81958008,-77.22005000
8.85009766,-79.29694000
8.88061523,-80.92912000
8.91113281,-84.32747000
8.94165039,-96.31931000
8.97216797,-84.10401000
9.00268555,-78.10203000
9.03320313,-76.16795000
9.06372070,-77.23048000
9.09423828,-81.99031000
9.12475586,-89.94340000
9.15527344,-90.19151000
9.18579102,-85.30629000
9.21630859,-80.12865000
9.24682617,-80.01094000
9.27734375,-83.51451000
9.30786133,-84.14855000
9.33837891,-85.81139000
9.36889648,-86.78196000
9.39941406,-83.64417000
9.42993164,-84.75111000
9.46044922,-89.11823000
9.49096680,-93.33942000
9.52148438,-102.56380000
9.55200195,-97.59038000
9.58251953,-92.35855000
9.61303711,-88.01926000
9.64355469,-82.35882000
9.67407227,-79.05453000
9.70458984,-78.87151000
9.73510742,-82.06705000
9.76562500,-86.61018000
9.79614258,-86.60477000
9.82666016,-81.56354000
9.85717773,-76.76864000
9.88769531,-74.91137000
9.91821289,-75.42103000
9.94873047,-77.67043000
9.97924805,-81.27155000
10.00976563,-85.17147000
10.04028320,-85.61504000
10.07080078,-82.37920000
10.10131836,-79.42496000
10.13183594,-78.25523000
10.16235352,-77.23344000
10.19287109,-75.36199000
10.22338867,-75.25892000
10.25390625,-77.90143000
10.28442383,-81.45645000
10.31494141,-79.92259000
10.34545898,-75.11304000
10.37597656,-72.84690000
10.40649414,-73.80896000
10.43701172,-77.58664000
10.46752930,-81.65285000
10.49804688,-79.82043000
10.52856445,-76.48331000
10.55908203,-74.98666000
10.58959961,-73.95755000
10.62011719,-73.19220000
10.65063477,-73.30863000
10.68115234,-73.63652000
10.71166992,-73.37941000
10.74218750,-72.65190000
10.77270508,-71.41312000
10.80322266,-70.12408000
10.83374023,-70.29567000
10.86425781,-73.66027000
10.89477539,-82.07961000
10.92529297,-73.59908000
10.95581055,-69.22617000
10.98632813,-68.01166000
11.01684570,-68.34923000
11.04736328,-69.19883000
11.07788086,-69.92909000
11.10839844,-70.55781000
11.13891602,-71.22304000
11.16943359,-71.94952000
11.19995117,-72.85944000
11.23046875,-73.77488000
11.26098633,-74.01227000
11.29150391,-73.85336000
11.32202148,-74.56552000
11.35253906,-76.85635000
11.38305664,-79.42184000
11.41357422,-79.71188000
11.44409180,-78.11177000
11.47460938,-76.51567000
11.50512695,-76.94533000
11.53564453,-79.38889000
11.56616211,-80.36786000
11.59667969,-77.32694000
11.62719727,-75.49059000
11.65771484,-77.11066000
11.68823242,-82.20631000
11.71875000,-85.93077000
11.74926758,-82.81570000
11.77978516,-77.61803000
11.81030273,-73.52420000
11.84082031,-70.32736000
11.87133789,-68.82539000
11.90185547,-69.23143000
11.93237305,-71.33208000
11.96289063,-75.26506000
11.99340820,-82.75577000
12.02392578,-86.10838000
12.05444336,-78.57651000
12.08496094,-75.23111000
12.11547852,-74.09596000
12.14599609,-74.93832000
12.17651367,-77.64370000
12.20703125,-81.47031000
12.23754883,-84.10152000
12.26806641,-84.20022000
12.29858398,-81.67728000
12.32910156,-77.73970000
12.35961914,-75.16761000
12.39013672,-74.21444000
12.42065430,-74.05182000
12.45117188,-74.41969000
12.48168945,-75.50963000
12.51220703,-77.22077000
12.54272461,-77.88547000
12.57324219,-76.96326000
12.60375977,-77.63469000
12.63427734,-76.68695000
12.66479492,-73.17432000
12.69531250,-71.76628000
12.72583008,-73.16206000
12.75634766,-77.96655000
12.78686523,-85.77721000
12.81738281,-86.40073000
12.84790039,-80.00530000
12.87841797,-75.11470000
12.90893555,-74.01846000
12.93945313,-75.74910000
12.96997070,-80.26273000
13.00048828,-90.76790000
13.03100586,-78.27097000
13.06152344,-73.74875000
13.09204102,-72.74171000
13.12255859,-73.64037000
13.15307617,-75.82589000
13.18359375,-79.99105000
13.21411133,-90.81871000
13.24462891,-84.38762000
13.27514648,-80.65972000
13.30566406,-82.85143000
13.33618164,-84.22594000
13.36669922,-81.16470000
13.39721680,-82.59323000
13.42773438,-89.32740000
13.45825195,-81.77237000
13.48876953,-71.68061000
13.51928711,-65.78965000
13.54980469,-63.56276000
13.58032227,-64.77292000
13.61083984,-69.35403000
13.64135742,-74.83048000
13.67187500,-79.65745000
13.70239258,-77.55956000
13.73291016,-72.22205000
13.76342773,-71.65749000
13.79394531,-74.13451000
13.82446289,-76.75774000
13.85498047,-76.81013000
13.88549805,-76.26393000
13.91601563,-76.29340000
13.94653320,-76.49789000
13.97705078,-76.90650000
14.00756836,-78.81767000
14.03808594,-81.71913000
14.06860352,-80.78736000
14.09912109,-79.59907000
14.12963867,-79.58414000
14.16015625,-78.47586000
14.19067383,-76.71330000
14.22119141,-76.14791000
14.25170898,-77.55109000
14.28222656,-81.12654000
14.31274414,-82.58225000
14.34326172,-79.69873000
14.37377930,-78.48548000
14.40429688,-78.92528000
14.43481445,-80.48962000
14.46533203,-84.29325000
14.49584961,-86.84077000
14.52636719,-81.24503000
14.55688477,-79.09814000
14.58740234,-79.70247000
14.61791992,-81.28612000
14.64843750,-82.04590000
14.67895508,-82.20879000
14.70947266,-83.63580000
14.73999023,-85.73257000
14.77050781,-84.22181000
14.80102539,-83.69412000
14.83154297,-86.57639000
14.86206055,-92.23724000
14.89257813,-93.53062000
14.92309570,-89.89989000
14.95361328,-86.82941000
14.98413086,-86.38274000
15.01464844,-91.77484000
15.04516602,-93.59345000
15.07568359,-83.30840000
15.10620117,-80.42133000
15.13671875,-79.81918000
15.16723633,-79.61224000
15.19775391,-77.06654000
15.22827148,-74.33756000
15.25878906,-74.47762000
15.28930664,-77.58319000
15.31982422,-80.75391000
15.35034180,-83.56514000
15.38085938,-94.02450000
15.41137695,-92.26370000
15.44189453,-89.18728000
15.47241211,-90.20515000
15.50292969,-84.81024000
15.53344727,-81.22402000
15.56396484,-81.28475000
15.59448242,-84.37868000
15.62500000,-88.16459000
15.65551758,-95.04424000
15.68603516,-89.38004000
15.71655273,-84.46873000
15.74707031,-85.80379000
15.77758789,-93.73887000
15.80810547,-94.30050000
15.83862305,-92.08691000
15.86914063,-93.92823000
15.89965820,-92.44495000
15.93017578,-88.00098000
15.96069336,-84.75014000
15.99121094,-83.39534000
16.02172852,-84.12646000
16.05224609,-86.05125000
16.08276367,-83.94203000
16.11328125,-80.16156000
16.14379883,-77.69730000
16.17431641,-76.19950000
16.20483398,-75.53649000
16.23535156,-75.79841000
16.26586914,-77.13866000
16.29638672,-79.49418000
16.32690430,-81.96217000
16.35742188,-83.39069000
16.38793945,-83.82628000
16.41845703,-84.17759000
16.44897461,-85.23224000
16.47949219,-86.96161000
16.51000977,-89.05577000
16.54052734,-90.99387000
16.57104492,-91.69090000
16.60156250,-93.51215000
16.63208008,-93.34110000
16.66259766,-88.33836000
16.69311523,-85.74539000
16.72363281,-84.39763000
16.75415039,-83.82846000
16.78466797,-84.42944000
16.81518555,-85.47577000
16.84570313,-85.92310000
16.87622070,-85.58308000
16.90673828,-83.93208000
16.93725586,-82.30809000
16.96777344,-82.05046000
16.99829102,-82.62830000
17.02880859,-83.31679000
17.05932617,-85.81973000
17.08984375,-91.30775000
17.12036133,-90.50087000
17.15087891,-91.75436000
17.18139648,-92.73360000
17.21191406,-83.88763000
17.24243164,-81.02692000
17.27294922,-81.50356000
17.30346680,-82.62927000
17.33398438,-82.13035000
17.36450195,-81.78116000
17.39501953,-82.34088000
17.42553711,-83.79795000
17.45605469,-87.39513000
17.48657227,-98.91541000
17.51708984,-95.84468000
17.54760742,-90.59583000
17.57812500,-88.81499000
17.60864258,-85.08354000
17.63916016,-79.02888000
17.66967773,-73.11052000
17.70019531,-68.90077000
17.73071289,-66.69635000
17.76123047,-66.19903000
17.79174805,-66.96980000
17.82226563,-68.77881000
17.85278320,-71.83209000
17.88330078,-76.78085000
17.91381836,-85.25582000
17.94433594,-104.92100000
17.97485352,-88.48388000
18.00537109,-87.23317000
18.03588867,-90.66891000
18.06640625,-86.43025000
18.09692383,-82.49049000
18.12744141,-82.12078000
18.15795898,-84.42703000
18.18847656,-90.06036000
18.21899414,-92.99701000
18.24951172,-86.06491000
18.28002930,-83.38092000
18.31054688,-83.48022000
18.34106445,-86.12930000
18.37158203,-94.27766000
18.40209961,-89.42542000
18.43261719,-84.35989000
18.46313477,-85.92033000
18.49365234,-98.22681000
18.52416992,-92.50902000
18.55468750,-88.62431000
18.58520508,-88.11764000
18.61572266,-86.21285000
18.64624023,-83.46069000
18.67675781,-82.08643000
18.70727539,-81.82637000
18.73779297,-81.17164000
18.76831055,-81.84506000
18.79882813,-85.94672000
18.82934570,-92.56430000
18.85986328,-90.78198000
18.89038086,-88.22701000
18.92089844,-86.59232000
18.95141602,-83.13396000
18.98193359,-81.21024000
19.01245117,-82.06483000
19.04296875,-84.86913000
19.07348633,-87.70028000
19.10400391,-89.35657000
19.13452148,-91.18361000
19.16503906,-94.94186000
19.19555664,-97.56790000
19.22607422,-99.13237000
19.25659180,-91.67049000
19.28710938,-85.86896000
19.31762695,-84.63424000
19.34814453,-86.08071000
19.37866211,-87.59045000
19.40917969,-87.30775000
19.43969727,-87.42938000
19.47021484,-91.86971000
19.50073242,-102.81790000
19.53125000,-88.63628000
19.56176758,-85.11130000
19.59228516,-84.69543000
19.62280273,-87.07330000
19.65332031,-91.66866000
19.68383789,-91.76688000
19.71435547,-88.80342000
19.74487305,-86.51401000
19.77539063,-87.44417000
19.80590820,-91.57749000
19.83642578,-99.86466000
19.86694336,-91.24060000
19.89746094,-86.07439000
19.92797852,-85.03514000
19.95849609,-85.74246000
19.98901367,-87.13662000
20.01953125,-88.26644000
20.05004883,-86.78646000
20.08056641,-83.85904000
20.11108398,-83.49395000
20.14160156,-89.08418000
20.17211914,-99.00473000
20.20263672,-92.25389000
20.23315430,-95.78297000
20.26367188,-91.85031000
20.29418945,-97.06992000
20.32470703,-97.60017000
20.35522461,-90.76550000
20.38574219,-91.35928000
20.41625977,-92.63824000
20.44677734,-91.23529000
20.47729492,-89.46332000
20.50781250,-87.14169000
20.53833008,-85.08701000
20.56884766,-86.45942000
20.59936523,-95.67097000
20.62988281,-91.06319000
20.66040039,-83.63471000
20.69091797,-81.46599000
20.72143555,-80.89749000
20.75195313,-80.33521000
20.78247070,-80.11619000
20.81298828,-80.78407000
20.84350586,-82.00166000
20.87402344,-83.14297000
20.90454102,-84.25009000
20.93505859,-86.47079000
20.96557617,-90.13441000
20.99609375,-85.78323000
21.02661133,-84.27238000
21.05712891,-90.49361000
21.08764648,-96.61607000
21.11816406,-89.73970000
21.14868164,-87.11473000
21.17919922,-84.54491000
21.20971680,-86.02330000
21.24023438,-90.63422000
21.27075195,-93.59029000
21.30126953,-89.12071000
21.33178711,-88.13014000
21.36230469,-92.43309000
21.39282227,-92.54814000
21.42333984,-86.78860000
21.45385742,-85.26195000
21.48437500,-85.32912000
21.51489258,-86.67003000
21.54541016,-85.63638000
21.57592773,-82.31308000
21.60644531,-81.72333000
21.63696289,-83.99504000
21.66748047,-88.80416000
21.69799805,-91.00037000
21.72851563,-88.80848000
21.75903320,-86.82851000
21.78955078,-83.99246000
21.82006836,-81.55167000
21.85058594,-81.47855000
21.88110352,-84.48060000
21.91162109,-90.24619000
21.94213867,-95.24297000
21.97265625,-91.92282000
22.00317383,-92.61349000
22.03369141,-90.25819000
22.06420898,-85.70373000
22.09472656,-85.51637000
22.12524414,-88.45673000
22.15576172,-87.70399000
22.18627930,-84.65842000
22.21679688,-84.78036000
22.24731445,-89.40314000
22.27783203,-94.28765000
22.30834961,-87.70702000
22.33886719,-86.06703000
22.36938477,-87.81510000
22.39990234,-93.95031000
22.43041992,-102.22190000
22.46093750,-89.24126000
22.49145508,-85.12394000
22.52197266,-83.93100000
22.55249023,-84.83487000
22.58300781,-88.03364000
22.61352539,-94.09904000
22.64404297,-95.92277000
22.67456055,-94.31815000
22.70507813,-93.42667000
22.73559570,-92.10941000
22.76611328,-89.75093000
22.79663086,-85.20634000
22.82714844,-81.92475000
22.85766602,-80.89654000
22.88818359,-82.13423000
22.91870117,-85.35691000
22.94921875,-88.16277000
22.97973633,-89.38248000
23.01025391,-95.66230000
23.04077148,-96.36384000
23.07128906,-87.70592000
23.10180664,-86.61205000
23.13232422,-88.08543000
23.16284180,-88.33443000
23.19335938,-86.60838000
23.22387695,-85.64288000
23.25439453,-88.20862000
23.28491211,-94.63714000
23.31542969,-89.75148000
23.34594727,-87.15260000
23.37646484,-88.97392000
23.40698242,-93.21967000
23.43750000,-90.17243000
23.46801758,-90.78128000
23.49853516,-96.02951000
23.52905273,-93.47662000
23.55957031,-99.20102000
23.59008789,-89.92926000
23.62060547,-85.57778000
23.65112305,-86.04384000
23.68164063,-88.74411000
23.71215820,-90.55945000
23.74267578,-90.44994000
23.77319336,-88.97464000
23.80371094,-85.93465000
23.83422852,-83.09686000
23.86474609,-81.83342000
23.89526367,-82.59202000
23.92578125,-85.66432000
23.95629883,-89.50682000
23.98681641,-89.05875000
24.01733398,-90.05864000
24.04785156,-92.83680000
24.07836914,-88.28782000
24.10888672,-85.48546000
24.13940430,-84.93854000
24.16992188,-85.16019000
24.20043945,-85.57814000
24.23095703,-86.93326000
24.26147461,-90.94186000
24.29199219,-101.94960000
24.32250977,-105.43190000
24.35302734,-103.08940000
24.38354492,-93.41261000
24.41406250,-87.60441000
24.44458008,-85.36125000
24.47509766,-85.45151000
24.50561523,-87.25047000
24.53613281,-90.30257000
24.56665039,-91.39693000
24.59716797,-89.00412000
24.62768555,-87.62148000
24.65820313,-88.03054000
24.68872070,-89.05181000
24.71923828,-87.51022000
24.74975586,-85.57160000
24.78027344,-85.33076000
24.81079102,-87.85783000
24.84130859,-94.64140000
24.87182617,-91.16269000
24.90234375,-86.99940000
24.93286133,-86.04015000
24.96337891,-86.85657000
24.99389648,-89.70994000
25.02441406,-92.09901000
25.05493164,-91.20187000
25.08544922,-91.12775000
25.11596680,-91.41262000
25.14648438,-93.02071000
25.17700195,-88.66421000
25.20751953,-83.69031000
25.23803711,-82.63216000
25.26855469,-85.45722000
25.29907227,-93.38497000
25.32958984,-98.35830000
25.36010742,-91.62082000
25.39062500,-87.47138000
25.42114258,-86.16866000
25.45166016,-86.41438000
25.48217773,-87.35286000
25.51269531,-89.14073000
25.54321289,-89.33435000
25.57373047,-88.82254000
25.60424805,-89.28491000
25.63476563,-91.18358000
25.66528320,-98.08591000
25.69580078,-99.17471000
25.72631836,-94.26830000
25.75683594,-93.15189000
25.78735352,-95.12096000
25.81787109,-94.09340000
25.84838867,-90.63037000
25.87890625,-90.15205000
25.90942383,-90.04750000
25.93994141,-87.89095000
25.97045898,-84.99516000
26.00097656,-82.50889000
26.03149414,-81.05895000
26.06201172,-80.61581000
26.09252930,-80.39478000
26.12304688,-80.42488000
26.15356445,-81.37317000
26.18408203,-82.91714000
26.21459961,-84.44739000
26.24511719,-86.63932000
26.27563477,-90.94216000
26.30615234,-90.14832000
26.33666992,-84.27728000
26.36718750,-81.14368000
26.39770508,-80.11243000
26.42822266,-80.74602000
26.45874023,-83.32261000
26.48925781,-89.76746000
26.51977539,-90.41121000
26.55029297,-84.79498000
26.58081055,-84.20961000
26.61132813,-86.23096000
26.64184570,-89.91295000
26.67236328,-101.90180000
26.70288086,-91.67883000
26.73339844,-84.33949000
26.76391602,-81.34635000
26.79443359,-80.49737000
26.82495117,-81.01378000
26.85546875,-82.54879000
26.88598633,-85.03613000
26.91650391,-88.58263000
26.94702148,-93.33940000
26.97753906,-98.94212000
27.00805664,-92.99152000
27.03857422,-86.72334000
27.06909180,-83.32066000
27.09960938,-81.16350000
27.13012695,-80.03769000
27.16064453,-80.60197000
27.19116211,-83.03737000
27.22167969,-86.68217000
27.25219727,-87.15194000
27.28271484,-84.09410000
27.31323242,-83.04631000
27.34375000,-84.95775000
27.37426758,-90.59460000
27.40478516,-97.78989000
27.43530273,-96.70898000
27.46582031,-92.05598000
27.49633789,-85.84930000
27.52685547,-83.72712000
27.55737305,-84.65338000
27.58789063,-86.36284000
27.61840820,-87.37677000
27.64892578,-88.70482000
27.67944336,-89.41429000
27.70996094,-92.93558000
27.74047852,-96.92932000
27.77099609,-90.14601000
27.80151367,-88.71960000
27.83203125,-90.97540000
27.86254883,-94.37370000
27.89306641,-90.23901000
27.92358398,-87.11259000
27.95410156,-87.66905000
27.98461914,-92.55573000
28.01513672,-104.54220000
28.04565430,-102.44140000
28.07617188,-100.64200000
28.10668945,-93.18612000
28.13720703,-88.12190000
28.16772461,-87.05666000
28.19824219,-89.73697000
28.22875977,-91.15128000
28.25927734,-87.48208000
28.28979492,-86.12106000
28.32031250,-87.02283000
28.35083008,-89.90669000
28.38134766,-91.57081000
28.41186523,-89.36494000
28.44238281,-86.94720000
28.47290039,-85.12837000
28.50341797,-86.03524000
28.53393555,-89.48495000
28.56445313,-87.93427000
28.59497070,-84.45308000
28.62548828,-82.53198000
28.65600586,-82.41164000
28.68652344,-84.31982000
28.71704102,-86.99749000
28.74755859,-87.36406000
28.77807617,-87.64225000
28.80859375,-89.31229000
28.83911133,-91.57960000
28.86962891,-93.39164000
28.90014648,-93.05162000
28.93066406,-92.10892000
28.96118164,-94.44702000
28.99169922,-99.11125000
29.02221680,-89.85642000
29.05273438,-86.60307000
29.08325195,-87.48770000
29.11376953,-90.74863000
29.14428711,-88.99215000
29.17480469,-86.57901000
29.20532227,-88.41827000
29.23583984,-102.58020000
29.26635742,-92.17048000
29.29687500,-89.85191000
29.32739258,-97.00204000
29.35791016,-96.05391000
29.38842773,-92.76844000
29.41894531,-97.57912000
29.44946289,-114.46290000
29.47998047,-96.62274000
29.51049805,-91.21718000
29.54101563,-88.33891000
29.57153320,-87.88290000
29.60205078,-89.91801000
29.63256836,-94.67045000
29.66308594,-99.21304000
29.69360352,-95.01927000
29.72412109,-91.84193000
29.75463867,-90.55919000
29.78515625,-88.56400000
29.81567383,-85.77142000
29.84619141,-85.31762000
29.87670898,-89.01111000
29.90722656,-104.65710000
29.93774414,-90.72429000
29.96826172,-87.40680000
29.99877930,-88.53928000
30.02929688,-90.63216000
30.05981445,-88.95966000
30.09033203,-86.31482000
30.12084961,-83.38525000
30.15136719,-81.73450000
30.18188477,-82.59483000
30.21240234,-86.25428000
30.24291992,-91.49663000
30.27343750,-98.27783000
30.30395508,-102.69820000
30.33447266,-92.35391000
30.36499023,-91.78990000
30.39550781,-97.82211000
30.42602539,-107.16870000
30.45654297,-111.09860000
30.48706055,-93.82331000
30.51757813,-86.64052000
30.54809570,-85.11372000
30.57861328,-86.66521000
30.60913086,-86.09666000
30.63964844,-83.60634000
30.67016602,-83.06380000
30.70068359,-85.40798000
30.73120117,-92.16984000
30.76171875,-89.44109000
30.79223633,-85.14076000
30.82275391,-85.36951000
30.85327148,-89.44133000
30.88378906,-95.31323000
30.91430664,-91.65480000
30.94482422,-86.18849000
30.97534180,-83.08448000
31.00585938,-82.97185000
31.03637695,-85.56956000
31.06689453,-89.45205000
31.09741211,-91.73051000
31.12792969,-92.30231000
31.15844727,-95.20688000
31.18896484,-103.07270000
31.21948242,-110.39760000
31.25000000,-109.31380000
31.28051758,-97.13022000
31.31103516,-90.10823000
31.34155273,-88.52243000
31.37207031,-91.80732000
31.40258789,-94.81047000
31.43310547,-91.66467000
31.46362305,-88.08509000
31.49414063,-83.63776000
31.52465820,-81.27142000
31.55517578,-81.24870000
31.58569336,-82.76839000
31.61621094,-84.77911000
31.64672852,-88.87682000
31.67724609,-113.09930000
31.70776367,-89.01787000
31.73828125,-86.01761000
31.76879883,-87.72392000
31.79931641,-89.03337000
31.82983398,-86.28341000
31.86035156,-86.11068000
31.89086914,-90.02959000
31.92138672,-94.40610000
31.95190430,-89.99811000
31.98242188,-86.93115000
32.01293945,-86.81359000
32.04345703,-87.59808000
32.07397461,-85.66722000
32.10449219,-85.91084000
32.13500977,-91.90613000
32.16552734,-97.77576000
32.19604492,-92.17105000
32.22656250,-92.89575000
32.25708008,-90.89535000
32.28759766,-88.54565000
32.31811523,-88.27814000
32.34863281,-88.40675000
32.37915039,-90.39422000
32.40966797,-94.06879000
32.44018555,-88.71037000
32.47070313,-86.22069000
32.50122070,-85.35150000
32.53173828,-84.35978000
32.56225586,-84.20137000
32.59277344,-85.77112000
32.62329102,-89.57861000
32.65380859,-90.88302000
32.68432617,-87.49206000
32.71484375,-87.36052000
32.74536133,-91.63079000
32.77587891,-93.68104000
32.80639648,-90.28294000
32.83691406,-91.37611000
32.86743164,-97.76199000
32.89794922,-104.28550000
32.92846680,-93.72970000
32.95898438,-87.94431000
32.98950195,-83.41724000
33.02001953,-82.18315000
33.05053711,-85.19401000
33.08105469,-91.45677000
33.11157227,-88.35220000
33.14208984,-87.67482000
33.17260742,-91.72313000
33.20312500,-99.49843000
33.23364258,-94.83025000
33.26416016,-96.56622000
33.29467773,-95.00853000
33.32519531,-89.02257000
33.35571289,-86.95224000
33.38623047,-86.71925000
33.41674805,-87.52405000
33.44726563,-88.45306000
33.47778320,-86.42226000
33.50830078,-84.23333000
33.53881836,-84.47916000
33.56933594,-87.82050000
33.59985352,-99.04082000
33.63037109,-92.38028000
33.66088867,-85.67358000
33.69140625,-84.41077000
33.72192383,-85.77318000
33.75244141,-86.09383000
33.78295898,-84.90453000
33.81347656,-85.46043000
33.84399414,-88.80596000
33.87451172,-94.96686000
33.90502930,-96.98612000
33.93554688,-94.38814000
33.96606445,-91.90479000
33.99658203,-89.82529000
34.02709961,-89.23553000
34.05761719,-89.84419000
34.08813477,-89.20049000
34.11865234,-87.27784000
34.14916992,-86.29286000
34.17968750,-87.23021000
34.21020508,-91.30059000
34.24072266,-104.85210000
34.27124023,-98.13355000
34.30175781,-92.23464000
34.33227539,-91.52038000
34.36279297,-95.77507000
34.39331055,-91.38274000
34.42382813,-87.85931000
34.45434570,-88.73897000
34.48486328,-88.40926000
34.51538086,-85.84013000
34.54589844,-86.26765000
34.57641602,-86.49560000
34.60693359,-83.89151000
34.63745117,-84.32949000
34.66796875,-88.37356000
34.69848633,-87.45641000
34.72900391,-84.48716000
34.75952148,-83.51488000
34.79003906,-83.65154000
34.82055664,-85.01840000
34.85107422,-87.01866000
34.88159180,-87.61241000
34.91210938,-89.09679000
34.94262695,-95.25593000
34.97314453,-97.39594000
35.00366211,-92.36503000
35.03417969,-90.44890000
35.06469727,-89.90166000
35.09521484,-90.46467000
35.12573242,-91.01983000
35.15625000,-89.51363000
35.18676758,-90.81176000
35.21728516,-94.76701000
35.24780273,-85.03439000
35.27832031,-81.05380000
35.30883789,-79.89003000
35.33935547,-79.87025000
35.36987305,-80.64396000
35.40039063,-82.95998000
35.43090820,-85.16114000
35.46142578,-83.77091000
35.49194336,-83.65742000
35.52246094,-86.35773000
35.55297852,-91.52142000
35.58349609,-93.67445000
35.61401367,-89.69044000
35.64453125,-90.55100000
35.67504883,-102.74000000
35.70556641,-91.21159000
35.73608398,-87.83791000
35.76660156,-87.85464000
35.79711914,-87.41492000
35.82763672,-85.16144000
35.85815430,-82.60963000
35.88867188,-81.67858000
35.91918945,-82.46004000
35.94970703,-84.47136000
35.98022461,-88.22277000
36.01074219,-96.76289000
36.04125977,-94.45998000
36.07177734,-89.26184000
36.10229492,-88.88612000
36.13281250,-92.35374000
36.16333008,-96.77853000
36.19384766,-92.97989000
36.22436523,-90.26257000
36.25488281,-88.21628000
36.28540039,-86.25412000
36.31591797,-85.39984000
36.34643555,-86.88538000
36.37695313,-92.13525000
36.40747070,-114.45270000
36.43798828,-94.88380000
36.46850586,-89.83055000
36.49902344,-88.05489000
36.52954102,-87.83868000
36.56005859,-89.11188000
36.59057617,-90.54053000
36.62109375,-86.34895000
36.65161133,-82.76245000
36.68212891,-82.05980000
36.71264648,-83.59428000
36.74316406,-85.29939000
36.77368164,-84.85555000
36.80419922,-83.65394000
36.83471680,-83.35641000
36.86523438,-84.37629000
36.89575195,-86.76773000
36.92626953,-90.79846000
36.95678711,-96.69418000
36.98730469,-103.33210000
37.01782227,-100.44230000
37.04833984,-92.59734000
37.07885742,-87.87910000
37.10937500,-86.51892000
37.13989258,-88.89331000
37.17041016,-96.50161000
37.20092773,-93.76813000
37.23144531,-89.45161000
37.26196289,-88.21740000
37.29248047,-88.01826000
37.32299805,-87.45889000
37.35351563,-87.88089000
37.38403320,-93.89737000
37.41455078,-96.15181000
37.44506836,-87.45678000
37.47558594,-84.31298000
37.50610352,-82.37024000
37.53662109,-81.63937000
37.56713867,-81.92451000
37.59765625,-82.61002000
37.62817383,-83.41694000
37.65869141,-84.46488000
37.68920898,-86.52277000
37.71972656,-88.55635000
37.75024414,-84.99833000
37.78076172,-81.76665000
37.81127930,-81.34543000
37.84179688,-83.89241000
37.87231445,-89.52295000
37.90283203,-90.64792000
37.93334961,-86.09483000
37.96386719,-84.05929000
37.99438477,-83.59265000
38.02490234,-82.49538000
38.05541992,-81.95619000
38.08593750,-84.08367000
38.11645508,-90.01962000
38.14697266,-89.30602000
38.17749023,-85.87416000
38.20800781,-86.55036000
38.23852539,-91.83354000
38.26904297,-103.38380000
38.29956055,-87.53135000
38.33007813,-83.63918000
38.36059570,-84.30020000
38.39111328,-89.78768000
38.42163086,-86.77273000
38.45214844,-82.87337000
38.48266602,-83.17978000
38.51318359,-85.85495000
38.54370117,-87.73159000
38.57421875,-88.74215000
38.60473633,-90.88794000
38.63525391,-91.62785000
38.66577148,-91.12309000
38.69628906,-89.35492000
38.72680664,-86.52269000
38.75732422,-84.78020000
38.78784180,-84.60644000
38.81835938,-85.94017000
38.84887695,-88.27308000
38.87939453,-90.40027000
38.90991211,-91.95772000
38.94042969,-93.45015000
38.97094727,-96.45996000
39.00146484,-113.71560000
39.03198242,-92.26294000
39.06250000,-87.19302000
39.09301758,-86.02774000
39.12353516,-86.50150000
39.15405273,-89.20274000
39.18457031,-94.30988000
39.21508789,-90.39079000
39.24560547,-89.37466000
39.27612305,-91.15887000
39.30664063,-90.44552000
39.33715820,-86.31135000
39.36767578,-82.69711000
39.39819336,-81.46483000
39.42871094,-83.90733000
39.45922852,-96.90445000
39.48974609,-86.77751000
39.52026367,-82.07361000
39.55078125,-82.62730000
39.58129883,-87.31322000
39.61181641,-90.26321000
39.64233398,-85.61435000
39.67285156,-83.64605000
39.70336914,-83.84856000
39.73388672,-85.33563000
39.76440430,-86.44466000
39.79492188,-86.99629000
39.82543945,-88.20644000
39.85595703,-88.69476000
39.88647461,-88.80099000
39.91699219,-90.65436000
39.94750977,-91.63216000
39.97802734,-88.79538000
40.00854492,-88.00285000
40.03906250,-90.86304000
40.06958008,-94.67395000
40.10009766,-94.68593000
40.13061523,-97.42593000
40.16113281,-100.08960000
40.19165039,-87.74857000
40.22216797,-82.76310000
40.25268555,-80.62898000
40.28320313,-80.15714000
40.31372070,-81.30708000
40.34423828,-84.63001000
40.37475586,-89.29282000
40.40527344,-90.71381000
40.43579102,-96.07529000
40.46630859,-97.01242000
40.49682617,-88.20878000
40.52734375,-87.02491000
40.55786133,-85.94329000
40.58837891,-82.69331000
40.61889648,-81.30965000
40.64941406,-82.47649000
40.67993164,-85.51692000
40.71044922,-86.86409000
40.74096680,-86.16399000
40.77148438,-87.63085000
40.80200195,-95.34604000
40.83251953,-96.81118000
40.86303711,-89.75398000
40.89355469,-90.01098000
40.92407227,-93.25260000
40.95458984,-93.10513000
40.98510742,-90.73853000
41.01562500,-92.49521000
41.04614258,-105.08250000
41.07666016,-96.53558000
41.10717773,-92.66170000
41.13769531,-92.92494000
41.16821289,-94.85304000
41.19873047,-99.34172000
41.22924805,-105.23460000
41.25976563,-99.76685000
41.29028320,-93.10715000
41.32080078,-89.44004000
41.35131836,-85.71216000
41.38183594,-83.30389000
41.41235352,-83.64676000
41.44287109,-86.38154000
41.47338867,-94.20997000
41.50390625,-93.92295000
41.53442383,-85.67944000
41.56494141,-84.71294000
41.59545898,-87.33512000
41.62597656,-91.47404000
41.65649414,-91.96463000
41.68701172,-89.53267000
41.71752930,-86.52637000
41.74804688,-84.15093000
41.77856445,-83.76593000
41.80908203,-86.07382000
41.83959961,-91.47508000
41.87011719,-100.57650000
41.90063477,-103.03570000
41.93115234,-99.32014000
41.96166992,-97.50747000
41.99218750,-94.11895000
42.02270508,-93.05371000
42.05322266,-93.26745000
42.08374023,-90.84071000
42.11425781,-87.80198000
42.14477539,-85.92044000
42.17529297,-85.25613000
42.20581055,-85.58349000
42.23632813,-85.92169000
42.26684570,-85.27951000
42.29736328,-84.10844000
42.32788086,-83.77631000
42.35839844,-85.26894000
42.38891602,-89.12572000
42.41943359,-96.89980000
42.44995117,-111.79430000
42.48046875,-107.84560000
42.51098633,-94.55093000
42.54150391,-87.91019000
42.57202148,-85.96378000
42.60253906,-85.53761000
42.63305664,-85.48446000
42.66357422,-87.48419000
42.69409180,-90.33577000
42.72460938,-91.16998000
42.75512695,-93.56255000
42.78564453,-90.24762000
42.81616211,-87.20112000
42.84667969,-87.21005000
42.87719727,-88.15560000
42.90771484,-88.02611000
42.93823242,-88.45245000
42.96875000,-92.10254000
42.99926758,-101.16500000
43.02978516,-90.34242000
43.06030273,-85.27732000
43.09082031,-83.50045000
43.12133789,-84.56407000
43.15185547,-89.46799000
43.18237305,-98.71866000
43.21289063,-89.70901000
43.24340820,-85.33841000
43.27392578,-84.28654000
43.30444336,-85.14030000
43.33496094,-87.07343000
43.36547852,-92.79791000
43.39599609,-94.72927000
43.42651367,-84.11826000
43.45703125,-80.18535000
43.48754883,-78.94259000
43.51806641,-79.27964000
43.54858398,-80.64480000
43.57910156,-83.14491000
43.60961914,-87.94534000
43.64013672,-102.09820000
43.67065430,-93.17718000
43.70117188,-87.11870000
43.73168945,-84.80473000
43.76220703,-83.79607000
43.79272461,-84.37944000
43.82324219,-87.90303000
43.85375977,-99.18481000
43.88427734,-95.33517000
43.91479492,-88.88325000
43.94531250,-88.24843000
43.97583008,-93.23548000
44.00634766,-90.76131000
44.03686523,-84.43987000
44.06738281,-82.49077000
44.09790039,-82.52467000
44.12841797,-83.45683000
44.15893555,-84.44899000
44.18945313,-84.68736000
44.21997070,-85.10059000
44.25048828,-86.06839000
44.28100586,-85.95280000
44.31152344,-85.46333000
44.34204102,-86.32713000
44.37255859,-89.05434000
44.40307617,-93.45514000
44.43359375,-86.70149000
44.46411133,-82.33613000
44.49462891,-81.79724000
44.52514648,-84.69906000
44.55566406,-91.76720000
44.58618164,-98.19006000
44.61669922,-95.05133000
44.64721680,-88.59554000
44.67773438,-86.30331000
44.70825195,-86.67744000
44.73876953,-85.30164000
44.76928711,-83.46619000
44.79980469,-83.84007000
44.83032227,-86.34834000
44.86083984,-89.48936000
44.89135742,-90.47305000
44.92187500,-88.11227000
44.95239258,-87.10568000
44.98291016,-91.89980000
45.01342773,-94.35418000
45.04394531,-85.91939000
45.07446289,-83.87353000
45.10498047,-84.30933000
45.13549805,-86.91674000
45.16601563,-94.53287000
45.19653320,-98.08693000
45.22705078,-90.85812000
45.25756836,-88.96316000
45.28808594,-90.10184000
45.31860352,-96.42267000
45.34912109,-92.51968000
45.37963867,-88.57926000
45.41015625,-89.43536000
45.44067383,-90.36476000
45.47119141,-86.89767000
45.50170898,-84.20643000
45.53222656,-82.71262000
45.56274414,-82.00124000
45.59326172,-82.47595000
45.62377930,-84.83489000
45.65429688,-89.27765000
45.68481445,-89.23569000
45.71533203,-86.08176000
45.74584961,-85.73541000
45.77636719,-88.12008000
45.80688477,-93.26072000
45.83740234,-100.74120000
45.86791992,-96.36436000
45.89843750,-88.36499000
45.92895508,-85.12939000
45.95947266,-85.36307000
45.98999023,-88.43101000
46.02050781,-90.36613000
46.05102539,-87.57050000
46.08154297,-88.28490000
46.11206055,-98.24629000
46.14257813,-91.18848000
46.17309570,-85.12875000
46.20361328,-83.50813000
46.23413086,-84.05161000
46.26464844,-85.86327000
46.29516602,-86.03050000
46.32568359,-84.09227000
46.35620117,-84.09389000
46.38671875,-88.46172000
46.41723633,-93.21727000
46.44775391,-85.95345000
46.47827148,-84.79295000
46.50878906,-87.46664000
46.53930664,-88.01768000
46.56982422,-84.23310000
46.60034180,-82.36742000
46.63085938,-82.53150000
46.66137695,-83.96039000
46.69189453,-85.83424000
46.72241211,-88.49837000
46.75292969,-96.26685000
46.78344727,-92.21719000
46.81396484,-85.64857000
46.84448242,-83.79204000
46.87500000,-84.81923000
46.90551758,-90.89336000
46.93603516,-94.64904000
46.96655273,-84.02301000
46.99707031,-81.65445000
47.02758789,-82.80869000
47.05810547,-86.15554000
47.08862305,-89.93396000
47.11914063,-91.33745000
47.14965820,-91.43562000
47.18017578,-96.44898000
47.21069336,-95.89821000
47.24121094,-89.41052000
47.27172852,-90.32197000
47.30224609,-95.70240000
47.33276367,-93.08948000
47.36328125,-91.88297000
47.39379883,-88.03864000
47.42431641,-86.10596000
47.45483398,-89.66455000
47.48535156,-109.35910000
47.51586914,-89.20293000
47.54638672,-85.99441000
47.57690430,-85.98430000
47.60742188,-86.96311000
47.63793945,-85.39949000
47.66845703,-81.81968000
47.69897461,-79.35286000
47.72949219,-78.60373000
47.76000977,-79.17661000
47.79052734,-80.14273000
47.82104492,-81.37325000
47.85156250,-84.23366000
47.88208008,-90.11412000
47.91259766,-98.75474000
47.94311523,-95.81747000
47.97363281,-90.93441000
48.00415039,-88.80997000
48.03466797,-87.01412000
48.06518555,-84.39693000
48.09570313,-83.05289000
48.12622070,-83.90356000
48.15673828,-87.44598000
48.18725586,-96.70819000
48.21777344,-98.00002000
48.24829102,-91.32690000
48.27880859,-89.41639000
48.30932617,-89.82561000
48.33984375,-93.75854000
48.37036133,-94.31512000
48.40087891,-92.77238000
48.43139648,-93.76030000
48.46191406,-91.29256000
48.49243164,-88.70057000
48.52294922,-88.04565000
48.55346680,-89.18666000
48.58398438,-90.30759000
48.61450195,-90.34641000
48.64501953,-90.63857000
48.67553711,-92.12106000
48.70605469,-91.21957000
48.73657227,-88.40202000
48.76708984,-87.82260000
48.79760742,-91.20731000
48.82812500,-95.60675000
48.85864258,-87.07490000
48.88916016,-83.97762000
48.91967773,-84.49617000
48.95019531,-87.70080000
48.98071289,-92.43523000
49.01123047,-97.21948000
49.04174805,-97.22312000
49.07226563,-87.60837000
49.10278320,-82.65641000
49.13330078,-81.26491000
49.16381836,-82.99205000
49.19433594,-88.40317000
49.22485352,-93.63493000
49.25537109,-89.00366000
49.28588867,-87.46558000
49.31640625,-87.45854000
49.34692383,-87.65349000
49.37744141,-89.00272000
49.40795898,-90.78992000
49.43847656,-89.67235000
49.46899414,-87.19077000
49.49951172,-84.80958000
49.53002930,-83.49664000
49.56054688,-83.81213000
49.59106445,-85.49595000
49.62158203,-86.51959000
49.65209961,-86.38921000
49.68261719,-87.74303000
49.71313477,-90.08373000
49.74365234,-89.03728000
49.77416992,-85.64594000
49.80468750,-84.37226000
49.83520508,-84.74033000
49.86572266,-83.01881000
49.89624023,-80.64490000
49.92675781,-79.78940000
49.95727539,-80.31012000
49.98779297,-81.84483000
50.01831055,-84.44626000
