Frequency,Channel A
(MHz),(dBu)

0.00000000,-11.64586000
0.03051758,-11.99885000
0.06103516,-17.13037000
0.09155273,-26.70297000
0.12207031,-43.21532000
0.15258789,-56.68318000
0.18310547,-57.54840000
0.21362305,-62.02616000
0.24414063,-65.43037000
0.27465820,-65.37804000
0.30517578,-65.41696000
0.33569336,-61.26900000
0.36621094,-57.31195000
0.39672852,-56.37823000
0.42724609,-57.01038000
0.45776367,-58.60670000
0.48828125,-61.32048000
0.51879883,-60.11959000
0.54931641,-50.75758000
0.57983398,-43.10561000
0.61035156,-38.35520000
0.64086914,-36.11453000
0.67138672,-36.14479000
0.70190430,-38.26701000
0.73242188,-42.31408000
0.76293945,-48.26914000
0.79345703,-55.60822000
0.82397461,-59.32268000
0.85449219,-60.88367000
0.88500977,-63.47972000
0.91552734,-64.40738000
0.94604492,-61.83315000
0.97656250,-58.43002000
1.00708008,-56.99799000
1.03759766,-57.90207000
1.06811523,-61.06605000
1.09863281,-66.42298000
1.12915039,-73.62444000
1.15966797,-76.94775000
1.19018555,-71.97107000
1.22070313,-68.89579000
1.25122070,-68.46947000
1.28173828,-70.89920000
1.31225586,-78.66611000
1.34277344,-82.09589000
1.37329102,-72.41872000
1.40380859,-70.18292000
1.43432617,-71.47720000
1.46484375,-75.95799000
1.49536133,-82.95633000
1.52587891,-75.86344000
1.55639648,-70.05913000
1.58691406,-67.83254000
1.61743164,-67.92396000
1.64794922,-70.20193000
1.67846680,-72.16113000
1.70898438,-70.60302000
1.73950195,-69.82959000
1.77001953,-70.07838000
1.80053711,-69.52896000
1.83105469,-66.07536000
1.86157227,-62.16366000
1.89208984,-59.66242000
1.92260742,-58.50135000
1.95312500,-58.45624000
1.98364258,-59.37203000
2.01416016,-60.88032000
2.04467773,-62.42894000
2.07519531,-63.74475000
2.10571289,-65.22949000
2.13623047,-67.78018000
2.16674805,-71.57178000
2.19726563,-73.87443000
2.22778320,-74.15913000
2.25830078,-73.58272000
2.28881836,-72.13334000
2.31933594,-73.44131000
2.34985352,-82.25838000
2.38037109,-76.55518000
2.41088867,-71.79041000
2.44140625,-70.57967000
2.47192383,-70.46186000
2.50244141,-71.72986000
2.53295898,-75.57805000
2.56347656,-77.04335000
2.59399414,-72.06498000
2.62451172,-69.43259000
2.65502930,-69.28205000
2.68554688,-72.22748000
2.71606445,-75.42596000
2.74658203,-71.60323000
2.77709961,-70.65662000
2.80761719,-73.42643000
2.83813477,-75.72423000
2.86865234,-73.54588000
2.89916992,-72.14820000
2.92968750,-71.93464000
2.96020508,-72.59547000
2.99072266,-73.42193000
3.02124023,-73.90565000
3.05175781,-75.46525000
3.08227539,-80.93124000
3.11279297,-89.17175000
3.14331055,-84.63058000
3.17382813,-79.68945000
3.20434570,-74.00922000
3.23486328,-71.98267000
3.26538086,-71.57635000
3.29589844,-71.21588000
3.32641602,-71.01796000
3.35693359,-71.77112000
3.38745117,-73.48022000
3.41796875,-73.28291000
3.44848633,-70.82921000
3.47900391,-69.17477000
3.50952148,-69.18678000
3.54003906,-71.33784000
3.57055664,-75.99106000
3.60107422,-79.38908000
3.63159180,-78.06347000
3.66210938,-77.26291000
3.69262695,-75.98460000
3.72314453,-72.88196000
3.75366211,-69.23902000
3.78417969,-66.32247000
3.81469727,-63.94674000
3.84521484,-62.28836000
3.87573242,-61.92891000
3.90625000,-62.94175000
3.93676758,-64.86513000
3.96728516,-67.11237000
3.99780273,-69.50529000
4.02832031,-70.78831000
4.05883789,-69.54689000
4.08935547,-68.16951000
4.11987305,-67.52386000
4.15039063,-67.21709000
4.18090820,-67.18185000
4.21142578,-67.66512000
4.24194336,-68.49767000
4.27246094,-69.36816000
4.30297852,-71.08836000
4.33349609,-75.22046000
4.36401367,-83.21361000
4.39453125,-92.03041000
4.42504883,-84.37119000
4.45556641,-79.13498000
4.48608398,-77.69480000
4.51660156,-77.74066000
4.54711914,-77.06287000
4.57763672,-74.60472000
4.60815430,-71.79519000
4.63867188,-70.32243000
4.66918945,-70.28337000
4.69970703,-71.14835000
4.73022461,-72.90915000
4.76074219,-76.34801000
4.79125977,-85.66252000
4.82177734,-80.81054000
4.85229492,-74.36913000
4.88281250,-72.88089000
4.91333008,-74.26579000
4.94384766,-78.34464000
4.97436523,-86.98159000
5.00488281,-88.32893000
5.03540039,-78.60249000
5.06591797,-74.00817000
5.09643555,-72.05779000
5.12695313,-71.93542000
5.15747070,-73.58147000
5.18798828,-78.30531000
5.21850586,-89.29361000
5.24902344,-85.60065000
5.27954102,-84.26270000
5.31005859,-85.80864000
5.34057617,-93.43002000
5.37109375,-87.20193000
5.40161133,-82.33688000
5.43212891,-82.24626000
5.46264648,-80.70617000
5.49316406,-78.30438000
5.52368164,-77.13056000
5.55419922,-77.63797000
5.58471680,-83.09811000
5.61523438,-87.01334000
5.64575195,-79.22285000
5.67626953,-79.81503000
5.70678711,-82.18250000
5.73730469,-83.21865000
5.76782227,-86.39240000
5.79833984,-86.51138000
5.82885742,-80.95709000
5.85937500,-76.98022000
5.88989258,-75.70253000
5.92041016,-76.87381000
5.95092773,-78.90260000
5.98144531,-81.64224000
6.01196289,-90.78635000
6.04248047,-91.08748000
6.07299805,-81.17261000
6.10351563,-76.91527000
6.13403320,-76.81841000
6.16455078,-80.62415000
6.19506836,-87.85536000
6.22558594,-102.31510000
6.25610352,-90.65457000
6.28662109,-85.79337000
6.31713867,-86.79443000
6.34765625,-93.72521000
6.37817383,-101.39860000
6.40869141,-91.89904000
6.43920898,-87.41932000
6.46972656,-87.00952000
6.50024414,-88.29324000
6.53076172,-86.36594000
6.56127930,-86.67717000
6.59179688,-88.12946000
6.62231445,-85.22902000
6.65283203,-83.45976000
6.68334961,-82.88949000
6.71386719,-83.92471000
6.74438477,-88.60658000
6.77490234,-86.37603000
6.80541992,-80.13501000
6.83593750,-78.49295000
6.86645508,-79.98553000
6.89697266,-83.65349000
6.92749023,-88.12156000
6.95800781,-89.54232000
6.98852539,-87.12509000
7.01904297,-85.09177000
7.04956055,-84.24912000
7.08007813,-84.69593000
7.11059570,-85.63547000
7.14111328,-84.47758000
7.17163086,-81.61230000
7.20214844,-81.04176000
7.23266602,-82.32503000
7.26318359,-82.30918000
7.29370117,-82.26981000
7.32421875,-83.60564000
7.35473633,-86.22525000
7.38525391,-91.50833000
7.41577148,-101.59500000
7.44628906,-92.42192000
7.47680664,-85.47722000
7.50732422,-82.87498000
7.53784180,-82.99465000
7.56835938,-83.34497000
7.59887695,-82.58022000
7.62939453,-82.96909000
7.65991211,-85.16690000
7.69042969,-84.31393000
7.72094727,-80.66447000
7.75146484,-78.18433000
7.78198242,-76.72321000
7.81250000,-76.23436000
7.84301758,-76.65407000
7.87353516,-77.32690000
7.90405273,-77.53046000
7.93457031,-77.95976000
7.96508789,-80.13823000
7.99560547,-82.19894000
8.02612305,-81.53466000
8.05664063,-84.28571000
8.08715820,-87.69363000
8.11767578,-84.41196000
8.14819336,-83.04150000
8.17871094,-80.84151000
8.20922852,-79.82918000
8.23974609,-81.45692000
8.27026367,-83.32263000
8.30078125,-80.58537000
8.33129883,-79.92141000
8.36181641,-83.57476000
8.39233398,-91.06271000
8.42285156,-99.95279000
8.45336914,-89.57404000
8.48388672,-85.12965000
8.51440430,-88.15937000
8.54492188,-94.02760000
8.57543945,-85.83564000
8.60595703,-81.16455000
8.63647461,-79.61684000
8.66699219,-81.47734000
8.69750977,-87.02029000
8.72802734,-92.32262000
8.75854492,-84.48647000
8.78906250,-80.32998000
8.81958008,-79.17724000
8.85009766,-81.50221000
8.88061523,-90.83861000
8.91113281,-87.96600000
8.94165039,-82.47978000
8.97216797,-80.00774000
9.00268555,-79.28830000
9.03320313,-81.70296000
9.06372070,-88.23245000
9.09423828,-90.89017000
9.12475586,-88.00864000
9.15527344,-81.71462000
9.18579102,-78.77594000
9.21630859,-79.24790000
9.24682617,-81.53932000
9.27734375,-83.80047000
9.30786133,-87.59714000
9.33837891,-97.54226000
9.36889648,-101.06870000
9.39941406,-97.22940000
9.42993164,-90.80109000
9.46044922,-86.10252000
9.49096680,-87.15496000
9.52148438,-99.73297000
9.55200195,-83.86750000
9.58251953,-79.47738000
9.61303711,-80.40233000
9.64355469,-88.11802000
9.67407227,-87.68378000
9.70458984,-80.81745000
9.73510742,-78.14700000
9.76562500,-76.91171000
9.79614258,-77.03392000
9.82666016,-78.60080000
9.85717773,-80.57190000
9.88769531,-81.12978000
9.91821289,-80.34310000
9.94873047,-79.19157000
9.97924805,-78.74343000
10.00976563,-81.08852000
10.04028320,-91.96164000
10.07080078,-85.70284000
10.10131836,-81.14376000
10.13183594,-81.70841000
10.16235352,-82.78609000
10.19287109,-82.03938000
10.22338867,-82.25938000
10.25390625,-83.31213000
10.28442383,-83.14462000
10.31494141,-81.45683000
10.34545898,-79.43040000
10.37597656,-78.35928000
10.40649414,-79.66010000
10.43701172,-85.31113000
10.46752930,-89.61627000
10.49804688,-84.65692000
10.52856445,-85.78726000
10.55908203,-89.79069000
10.58959961,-87.55377000
10.62011719,-84.20303000
10.65063477,-82.68418000
10.68115234,-82.21069000
10.71166992,-82.64809000
10.74218750,-84.99426000
10.77270508,-87.15475000
10.80322266,-84.82690000
10.83374023,-82.52899000
10.86425781,-81.77867000
10.89477539,-83.27605000
10.92529297,-86.83278000
10.95581055,-86.34810000
10.98632813,-83.14461000
11.01684570,-80.87822000
11.04736328,-79.10571000
11.07788086,-77.96281000
11.10839844,-77.83180000
11.13891602,-79.43330000
11.16943359,-84.65933000
11.19995117,-92.59922000
11.23046875,-86.08890000
11.26098633,-84.43719000
11.29150391,-81.09010000
11.32202148,-79.19664000
11.35253906,-80.68841000
11.38305664,-84.16035000
11.41357422,-83.93059000
11.44409180,-82.50851000
11.47460938,-82.19585000
11.50512695,-82.26889000
11.53564453,-82.46545000
11.56616211,-83.38086000
11.59667969,-85.57410000
11.62719727,-91.53345000
11.65771484,-93.83878000
11.68823242,-84.17145000
11.71875000,-80.58774000
11.74926758,-79.61221000
11.77978516,-79.04379000
11.81030273,-76.97067000
11.84082031,-75.93568000
11.87133789,-78.15755000
11.90185547,-85.18904000
11.93237305,-91.83067000
11.96289063,-89.23776000
11.99340820,-89.36452000
12.02392578,-85.23525000
12.05444336,-81.61833000
12.08496094,-80.57265000
12.11547852,-81.22925000
12.14599609,-81.41415000
12.17651367,-78.71416000
12.20703125,-76.08248000
12.23754883,-75.32111000
12.26806641,-75.43971000
12.29858398,-75.37350000
12.32910156,-76.14777000
12.35961914,-78.59782000
12.39013672,-82.57041000
12.42065430,-86.59186000
12.45117188,-86.99791000
12.48168945,-82.38754000
12.51220703,-77.47459000
12.54272461,-74.82427000
12.57324219,-74.52319000
12.60375977,-75.95818000
12.63427734,-78.75146000
12.66479492,-84.60954000
12.69531250,-94.66786000
12.72583008,-82.17545000
12.75634766,-79.89925000
12.78686523,-81.92162000
12.81738281,-87.16727000
12.84790039,-93.62831000
12.87841797,-87.96059000
12.90893555,-84.23224000
12.93945313,-83.67830000
12.96997070,-83.33977000
13.00048828,-79.26224000
13.03100586,-76.26303000
13.06152344,-76.01677000
13.09204102,-77.72202000
13.12255859,-79.95417000
13.15307617,-81.20181000
13.18359375,-80.76051000
13.21411133,-79.09226000
13.24462891,-77.64625000
13.27514648,-77.55202000
13.30566406,-79.03802000
13.33618164,-81.90755000
13.36669922,-86.35437000
13.39721680,-90.25540000
13.42773438,-82.38860000
13.45825195,-74.73113000
13.48876953,-68.69119000
13.51928711,-64.52014000
13.54980469,-62.55535000
13.58032227,-62.95815000
13.61083984,-65.73264000
13.64135742,-70.44450000
13.67187500,-75.67319000
13.70239258,-80.51766000
13.73291016,-80.82878000
13.76342773,-77.07055000
13.79394531,-75.72031000
13.82446289,-77.18672000
13.85498047,-80.82541000
13.88549805,-82.18646000
13.91601563,-82.92164000
13.94653320,-85.71235000
13.97705078,-84.06660000
14.00756836,-84.10991000
14.03808594,-88.70377000
14.06860352,-99.21326000
14.09912109,-90.63705000
14.12963867,-86.36871000
14.16015625,-86.15604000
14.19067383,-88.93227000
14.22119141,-92.69539000
14.25170898,-93.42948000
14.28222656,-94.26944000
14.31274414,-98.14459000
14.34326172,-97.83036000
14.37377930,-91.31567000
14.40429688,-87.99061000
14.43481445,-86.59087000
14.46533203,-85.82643000
14.49584961,-85.27339000
14.52636719,-86.19789000
14.55688477,-89.53072000
14.58740234,-92.31689000
14.61791992,-89.76082000
14.64843750,-85.66173000
14.67895508,-82.29453000
14.70947266,-81.26293000
14.73999023,-84.08566000
14.77050781,-95.54550000
14.80102539,-91.09115000
14.83154297,-88.98230000
14.86206055,-94.75155000
14.89257813,-96.34364000
14.92309570,-85.05405000
14.95361328,-81.61835000
14.98413086,-81.83177000
15.01464844,-84.88052000
15.04516602,-90.06875000
15.07568359,-95.41512000
15.10620117,-102.83960000
15.13671875,-91.26462000
15.16723633,-79.59460000
15.19775391,-73.26797000
15.22827148,-70.44082000
15.25878906,-70.84474000
15.28930664,-74.87581000
15.31982422,-82.95574000
15.35034180,-86.06570000
15.38085938,-84.95126000
15.41137695,-78.85804000
15.44189453,-75.98720000
15.47241211,-77.15195000
15.50292969,-85.03303000
15.53344727,-85.04356000
15.56396484,-77.87731000
15.59448242,-77.16403000
15.62500000,-80.47432000
15.65551758,-91.46390000
15.68603516,-89.28735000
15.71655273,-83.64191000
15.74707031,-83.46570000
15.77758789,-86.42999000
15.80810547,-92.51262000
15.83862305,-91.06904000
15.86914063,-83.74162000
15.89965820,-79.39879000
15.93017578,-77.89902000
15.96069336,-79.56841000
15.99121094,-85.73524000
16.02172852,-90.92247000
16.05224609,-87.43198000
16.08276367,-87.99216000
16.11328125,-90.82147000
16.14379883,-115.50970000
16.17431641,-86.24948000
16.20483398,-80.54451000
16.23535156,-78.94961000
16.26586914,-79.93593000
16.29638672,-83.36017000
16.32690430,-93.34267000
16.35742188,-89.22138000
16.38793945,-82.13187000
16.41845703,-79.65314000
16.44897461,-79.32585000
16.47949219,-80.99487000
16.51000977,-86.89578000
16.54052734,-92.61894000
16.57104492,-81.76436000
16.60156250,-80.23183000
16.63208008,-83.80566000
16.66259766,-95.98799000
16.69311523,-96.77444000
16.72363281,-92.69769000
16.75415039,-89.74999000
16.78466797,-87.13135000
16.81518555,-85.02712000
16.84570313,-83.04566000
16.87622070,-81.91524000
16.90673828,-82.47203000
16.93725586,-85.00541000
16.96777344,-88.02125000
16.99829102,-88.55758000
17.02880859,-86.04985000
17.05932617,-83.54404000
17.08984375,-83.03629000
17.12036133,-84.03273000
17.15087891,-84.83680000
17.18139648,-86.04205000
17.21191406,-89.86617000
17.24243164,-96.28349000
17.27294922,-99.98973000
17.30346680,-102.41250000
17.33398438,-115.80100000
17.36450195,-95.99796000
17.39501953,-89.10262000
17.42553711,-87.45438000
17.45605469,-89.08057000
17.48657227,-85.97314000
17.51708984,-83.91769000
17.54760742,-86.69761000
17.57812500,-99.03046000
17.60864258,-93.40173000
17.63916016,-91.40308000
17.66967773,-76.88846000
17.70019531,-70.65791000
17.73071289,-69.07358000
17.76123047,-71.22834000
17.79174805,-72.65675000
17.82226563,-70.96019000
17.85278320,-72.09678000
17.88330078,-76.64117000
17.91381836,-84.98847000
17.94433594,-94.70670000
17.97485352,-84.96047000
18.00537109,-84.15615000
18.03588867,-89.25576000
18.06640625,-84.92493000
18.09692383,-82.42687000
18.12744141,-84.97867000
18.15795898,-93.52020000
18.18847656,-88.81539000
18.21899414,-82.57767000
18.24951172,-80.27740000
18.28002930,-80.83171000
18.31054688,-84.66561000
18.34106445,-91.47646000
18.37158203,-87.94311000
18.40209961,-86.91837000
18.43261719,-92.22145000
18.46313477,-103.44520000
18.49365234,-90.91801000
18.52416992,-89.53774000
18.55468750,-93.86273000
18.58520508,-100.81270000
18.61572266,-88.17376000
18.64624023,-86.07627000
18.67675781,-90.36239000
18.70727539,-100.29570000
18.73779297,-86.31784000
18.76831055,-83.75948000
18.79882813,-85.22742000
18.82934570,-86.15456000
18.85986328,-82.76286000
18.89038086,-80.57477000
18.92089844,-80.02091000
18.95141602,-81.03024000
18.98193359,-84.05526000
19.01245117,-87.44879000
19.04296875,-85.01176000
19.07348633,-81.49960000
19.10400391,-79.71526000
19.13452148,-80.23949000
19.16503906,-83.16495000
19.19555664,-87.95114000
19.22607422,-96.70876000
19.25659180,-94.89925000
19.28710938,-86.10856000
19.31762695,-83.42879000
19.34814453,-83.42528000
19.37866211,-85.35672000
19.40917969,-88.99106000
19.43969727,-89.40451000
19.47021484,-85.10834000
19.50073242,-83.42445000
19.53125000,-85.58051000
19.56176758,-95.41455000
19.59228516,-94.12682000
19.62280273,-87.02364000
19.65332031,-85.34113000
19.68383789,-87.87605000
19.71435547,-86.81293000
19.74487305,-79.22472000
19.77539063,-76.13339000
19.80590820,-76.38183000
19.83642578,-79.78702000
19.86694336,-83.94028000
19.89746094,-81.17628000
19.92797852,-80.25951000
19.95849609,-82.16025000
19.98901367,-80.89771000
20.01953125,-77.75281000
20.05004883,-76.79002000
20.08056641,-78.10785000
20.11108398,-82.29282000
20.14160156,-83.59241000
20.17211914,-79.52931000
20.20263672,-79.19236000
20.23315430,-81.22272000
20.26367188,-80.92244000
20.29418945,-78.26726000
20.32470703,-75.85676000
20.35522461,-75.10329000
20.38574219,-77.03661000
20.41625977,-81.37877000
20.44677734,-81.91009000
20.47729492,-81.16028000
20.50781250,-81.52684000
20.53833008,-79.55595000
20.56884766,-77.74628000
20.59936523,-77.32346000
20.62988281,-77.82242000
20.66040039,-78.45287000
20.69091797,-77.97942000
20.72143555,-77.48120000
20.75195313,-78.29250000
20.78247070,-79.18097000
20.81298828,-79.41999000
20.84350586,-79.86245000
20.87402344,-78.76717000
20.90454102,-77.03927000
20.93505859,-76.42087000
20.96557617,-76.43451000
20.99609375,-75.88990000
21.02661133,-75.12552000
21.05712891,-75.49693000
21.08764648,-78.24929000
21.11816406,-87.63348000
21.14868164,-82.52008000
21.17919922,-75.86449000
21.20971680,-74.02048000
21.24023438,-74.10691000
21.27075195,-74.95120000
21.30126953,-76.70969000
21.33178711,-78.97786000
21.36230469,-79.95084000
21.39282227,-79.30653000
21.42333984,-78.12165000
21.45385742,-78.11278000
21.48437500,-78.54578000
21.51489258,-76.31525000
21.54541016,-74.22271000
21.57592773,-74.07745000
21.60644531,-75.79972000
21.63696289,-79.29353000
21.66748047,-81.55677000
21.69799805,-78.94038000
21.72851563,-77.27602000
21.75903320,-77.81460000
21.78955078,-80.49416000
21.82006836,-84.12074000
21.85058594,-88.34248000
21.88110352,-99.58028000
21.91162109,-82.36602000
21.94213867,-77.98994000
21.97265625,-77.16990000
22.00317383,-78.62312000
22.03369141,-82.76175000
22.06420898,-92.88825000
22.09472656,-89.41881000
22.12524414,-83.98466000
22.15576172,-81.42749000
22.18627930,-80.53188000
22.21679688,-81.75129000
22.24731445,-85.26135000
22.27783203,-88.31939000
22.30834961,-87.55397000
22.33886719,-87.67567000
22.36938477,-90.26826000
22.39990234,-92.89160000
22.43041992,-88.65984000
22.46093750,-86.98135000
22.49145508,-89.47954000
22.52197266,-94.59624000
22.55249023,-91.10538000
22.58300781,-84.11576000
22.61352539,-80.72641000
22.64404297,-79.78052000
22.67456055,-80.19409000
22.70507813,-81.19350000
22.73559570,-82.48573000
22.76611328,-84.29833000
22.79663086,-86.77773000
22.82714844,-88.90097000
22.85766602,-88.03752000
22.88818359,-85.85506000
22.91870117,-85.85094000
22.94921875,-87.88710000
22.97973633,-88.53439000
23.01025391,-87.53444000
23.04077148,-88.03535000
23.07128906,-88.99057000
23.10180664,-88.12218000
23.13232422,-87.04006000
23.16284180,-87.31231000
23.19335938,-91.02789000
23.22387695,-103.15170000
23.25439453,-87.14508000
23.28491211,-82.83723000
23.31542969,-82.19266000
23.34594727,-84.07352000
23.37646484,-87.92619000
23.40698242,-91.22458000
23.43750000,-91.03451000
23.46801758,-92.62009000
23.49853516,-92.84929000
23.52905273,-88.03573000
23.55957031,-86.55675000
23.59008789,-87.72302000
23.62060547,-89.50717000
23.65112305,-89.97740000
23.68164063,-89.74356000
23.71215820,-89.09280000
23.74267578,-89.37372000
23.77319336,-92.94174000
23.80371094,-99.07134000
23.83422852,-88.73371000
23.86474609,-84.05228000
23.89526367,-82.12402000
23.92578125,-81.44485000
23.95629883,-81.40781000
23.98681641,-82.08232000
24.01733398,-84.26888000
24.04785156,-89.24921000
24.07836914,-88.82706000
24.10888672,-84.25545000
24.13940430,-82.75791000
24.16992188,-83.23928000
24.20043945,-84.96445000
24.23095703,-87.85484000
24.26147461,-91.39665000
24.29199219,-91.23601000
24.32250977,-90.59052000
24.35302734,-91.42501000
24.38354492,-89.23080000
24.41406250,-87.22093000
24.44458008,-86.56246000
24.47509766,-86.79071000
24.50561523,-89.35744000
24.53613281,-96.21552000
24.56665039,-102.40360000
24.59716797,-94.88918000
24.62768555,-88.74420000
24.65820313,-87.04877000
24.68872070,-85.85155000
24.71923828,-83.82912000
24.74975586,-83.10342000
24.78027344,-84.02772000
24.81079102,-86.56037000
24.84130859,-89.94981000
24.87182617,-89.72497000
24.90234375,-88.72095000
24.93286133,-90.71083000
24.96337891,-90.76390000
24.99389648,-86.67360000
25.02441406,-85.48563000
25.05493164,-87.44415000
25.08544922,-86.10587000
25.11596680,-82.96304000
25.14648438,-83.08639000
25.17700195,-86.04073000
25.20751953,-90.02387000
25.23803711,-91.14700000
25.26855469,-88.27139000
25.29907227,-85.69746000
25.32958984,-86.34332000
25.36010742,-92.43913000
25.39062500,-104.76330000
25.42114258,-91.52187000
25.45166016,-87.61043000
25.48217773,-85.31866000
25.51269531,-84.58686000
25.54321289,-84.96579000
25.57373047,-84.92942000
25.60424805,-85.14141000
25.63476563,-87.77055000
25.66528320,-95.59752000
25.69580078,-104.84630000
25.72631836,-94.53685000
25.75683594,-92.23598000
25.78735352,-90.83275000
25.81787109,-89.49130000
25.84838867,-88.46027000
25.87890625,-87.99080000
25.90942383,-88.41106000
25.93994141,-89.30829000
25.97045898,-88.58849000
26.00097656,-86.54064000
26.03149414,-85.49599000
26.06201172,-86.44469000
26.09252930,-89.88644000
26.12304688,-92.96617000
26.15356445,-90.44633000
26.18408203,-90.47522000
26.21459961,-96.46571000
26.24511719,-99.29307000
26.27563477,-91.32623000
26.30615234,-87.67680000
26.33666992,-84.89049000
26.36718750,-82.63840000
26.39770508,-81.35291000
26.42822266,-81.68047000
26.45874023,-83.98587000
26.48925781,-88.18702000
26.51977539,-93.83032000
26.55029297,-96.22636000
26.58081055,-88.14172000
26.61132813,-83.60985000
26.64184570,-82.47300000
26.67236328,-84.42577000
26.70288086,-88.57963000
26.73339844,-86.78979000
26.76391602,-83.17105000
26.79443359,-82.09121000
26.82495117,-83.50009000
26.85546875,-87.43980000
26.88598633,-93.63911000
26.91650391,-93.82144000
26.94702148,-90.93224000
26.97753906,-90.08010000
27.00805664,-89.06884000
27.03857422,-88.62262000
27.06909180,-90.54442000
27.09960938,-96.60919000
27.13012695,-96.13029000
27.16064453,-95.03650000
27.19116211,-107.12230000
27.22167969,-98.69241000
27.25219727,-94.29904000
27.28271484,-91.86586000
27.31323242,-88.33691000
27.34375000,-85.01649000
27.37426758,-82.70184000
27.40478516,-81.72486000
27.43530273,-82.05437000
27.46582031,-83.87890000
27.49633789,-87.79671000
27.52685547,-92.78156000
27.55737305,-94.59103000
27.58789063,-94.87453000
27.61840820,-89.10347000
27.64892578,-85.15019000
27.67944336,-84.79419000
27.70996094,-87.97964000
27.74047852,-90.56821000
27.77099609,-88.14098000
27.80151367,-87.04198000
27.83203125,-86.66029000
27.86254883,-85.04271000
27.89306641,-82.28809000
27.92358398,-79.92604000
27.95410156,-78.82108000
27.98461914,-79.61983000
28.01513672,-83.29994000
28.04565430,-93.00110000
28.07617188,-96.44063000
28.10668945,-89.42882000
28.13720703,-87.72241000
28.16772461,-87.31719000
28.19824219,-87.14439000
28.22875977,-87.34964000
28.25927734,-87.88406000
28.28979492,-87.12587000
28.32031250,-84.17367000
28.35083008,-81.94367000
28.38134766,-81.59454000
28.41186523,-82.50663000
28.44238281,-83.51799000
28.47290039,-84.56837000
28.50341797,-86.63284000
28.53393555,-88.52922000
28.56445313,-86.52795000
28.59497070,-83.52093000
28.62548828,-82.52773000
28.65600586,-84.34706000
28.68652344,-89.34857000
28.71704102,-97.44903000
28.74755859,-100.04730000
28.77807617,-94.55122000
28.80859375,-90.94206000
28.83911133,-89.92223000
28.86962891,-88.70949000
28.90014648,-85.95078000
28.93066406,-86.61182000
28.96118164,-95.34110000
28.99169922,-94.69598000
29.02221680,-89.85686000
29.05273438,-94.05639000
29.08325195,-91.56795000
29.11376953,-84.69997000
29.14428711,-83.59465000
29.17480469,-87.32237000
29.20532227,-101.88000000
29.23583984,-91.19537000
29.26635742,-87.67349000
29.29687500,-88.63030000
29.32739258,-93.77789000
29.35791016,-103.09410000
29.38842773,-95.07027000
29.41894531,-93.17208000
29.44946289,-93.24809000
29.47998047,-92.28807000
29.51049805,-90.72607000
29.54101563,-90.87509000
29.57153320,-94.20785000
29.60205078,-98.83722000
29.63256836,-102.67330000
29.66308594,-102.27770000
29.69360352,-93.16601000
29.72412109,-91.31064000
29.75463867,-91.49535000
29.78515625,-89.03793000
29.81567383,-86.21624000
29.84619141,-85.83736000
29.87670898,-87.41665000
29.90722656,-87.01979000
29.93774414,-86.79283000
29.96826172,-91.94083000
29.99877930,-94.58027000
30.02929688,-86.08613000
30.05981445,-83.54712000
30.09033203,-83.20747000
30.12084961,-83.89690000
30.15136719,-84.61691000
30.18188477,-84.49566000
30.21240234,-83.99723000
30.24291992,-83.65784000
30.27343750,-83.92607000
30.30395508,-85.54646000
30.33447266,-88.87605000
30.36499023,-91.36473000
30.39550781,-90.29333000
30.42602539,-88.13107000
30.45654297,-87.63447000
30.48706055,-91.79483000
30.51757813,-110.43700000
30.54809570,-92.57954000
30.57861328,-90.59051000
30.60913086,-93.12361000
30.63964844,-98.48878000
30.67016602,-89.83429000
30.70068359,-84.14871000
30.73120117,-81.62315000
30.76171875,-81.36383000
30.79223633,-83.09790000
30.82275391,-86.73415000
30.85327148,-91.75385000
30.88378906,-95.76642000
30.91430664,-94.05093000
30.94482422,-91.53583000
30.97534180,-93.72745000
31.00585938,-108.32860000
31.03637695,-94.93265000
31.06689453,-91.19239000
31.09741211,-89.09244000
31.12792969,-86.50226000
31.15844727,-84.26888000
31.18896484,-83.06550000
31.21948242,-83.06165000
31.25000000,-84.81742000
31.28051758,-89.35175000
31.31103516,-96.57233000
31.34155273,-105.33710000
31.37207031,-102.18800000
31.40258789,-93.47853000
31.43310547,-90.25430000
31.46362305,-89.43068000
31.49414063,-90.70969000
31.52465820,-94.17200000
31.55517578,-98.86750000
31.58569336,-98.81622000
31.61621094,-93.94265000
31.64672852,-91.30504000
31.67724609,-90.79042000
31.70776367,-87.73159000
31.73828125,-83.89754000
31.76879883,-81.66561000
31.79931641,-80.68821000
31.82983398,-80.63400000
31.86035156,-81.70432000
31.89086914,-84.50459000
31.92138672,-90.38564000
31.95190430,-100.03270000
31.98242188,-90.30273000
32.01293945,-86.87473000
32.04345703,-87.50609000
32.07397461,-94.23232000
32.10449219,-91.78513000
32.13500977,-84.80286000
32.16552734,-83.10109000
32.19604492,-84.40792000
32.22656250,-88.19785000
32.25708008,-91.67476000
32.28759766,-89.78102000
32.31811523,-88.72601000
32.34863281,-90.69373000
32.37915039,-95.27291000
32.40966797,-91.00365000
32.44018555,-87.23343000
32.47070313,-86.66039000
32.50122070,-87.06387000
32.53173828,-85.90913000
32.56225586,-84.74450000
32.59277344,-84.18398000
32.62329102,-82.95681000
32.65380859,-81.27896000
32.68432617,-80.47571000
32.71484375,-81.31818000
32.74536133,-83.90942000
32.77587891,-86.78519000
32.80639648,-87.97814000
32.83691406,-90.45215000
32.86743164,-95.36499000
32.89794922,-91.55206000
32.92846680,-90.23732000
32.95898438,-93.55547000
32.98950195,-93.69861000
33.02001953,-87.19875000
33.05053711,-85.38094000
33.08105469,-86.96040000
33.11157227,-90.09141000
33.14208984,-92.95526000
33.17260742,-95.36896000
33.20312500,-93.05594000
33.23364258,-87.95924000
33.26416016,-84.61043000
33.29467773,-83.38024000
33.32519531,-83.52930000
33.35571289,-84.70380000
33.38623047,-87.69537000
33.41674805,-89.00520000
33.44726563,-86.93362000
33.47778320,-88.39694000
33.50830078,-95.42761000
33.53881836,-91.68400000
33.56933594,-87.79431000
33.59985352,-87.86095000
33.63037109,-90.43349000
33.66088867,-93.16476000
33.69140625,-90.93678000
33.72192383,-86.65945000
33.75244141,-84.44748000
33.78295898,-85.39481000
33.81347656,-90.36536000
33.84399414,-98.93927000
33.87451172,-103.90910000
33.90502930,-100.20480000
33.93554688,-94.08981000
33.96606445,-93.95203000
33.99658203,-96.87308000
34.02709961,-97.69321000
34.05761719,-94.67327000
34.08813477,-92.08040000
34.11865234,-89.88519000
34.14916992,-88.40066000
34.17968750,-87.79672000
34.21020508,-87.96754000
34.24072266,-89.45016000
34.27124023,-93.99519000
34.30175781,-103.15380000
34.33227539,-94.25312000
34.36279297,-89.70134000
34.39331055,-89.42539000
34.42382813,-92.56814000
34.45434570,-93.62820000
34.48486328,-88.93116000
34.51538086,-86.48550000
34.54589844,-86.59456000
34.57641602,-88.29092000
34.60693359,-91.10077000
34.63745117,-94.12316000
34.66796875,-94.01053000
34.69848633,-93.85375000
34.72900391,-93.42231000
34.75952148,-90.27257000
34.79003906,-88.01346000
34.82055664,-86.82133000
34.85107422,-86.47958000
34.88159180,-87.57252000
34.91210938,-88.88251000
34.94262695,-90.24641000
34.97314453,-95.37160000
35.00366211,-92.86239000
35.03417969,-88.53157000
35.06469727,-88.54694000
35.09521484,-89.94137000
35.12573242,-91.47951000
35.15625000,-96.70804000
35.18676758,-122.05360000
35.21728516,-103.77770000
35.24780273,-99.17187000
35.27832031,-97.04230000
35.30883789,-95.29675000
35.33935547,-93.32129000
35.36987305,-93.81664000
35.40039063,-95.16978000
35.43090820,-91.71458000
35.46142578,-88.42039000
35.49194336,-87.32364000
35.52246094,-88.67881000
35.55297852,-94.12101000
35.58349609,-95.88570000
35.61401367,-90.31136000
35.64453125,-88.47206000
35.67504883,-88.57604000
35.70556641,-90.60711000
35.73608398,-94.80019000
35.76660156,-91.06072000
35.79711914,-85.58089000
35.82763672,-83.52243000
35.85815430,-83.69801000
35.88867188,-85.32996000
35.91918945,-88.59588000
35.94970703,-95.22701000
35.98022461,-110.87980000
36.01074219,-94.24706000
36.04125977,-89.46420000
36.07177734,-86.11435000
36.10229492,-84.34043000
36.13281250,-84.99385000
36.16333008,-87.93578000
36.19384766,-91.30533000
36.22436523,-95.02182000
36.25488281,-90.76750000
36.28540039,-84.72832000
36.31591797,-81.63564000
36.34643555,-80.64312000
36.37695313,-82.10127000
36.40747070,-87.25570000
36.43798828,-94.89791000
36.46850586,-91.74668000
36.49902344,-92.27843000
36.52954102,-94.00436000
36.56005859,-91.53294000
36.59057617,-88.81964000
36.62109375,-87.56093000
36.65161133,-87.53045000
36.68212891,-88.77654000
36.71264648,-91.71347000
36.74316406,-98.09663000
36.77368164,-101.95520000
36.80419922,-95.98931000
36.83471680,-98.35588000
36.86523438,-103.45610000
36.89575195,-95.63859000
36.92626953,-94.86617000
36.95678711,-105.75400000
36.98730469,-93.09597000
37.01782227,-86.12426000
37.04833984,-85.47700000
37.07885742,-92.16270000
37.10937500,-90.74631000
37.13989258,-84.03017000
37.17041016,-82.29099000
37.20092773,-81.98387000
37.23144531,-82.34323000
37.26196289,-84.16480000
37.29248047,-89.29336000
37.32299805,-102.17760000
37.35351563,-91.93996000
37.38403320,-89.56402000
37.41455078,-91.01014000
37.44506836,-92.21754000
37.47558594,-90.94277000
37.50610352,-93.01818000
37.53662109,-102.72320000
37.56713867,-101.96130000
37.59765625,-104.59740000
37.62817383,-90.37660000
37.65869141,-84.58305000
37.68920898,-82.17666000
37.71972656,-81.90575000
37.75024414,-83.68949000
37.78076172,-87.62860000
37.81127930,-91.58646000
37.84179688,-89.49454000
37.87231445,-86.53250000
37.90283203,-86.34113000
37.93334961,-89.92365000
37.96386719,-102.18280000
37.99438477,-93.91660000
38.02490234,-88.30956000
38.05541992,-86.70358000
38.08593750,-87.37270000
38.11645508,-88.15099000
38.14697266,-87.62330000
38.17749023,-88.58337000
38.20800781,-93.74564000
38.23852539,-106.98750000
38.26904297,-91.05693000
38.29956055,-86.60258000
38.33007813,-85.63496000
38.36059570,-86.34630000
38.39111328,-85.29489000
38.42163086,-82.82761000
38.45214844,-81.73306000
38.48266602,-83.21548000
38.51318359,-89.56532000
38.54370117,-99.76826000
38.57421875,-87.47463000
38.60473633,-84.91942000
38.63525391,-84.66495000
38.66577148,-85.53025000
38.69628906,-87.31850000
38.72680664,-89.84405000
38.75732422,-95.00159000
38.78784180,-99.07533000
38.81835938,-89.10767000
38.84887695,-87.78947000
38.87939453,-94.20435000
38.90991211,-93.63350000
38.94042969,-88.16098000
38.97094727,-90.52937000
39.00146484,-109.31270000
39.03198242,-93.05246000
39.06250000,-89.98914000
39.09301758,-90.14055000
39.12353516,-88.55031000
39.15405273,-84.07957000
39.18457031,-81.13099000
39.21508789,-80.66497000
39.24560547,-82.38679000
39.27612305,-85.66445000
39.30664063,-90.40346000
39.33715820,-99.06032000
39.36767578,-94.37268000
39.39819336,-88.87859000
39.42871094,-86.48391000
39.45922852,-85.74428000
39.48974609,-86.51079000
39.52026367,-87.73884000
39.55078125,-86.96664000
39.58129883,-85.88821000
39.61181641,-86.00597000
39.64233398,-86.77031000
39.67285156,-87.27311000
39.70336914,-87.31932000
39.73388672,-87.54955000
39.76440430,-88.67817000
39.79492188,-88.78331000
39.82543945,-85.57086000
39.85595703,-83.49651000
39.88647461,-84.47938000
39.91699219,-89.73792000
39.94750977,-105.62330000
39.97802734,-100.66480000
40.00854492,-90.69594000
40.03906250,-84.99615000
40.06958008,-82.90990000
40.10009766,-83.56880000
40.13061523,-86.61986000
40.16113281,-91.29414000
40.19165039,-94.08228000
40.22216797,-96.70891000
40.25268555,-97.93733000
40.28320313,-94.77921000
40.31372070,-96.88058000
40.34423828,-106.48600000
40.37475586,-103.62310000
40.40527344,-110.40930000
40.43579102,-98.26458000
40.46630859,-91.76881000
40.49682617,-89.71581000
40.52734375,-90.51317000
40.55786133,-95.10673000
40.58837891,-100.63450000
40.61889648,-88.55979000
40.64941406,-83.55983000
40.67993164,-81.35403000
40.71044922,-80.78185000
40.74096680,-81.31270000
40.77148438,-82.55461000
40.80200195,-84.08511000
40.83251953,-85.75298000
40.86303711,-87.53952000
40.89355469,-88.20065000
40.92407227,-87.34483000
40.95458984,-86.25821000
40.98510742,-85.40715000
41.01562500,-85.52007000
41.04614258,-87.05824000
41.07666016,-90.28106000
41.10717773,-93.90994000
41.13769531,-93.09621000
41.16821289,-90.59633000
41.19873047,-90.39287000
41.22924805,-93.43398000
41.25976563,-95.02258000
41.29028320,-95.83177000
41.32080078,-94.85136000
41.35131836,-89.93788000
41.38183594,-87.86124000
41.41235352,-87.54480000
41.44287109,-89.00612000
41.47338867,-90.43518000
41.50390625,-90.17574000
41.53442383,-88.86462000
41.56494141,-86.46864000
41.59545898,-85.35308000
41.62597656,-85.26903000
41.65649414,-85.63976000
41.68701172,-87.47105000
41.71752930,-91.88557000
41.74804688,-90.49271000
41.77856445,-84.79053000
41.80908203,-81.99593000
41.83959961,-81.87290000
41.87011719,-84.90956000
41.90063477,-90.36846000
41.93115234,-88.42156000
41.96166992,-87.42133000
41.99218750,-87.23171000
42.02270508,-84.88427000
42.05322266,-82.80541000
42.08374023,-81.91105000
42.11425781,-82.53143000
42.14477539,-85.39580000
42.17529297,-91.46124000
42.20581055,-100.76950000
42.23632813,-97.79597000
42.26684570,-86.34280000
42.29736328,-81.38744000
42.32788086,-80.36502000
42.35839844,-82.97738000
42.38891602,-89.23360000
42.41943359,-97.62059000
42.44995117,-87.51135000
42.48046875,-82.00676000
42.51098633,-80.93258000
42.54150391,-82.35257000
42.57202148,-84.54372000
42.60253906,-87.22321000
42.63305664,-92.03815000
42.66357422,-92.13341000
42.69409180,-86.85303000
42.72460938,-85.46680000
42.75512695,-87.15561000
42.78564453,-91.16708000
42.81616211,-95.74939000
42.84667969,-99.13888000
42.87719727,-100.00050000
42.90771484,-94.66928000
42.93823242,-88.37525000
42.96875000,-84.27560000
42.99926758,-82.40055000
43.02978516,-82.46311000
43.06030273,-84.47632000
43.09082031,-88.57314000
43.12133789,-90.85979000
43.15185547,-88.74719000
43.18237305,-89.83002000
43.21289063,-97.24812000
43.24340820,-93.89385000
43.27392578,-89.06033000
43.30444336,-88.30258000
43.33496094,-89.02378000
43.36547852,-89.46136000
43.39599609,-89.02894000
43.42651367,-87.28444000
43.45703125,-84.76212000
43.48754883,-82.87183000
43.51806641,-82.44673000
43.54858398,-83.75920000
43.57910156,-86.34178000
43.60961914,-87.98073000
43.64013672,-86.78688000
43.67065430,-84.96507000
43.70117188,-84.63848000
43.73168945,-86.98836000
43.76220703,-91.01756000
43.79272461,-89.00397000
43.82324219,-87.61469000
43.85375977,-89.20583000
43.88427734,-92.55547000
43.91479492,-96.03888000
43.94531250,-106.13660000
43.97583008,-95.21329000
44.00634766,-89.55482000
44.03686523,-90.53500000
44.06738281,-99.10392000
44.09790039,-96.08214000
44.12841797,-95.00001000
44.15893555,-98.07289000
44.18945313,-94.59892000
44.21997070,-90.29012000
44.25048828,-86.62286000
44.28100586,-85.14758000
44.31152344,-85.75356000
44.34204102,-87.07310000
44.37255859,-87.21348000
44.40307617,-85.52138000
44.43359375,-83.92751000
44.46411133,-83.24319000
44.49462891,-83.24120000
44.52514648,-84.55544000
44.55566406,-88.74596000
44.58618164,-97.73167000
44.61669922,-91.19412000
44.64721680,-87.77612000
44.67773438,-88.54649000
44.70825195,-93.74596000
44.73876953,-114.73900000
44.76928711,-92.37518000
44.79980469,-87.71014000
44.83032227,-87.18304000
44.86083984,-87.07043000
44.89135742,-84.93514000
44.92187500,-84.51112000
44.95239258,-87.88547000
44.98291016,-98.11391000
45.01342773,-90.45290000
45.04394531,-87.49572000
45.07446289,-89.90447000
45.10498047,-100.48080000
45.13549805,-99.24113000
45.16601563,-91.93475000
45.19653320,-88.23965000
45.22705078,-85.65280000
45.25756836,-84.69566000
45.28808594,-85.99178000
45.31860352,-90.04776000
45.34912109,-97.98833000
45.37963867,-112.52950000
45.41015625,-98.77174000
45.44067383,-93.09624000
45.47119141,-89.87340000
45.50170898,-88.64231000
45.53222656,-88.01666000
45.56274414,-85.70648000
45.59326172,-82.95329000
45.62377930,-81.40473000
45.65429688,-81.37124000
45.68481445,-82.98996000
45.71533203,-86.57576000
45.74584961,-91.95990000
45.77636719,-97.38537000
45.80688477,-100.61980000
45.83740234,-92.27959000
45.86791992,-85.64968000
45.89843750,-81.78704000
45.92895508,-80.49492000
45.95947266,-81.57264000
45.98999023,-84.47094000
46.02050781,-86.94824000
46.05102539,-87.77098000
46.08154297,-90.20982000
46.11206055,-96.26685000
46.14257813,-107.38580000
46.17309570,-98.02171000
46.20361328,-93.81412000
46.23413086,-94.26270000
46.26464844,-96.58569000
46.29516602,-100.16830000
46.32568359,-101.00660000
46.35620117,-96.79179000
46.38671875,-95.24841000
46.41723633,-91.16881000
46.44775391,-89.96933000
46.47827148,-95.08430000
46.50878906,-106.99730000
46.53930664,-93.95911000
46.56982422,-90.46667000
46.60034180,-88.03105000
46.63085938,-86.96036000
46.66137695,-88.42052000
46.69189453,-89.62669000
46.72241211,-87.99377000
46.75292969,-88.67958000
46.78344727,-91.77283000
46.81396484,-95.66849000
46.84448242,-90.49490000
46.87500000,-86.95892000
46.90551758,-88.98518000
46.93603516,-95.48259000
46.96655273,-86.04842000
46.99707031,-83.75966000
47.02758789,-86.97113000
47.05810547,-97.73499000
47.08862305,-92.01623000
47.11914063,-89.78967000
47.14965820,-90.62039000
47.18017578,-92.27151000
47.21069336,-98.49539000
47.24121094,-94.45226000
47.27172852,-87.79814000
47.30224609,-85.72469000
47.33276367,-85.63139000
47.36328125,-87.30453000
47.39379883,-93.03168000
47.42431641,-104.01780000
47.45483398,-89.88106000
47.48535156,-86.88406000
47.51586914,-87.62062000
47.54638672,-90.31995000
47.57690430,-87.46658000
47.60742188,-84.15375000
47.63793945,-83.70375000
47.66845703,-85.54473000
47.69897461,-87.85743000
47.72949219,-87.71252000
47.76000977,-86.15478000
47.79052734,-86.32844000
47.82104492,-90.69769000
47.85156250,-94.49542000
47.88208008,-87.88880000
47.91259766,-86.36749000
47.94311523,-87.08073000
47.97363281,-87.22154000
48.00415039,-85.86242000
48.03466797,-84.03556000
48.06518555,-82.98844000
48.09570313,-83.56300000
48.12622070,-86.09116000
48.15673828,-87.87842000
48.18725586,-88.31070000
48.21777344,-91.08435000
48.24829102,-88.47889000
48.27880859,-86.59433000
48.30932617,-88.65365000
48.33984375,-92.94943000
48.37036133,-92.47659000
48.40087891,-89.09891000
48.43139648,-88.03340000
48.46191406,-89.06247000
48.49243164,-87.91671000
48.52294922,-85.78233000
48.55346680,-84.59709000
48.58398438,-84.05231000
48.61450195,-85.21553000
48.64501953,-84.75264000
48.67553711,-80.84881000
48.70605469,-79.28918000
48.73657227,-80.97192000
48.76708984,-86.75884000
48.79760742,-100.76380000
48.82812500,-93.90495000
48.85864258,-90.13467000
48.88916016,-88.11891000
48.91967773,-87.09154000
48.95019531,-86.69117000
48.98071289,-87.67236000
49.01123047,-92.14261000
49.04174805,-104.28610000
49.07226563,-89.09751000
49.10278320,-84.81009000
49.13330078,-83.47836000
49.16381836,-83.34668000
49.19433594,-83.91235000
49.22485352,-85.68930000
49.25537109,-90.04893000
49.28588867,-102.30960000
49.31640625,-100.35030000
49.34692383,-96.23757000
49.37744141,-95.79186000
49.40795898,-93.37204000
49.43847656,-90.13017000
49.46899414,-88.46262000
49.49951172,-88.15565000
49.53002930,-88.60127000
49.56054688,-91.15372000
49.59106445,-92.48366000
49.62158203,-86.41784000
49.65209961,-83.62512000
49.68261719,-84.00013000
49.71313477,-86.23367000
49.74365234,-87.24621000
49.77416992,-85.73894000
49.80468750,-85.27303000
49.83520508,-88.29681000
49.86572266,-94.92844000
49.89624023,-92.95750000
49.92675781,-94.19431000
49.95727539,-101.16520000
49.98779297,-93.63893000
50.01831055,-91.45181000
