Frequency,Channel A
(MHz),(dBu)

0.00000000,-11.55887000
0.03051758,-11.93779000
0.06103516,-17.17273000
0.09155273,-27.05856000
0.12207031,-44.50473000
0.15258789,-59.89169000
0.18310547,-55.57273000
0.21362305,-58.71714000
0.24414063,-63.97983000
0.27465820,-65.87682000
0.30517578,-63.49623000
0.33569336,-72.41441000
0.36621094,-57.51311000
0.39672852,-51.48647000
0.42724609,-50.22194000
0.45776367,-51.82926000
0.48828125,-54.22008000
0.51879883,-57.12363000
0.54931641,-50.94136000
0.57983398,-46.53893000
0.61035156,-44.53414000
0.64086914,-43.35726000
0.67138672,-42.63023000
0.70190430,-43.03952000
0.73242188,-45.56015000
0.76293945,-51.02143000
0.79345703,-60.30512000
0.82397461,-72.20020000
0.85449219,-69.32292000
0.88500977,-62.69384000
0.91552734,-58.78595000
0.94604492,-57.25724000
0.97656250,-58.44139000
1.00708008,-58.97064000
1.03759766,-56.36259000
1.06811523,-55.77813000
1.09863281,-57.94129000
1.12915039,-62.81095000
1.15966797,-70.45396000
1.19018555,-85.06197000
1.22070313,-62.83766000
1.25122070,-56.35229000
1.28173828,-54.65897000
1.31225586,-56.62049000
1.34277344,-59.49725000
1.37329102,-59.16711000
1.40380859,-60.13373000
1.43432617,-64.90882000
1.46484375,-84.67778000
1.49536133,-63.71254000
1.52587891,-60.99198000
1.55639648,-61.42817000
1.58691406,-57.69333000
1.61743164,-54.09279000
1.64794922,-53.00474000
1.67846680,-53.14114000
1.70898438,-52.50566000
1.73950195,-51.99845000
1.77001953,-53.50807000
1.80053711,-57.68878000
1.83105469,-61.60714000
1.86157227,-60.75657000
1.89208984,-60.63063000
1.92260742,-62.78188000
1.95312500,-68.46680000
1.98364258,-67.19592000
2.01416016,-64.97694000
2.04467773,-69.00392000
2.07519531,-88.37045000
2.10571289,-72.38718000
2.13623047,-69.23524000
2.16674805,-67.15302000
2.19726563,-67.17368000
2.22778320,-71.75679000
2.25830078,-84.00330000
2.28881836,-78.44967000
2.31933594,-82.16571000
2.34985352,-66.50737000
2.38037109,-62.28401000
2.41088867,-63.09421000
2.44140625,-70.83722000
2.47192383,-72.37701000
2.50244141,-67.95047000
2.53295898,-75.66461000
2.56347656,-72.01820000
2.59399414,-69.06757000
2.62451172,-78.75012000
2.65502930,-73.17375000
2.68554688,-68.02701000
2.71606445,-67.01226000
2.74658203,-71.15988000
2.77709961,-80.14644000
2.80761719,-69.80323000
2.83813477,-72.19543000
2.86865234,-72.69759000
2.89916992,-68.35954000
2.92968750,-69.03151000
2.96020508,-72.74641000
2.99072266,-72.38934000
3.02124023,-69.37527000
3.05175781,-74.83537000
3.08227539,-72.12237000
3.11279297,-64.13079000
3.14331055,-63.91797000
3.17382813,-69.01225000
3.20434570,-78.89775000
3.23486328,-70.73473000
3.26538086,-65.37994000
3.29589844,-65.04820000
3.32641602,-68.56381000
3.35693359,-69.16090000
3.38745117,-70.84884000
3.41796875,-82.91978000
3.44848633,-71.23940000
3.47900391,-66.97242000
3.50952148,-66.57908000
3.54003906,-70.82430000
3.57055664,-66.64819000
3.60107422,-62.45122000
3.63159180,-63.05705000
3.66210938,-68.43720000
3.69262695,-71.99459000
3.72314453,-66.20732000
3.75366211,-65.94102000
3.78417969,-65.82423000
3.81469727,-62.07345000
3.84521484,-62.87014000
3.87573242,-73.33031000
3.90625000,-66.79296000
3.93676758,-64.98690000
3.96728516,-70.56892000
3.99780273,-71.71550000
4.02832031,-65.27539000
4.05883789,-62.14670000
4.08935547,-63.56438000
4.11987305,-69.15645000
4.15039063,-65.17171000
4.18090820,-64.35440000
4.21142578,-65.55826000
4.24194336,-63.69438000
4.27246094,-64.13194000
4.30297852,-65.08172000
4.33349609,-64.40131000
4.36401367,-64.91636000
4.39453125,-64.19601000
4.42504883,-63.92059000
4.45556641,-63.31450000
4.48608398,-62.55730000
4.51660156,-64.78903000
4.54711914,-66.64807000
4.57763672,-65.74751000
4.60815430,-67.62185000
4.63867188,-71.22027000
4.66918945,-86.59565000
4.69970703,-70.68243000
4.73022461,-67.14450000
4.76074219,-72.04720000
4.79125977,-72.43832000
4.82177734,-68.22849000
4.85229492,-67.88098000
4.88281250,-65.88651000
4.91333008,-68.10390000
4.94384766,-88.42911000
4.97436523,-68.41090000
5.00488281,-66.72956000
5.03540039,-68.89167000
5.06591797,-70.86709000
5.09643555,-69.92402000
5.12695313,-66.65524000
5.15747070,-65.87069000
5.18798828,-67.26625000
5.21850586,-69.10272000
5.24902344,-75.77470000
5.27954102,-75.47861000
5.31005859,-68.59428000
5.34057617,-69.96226000
5.37109375,-77.08269000
5.40161133,-78.07028000
5.43212891,-71.92414000
5.46264648,-67.37576000
5.49316406,-66.87115000
5.52368164,-69.32173000
5.55419922,-70.53376000
5.58471680,-70.45026000
5.61523438,-69.38889000
5.64575195,-67.56469000
5.67626953,-69.92646000
5.70678711,-72.47499000
5.73730469,-65.52468000
5.76782227,-63.66348000
5.79833984,-63.54471000
5.82885742,-63.94624000
5.85937500,-65.63594000
5.88989258,-63.02163000
5.92041016,-61.50303000
5.95092773,-62.88860000
5.98144531,-62.30213000
6.01196289,-62.14365000
6.04248047,-64.66250000
6.07299805,-64.90855000
6.10351563,-64.78950000
6.13403320,-65.47723000
6.16455078,-66.54123000
6.19506836,-67.11109000
6.22558594,-64.18387000
6.25610352,-64.44251000
6.28662109,-65.86523000
6.31713867,-64.82619000
6.34765625,-67.88536000
6.37817383,-72.12441000
6.40869141,-68.17743000
6.43920898,-69.91714000
6.46972656,-70.89681000
6.50024414,-71.84469000
6.53076172,-77.17783000
6.56127930,-75.62750000
6.59179688,-77.39864000
6.62231445,-72.58731000
6.65283203,-72.20394000
6.68334961,-80.85045000
6.71386719,-86.90823000
6.74438477,-84.65036000
6.77490234,-77.17365000
6.80541992,-75.17046000
6.83593750,-78.64671000
6.86645508,-76.54662000
6.89697266,-75.32208000
6.92749023,-77.52700000
6.95800781,-79.40782000
6.98852539,-83.98137000
7.01904297,-103.34400000
7.04956055,-91.06410000
7.08007813,-85.06754000
7.11059570,-81.79935000
7.14111328,-87.39570000
7.17163086,-87.42386000
7.20214844,-83.38238000
7.23266602,-94.42138000
7.26318359,-81.68571000
7.29370117,-80.00447000
7.32421875,-84.24028000
7.35473633,-84.60081000
7.38525391,-90.68866000
7.41577148,-82.02407000
7.44628906,-77.80509000
7.47680664,-80.26750000
7.50732422,-90.75528000
7.53784180,-85.00508000
7.56835938,-78.55136000
7.59887695,-76.75526000
7.62939453,-78.63422000
7.65991211,-80.68481000
7.69042969,-81.14104000
7.72094727,-82.42307000
7.75146484,-82.34841000
7.78198242,-83.69498000
7.81250000,-84.72887000
7.84301758,-83.13369000
7.87353516,-77.32331000
7.90405273,-74.17918000
7.93457031,-75.33645000
7.96508789,-83.40343000
7.99560547,-84.01607000
8.02612305,-75.36700000
8.05664063,-73.30917000
8.08715820,-74.85327000
8.11767578,-77.26466000
8.14819336,-77.80145000
8.17871094,-81.56440000
8.20922852,-85.87552000
8.23974609,-87.53075000
8.27026367,-90.25791000
8.30078125,-81.59112000
8.33129883,-79.96030000
8.36181641,-78.50602000
8.39233398,-79.94450000
8.42285156,-93.28846000
8.45336914,-76.79377000
8.48388672,-73.88432000
8.51440430,-77.12443000
8.54492188,-85.71120000
8.57543945,-79.49423000
8.60595703,-80.39284000
8.63647461,-86.34795000
8.66699219,-80.99364000
8.69750977,-80.67047000
8.72802734,-93.68767000
8.75854492,-82.06374000
8.78906250,-77.64332000
8.81958008,-79.38875000
8.85009766,-83.55432000
8.88061523,-82.13493000
8.91113281,-84.09100000
8.94165039,-92.78700000
8.97216797,-84.57126000
9.00268555,-84.10158000
9.03320313,-88.36549000
9.06372070,-88.15105000
9.09423828,-94.13176000
9.12475586,-90.03159000
9.15527344,-85.46976000
9.18579102,-86.10287000
9.21630859,-87.03711000
9.24682617,-92.40910000
9.27734375,-84.46716000
9.30786133,-80.74968000
9.33837891,-82.11655000
9.36889648,-81.81566000
9.39941406,-78.93928000
9.42993164,-79.23556000
9.46044922,-83.48753000
9.49096680,-81.63697000
9.52148438,-76.49232000
9.55200195,-75.36497000
9.58251953,-77.38677000
9.61303711,-80.48369000
9.64355469,-81.77107000
9.67407227,-82.26902000
9.70458984,-81.21261000
9.73510742,-80.47874000
9.76562500,-81.01833000
9.79614258,-84.58458000
9.82666016,-91.14427000
9.85717773,-80.45255000
9.88769531,-76.79668000
9.91821289,-76.96841000
9.94873047,-78.87614000
9.97924805,-78.83670000
10.00976563,-79.81826000
10.04028320,-80.56782000
10.07080078,-78.15749000
10.10131836,-79.42628000
10.13183594,-85.85064000
10.16235352,-85.62904000
10.19287109,-80.70486000
10.22338867,-77.91096000
10.25390625,-79.83162000
10.28442383,-83.00555000
10.31494141,-77.20265000
10.34545898,-75.04557000
10.37597656,-75.25353000
10.40649414,-77.62810000
10.43701172,-84.32571000
10.46752930,-100.07570000
10.49804688,-88.69007000
10.52856445,-77.26264000
10.55908203,-73.83562000
10.58959961,-74.99068000
10.62011719,-74.94978000
10.65063477,-73.07424000
10.68115234,-75.11572000
10.71166992,-81.87172000
10.74218750,-80.40276000
10.77270508,-75.40566000
10.80322266,-73.50679000
10.83374023,-74.61914000
10.86425781,-78.10619000
10.89477539,-81.92745000
10.92529297,-85.88231000
10.95581055,-93.22993000
10.98632813,-78.32759000
11.01684570,-74.48586000
11.04736328,-76.71614000
11.07788086,-84.14835000
11.10839844,-76.29907000
11.13891602,-74.55480000
11.16943359,-76.58401000
11.19995117,-79.36848000
11.23046875,-79.83160000
11.26098633,-79.56818000
11.29150391,-82.25336000
11.32202148,-88.34637000
11.35253906,-85.12631000
11.38305664,-84.77220000
11.41357422,-85.87529000
11.44409180,-83.85262000
11.47460938,-80.96257000
11.50512695,-79.41470000
11.53564453,-78.93907000
11.56616211,-79.37501000
11.59667969,-80.88142000
11.62719727,-80.61840000
11.65771484,-81.84539000
11.68823242,-86.43907000
11.71875000,-101.37200000
11.74926758,-81.64604000
11.77978516,-77.66467000
11.81030273,-77.78987000
11.84082031,-79.37280000
11.87133789,-84.43027000
11.90185547,-88.58147000
11.93237305,-80.18708000
11.96289063,-81.58241000
11.99340820,-88.54431000
12.02392578,-82.74570000
12.05444336,-79.36038000
12.08496094,-76.93461000
12.11547852,-76.31606000
12.14599609,-76.77726000
12.17651367,-78.12200000
12.20703125,-80.67839000
12.23754883,-76.51931000
12.26806641,-73.90430000
12.29858398,-75.56641000
12.32910156,-83.59463000
12.35961914,-88.74406000
12.39013672,-83.62326000
12.42065430,-92.96284000
12.45117188,-82.63306000
12.48168945,-78.97379000
12.51220703,-80.65025000
12.54272461,-83.67131000
12.57324219,-79.58106000
12.60375977,-75.34627000
12.63427734,-74.11008000
12.66479492,-76.23206000
12.69531250,-82.33479000
12.72583008,-89.98959000
12.75634766,-86.80147000
12.78686523,-82.93166000
12.81738281,-81.86630000
12.84790039,-79.94286000
12.87841797,-77.32083000
12.90893555,-76.13251000
12.93945313,-76.69804000
12.96997070,-79.28885000
13.00048828,-85.20422000
13.03100586,-91.28461000
13.06152344,-83.13129000
13.09204102,-81.20891000
13.12255859,-81.62032000
13.15307617,-81.22306000
13.18359375,-81.58907000
13.21411133,-84.39978000
13.24462891,-88.73436000
13.27514648,-88.38716000
13.30566406,-85.21446000
13.33618164,-83.94388000
13.36669922,-84.71756000
13.39721680,-86.16525000
13.42773438,-88.16267000
13.45825195,-88.30200000
13.48876953,-73.35580000
13.51928711,-66.38683000
13.54980469,-63.73849000
13.58032227,-64.92757000
13.61083984,-71.09323000
13.64135742,-86.78555000
13.67187500,-75.61261000
13.70239258,-73.31470000
13.73291016,-71.72615000
13.76342773,-70.99611000
13.79394531,-71.84998000
13.82446289,-74.30789000
13.85498047,-78.70233000
13.88549805,-86.66009000
13.91601563,-81.69389000
13.94653320,-77.62464000
13.97705078,-77.85578000
14.00756836,-81.81337000
14.03808594,-88.72955000
14.06860352,-92.44666000
14.09912109,-95.86842000
14.12963867,-89.80904000
14.16015625,-87.55596000
14.19067383,-87.01447000
14.22119141,-84.33379000
14.25170898,-81.70930000
14.28222656,-83.84362000
14.31274414,-92.84280000
14.34326172,-84.87044000
14.37377930,-82.01440000
14.40429688,-81.66909000
14.43481445,-83.65299000
14.46533203,-89.96078000
14.49584961,-97.93732000
14.52636719,-90.46624000
14.55688477,-84.26487000
14.58740234,-83.52473000
14.61791992,-86.88592000
14.64843750,-86.24279000
14.67895508,-84.72572000
14.70947266,-85.33660000
14.73999023,-84.85599000
14.77050781,-81.54873000
14.80102539,-78.80882000
14.83154297,-77.91389000
14.86206055,-78.49632000
14.89257813,-81.09561000
14.92309570,-87.86971000
14.95361328,-94.00887000
14.98413086,-88.98330000
15.01464844,-88.35243000
15.04516602,-87.95854000
15.07568359,-86.14289000
15.10620117,-82.83771000
15.13671875,-80.49638000
15.16723633,-81.51760000
15.19775391,-82.62213000
15.22827148,-77.99948000
15.25878906,-76.87064000
15.28930664,-80.23987000
15.31982422,-86.79143000
15.35034180,-89.57925000
15.38085938,-99.38344000
15.41137695,-89.94816000
15.44189453,-87.14972000
15.47241211,-86.02571000
15.50292969,-83.22894000
15.53344727,-81.57652000
15.56396484,-81.90933000
15.59448242,-84.30770000
15.62500000,-90.48807000
15.65551758,-94.00089000
15.68603516,-83.07561000
15.71655273,-80.53886000
15.74707031,-83.80406000
15.77758789,-95.34184000
15.80810547,-83.81596000
15.83862305,-83.13209000
15.86914063,-85.04797000
15.89965820,-83.11946000
15.93017578,-83.72086000
15.96069336,-88.15611000
15.99121094,-92.39318000
16.02172852,-92.74288000
16.05224609,-93.50007000
16.08276367,-90.23421000
16.11328125,-86.88509000
16.14379883,-86.35101000
16.17431641,-87.40932000
16.20483398,-92.07301000
16.23535156,-100.67600000
16.26586914,-87.18953000
16.29638672,-84.20874000
16.32690430,-84.96303000
16.35742188,-88.45302000
16.38793945,-85.21138000
16.41845703,-81.00455000
16.44897461,-80.35011000
16.47949219,-82.58522000
16.51000977,-85.37720000
16.54052734,-84.52087000
16.57104492,-82.39773000
16.60156250,-80.57977000
16.63208008,-79.20818000
16.66259766,-78.40188000
16.69311523,-78.71858000
16.72363281,-80.87098000
16.75415039,-85.56514000
16.78466797,-89.71899000
16.81518555,-86.81407000
16.84570313,-86.15318000
16.87622070,-88.94592000
16.90673828,-92.70235000
16.93725586,-88.46075000
16.96777344,-84.50173000
16.99829102,-82.37069000
17.02880859,-81.12433000
17.05932617,-80.46957000
17.08984375,-80.86165000
17.12036133,-82.89666000
17.15087891,-84.76195000
17.18139648,-82.91818000
17.21191406,-82.44658000
17.24243164,-86.15137000
17.27294922,-92.16172000
17.30346680,-85.27579000
17.33398438,-82.65206000
17.36450195,-83.02858000
17.39501953,-83.41486000
17.42553711,-81.51155000
17.45605469,-80.72125000
17.48657227,-82.19843000
17.51708984,-85.23782000
17.54760742,-88.96568000
17.57812500,-96.35623000
17.60864258,-91.83043000
17.63916016,-85.01268000
17.66967773,-77.98024000
17.70019531,-72.33784000
17.73071289,-70.31501000
17.76123047,-71.91357000
17.79174805,-74.46856000
17.82226563,-73.55649000
17.85278320,-74.67088000
17.88330078,-79.76012000
17.91381836,-89.28529000
17.94433594,-100.50760000
17.97485352,-108.27390000
18.00537109,-98.88866000
18.03588867,-93.26091000
18.06640625,-88.93230000
18.09692383,-86.37674000
18.12744141,-84.71901000
18.15795898,-83.22265000
18.18847656,-81.11713000
18.21899414,-79.24046000
18.24951172,-79.04383000
18.28002930,-80.94247000
18.31054688,-84.73522000
18.34106445,-88.89621000
18.37158203,-89.07222000
18.40209961,-87.75890000
18.43261719,-86.97541000
18.46313477,-86.44881000
18.49365234,-87.49291000
18.52416992,-91.32930000
18.55468750,-98.92815000
18.58520508,-101.88540000
18.61572266,-92.00078000
18.64624023,-88.27686000
18.67675781,-87.00403000
18.70727539,-86.95267000
18.73779297,-89.86836000
18.76831055,-102.49010000
18.79882813,-91.42783000
18.82934570,-87.65477000
18.85986328,-87.59805000
18.89038086,-87.89034000
18.92089844,-89.30312000
18.95141602,-92.50098000
18.98193359,-89.94937000
19.01245117,-87.92683000
19.04296875,-88.95963000
19.07348633,-93.23508000
19.10400391,-98.59085000
19.13452148,-91.23252000
19.16503906,-86.72670000
19.19555664,-85.34484000
19.22607422,-86.24930000
19.25659180,-89.81009000
19.28710938,-95.97744000
19.31762695,-92.28189000
19.34814453,-88.66222000
19.37866211,-86.51781000
19.40917969,-85.38367000
19.43969727,-85.64497000
19.47021484,-85.89543000
19.50073242,-84.59229000
19.53125000,-85.16274000
19.56176758,-89.17306000
19.59228516,-93.38614000
19.62280273,-93.65533000
19.65332031,-95.89648000
19.68383789,-106.43090000
19.71435547,-96.38261000
19.74487305,-94.92470000
19.77539063,-92.08476000
19.80590820,-88.57361000
19.83642578,-89.07397000
19.86694336,-94.25409000
19.89746094,-88.98512000
19.92797852,-82.81821000
19.95849609,-79.92644000
19.98901367,-79.00926000
20.01953125,-79.71571000
20.05004883,-82.15343000
20.08056641,-86.09593000
20.11108398,-89.94714000
20.14160156,-97.18873000
20.17211914,-96.91020000
20.20263672,-87.65224000
20.23315430,-84.73471000
20.26367188,-84.10408000
20.29418945,-85.12346000
20.32470703,-88.12038000
20.35522461,-89.24583000
20.38574219,-84.12715000
20.41625977,-81.10813000
20.44677734,-80.32955000
20.47729492,-81.02983000
20.50781250,-83.45169000
20.53833008,-89.57917000
20.56884766,-89.77814000
20.59936523,-85.01862000
20.62988281,-84.74640000
20.66040039,-86.98356000
20.69091797,-89.40187000
20.72143555,-89.29768000
20.75195313,-89.06857000
20.78247070,-91.18173000
20.81298828,-89.71813000
20.84350586,-85.17957000
20.87402344,-83.57317000
20.90454102,-83.91196000
20.93505859,-84.59012000
20.96557617,-85.29553000
20.99609375,-86.42516000
21.02661133,-88.36968000
21.05712891,-90.42455000
21.08764648,-86.39027000
21.11816406,-83.58095000
21.14868164,-83.93091000
21.17919922,-85.79793000
21.20971680,-87.59948000
21.24023438,-89.94884000
21.27075195,-90.82176000
21.30126953,-88.14053000
21.33178711,-86.54376000
21.36230469,-91.15494000
21.39282227,-95.06502000
21.42333984,-85.91553000
21.45385742,-88.28258000
21.48437500,-93.43422000
21.51489258,-84.06427000
21.54541016,-82.86088000
21.57592773,-85.76352000
21.60644531,-86.48194000
21.63696289,-82.87328000
21.66748047,-81.02550000
21.69799805,-80.66822000
21.72851563,-81.78262000
21.75903320,-84.53182000
21.78955078,-84.36622000
21.82006836,-81.35257000
21.85058594,-80.73038000
21.88110352,-83.37170000
21.91162109,-91.26143000
21.94213867,-87.47138000
21.97265625,-82.58647000
22.00317383,-82.29287000
22.03369141,-85.16286000
22.06420898,-90.20125000
22.09472656,-94.58999000
22.12524414,-96.68827000
22.15576172,-97.91345000
22.18627930,-96.56940000
22.21679688,-92.81763000
22.24731445,-89.92226000
22.27783203,-88.77380000
22.30834961,-88.74313000
22.33886719,-87.40092000
22.36938477,-86.17477000
22.39990234,-86.60667000
22.43041992,-87.88246000
22.46093750,-89.77020000
22.49145508,-91.03992000
22.52197266,-90.11893000
22.55249023,-88.63387000
22.58300781,-87.53601000
22.61352539,-86.73235000
22.64404297,-86.38978000
22.67456055,-84.86454000
22.70507813,-82.62717000
22.73559570,-82.44709000
22.76611328,-84.95432000
22.79663086,-90.11361000
22.82714844,-97.40147000
22.85766602,-94.24991000
22.88818359,-88.42254000
22.91870117,-85.47901000
22.94921875,-85.43915000
22.97973633,-88.93752000
23.01025391,-93.47850000
23.04077148,-92.09022000
23.07128906,-93.38356000
23.10180664,-91.13918000
23.13232422,-88.41443000
23.16284180,-88.97836000
23.19335938,-92.07323000
23.22387695,-88.85785000
23.25439453,-84.10533000
23.28491211,-82.89639000
23.31542969,-84.99767000
23.34594727,-89.01218000
23.37646484,-91.94454000
23.40698242,-95.60688000
23.43750000,-88.56796000
23.46801758,-83.92737000
23.49853516,-82.73507000
23.52905273,-83.97187000
23.55957031,-87.07367000
23.59008789,-91.24207000
23.62060547,-93.80742000
23.65112305,-92.98641000
23.68164063,-89.54745000
23.71215820,-86.98134000
23.74267578,-86.29913000
23.77319336,-86.25263000
23.80371094,-86.08202000
23.83422852,-85.36261000
23.86474609,-83.09128000
23.89526367,-81.46760000
23.92578125,-82.13188000
23.95629883,-85.54715000
23.98681641,-90.43622000
24.01733398,-91.21177000
24.04785156,-93.61729000
24.07836914,-103.61920000
24.10888672,-95.25307000
24.13940430,-94.04514000
24.16992188,-95.41787000
24.20043945,-92.23286000
24.23095703,-90.03448000
24.26147461,-90.22110000
24.29199219,-91.60461000
24.32250977,-93.51990000
24.35302734,-92.53618000
24.38354492,-89.80760000
24.41406250,-91.58357000
24.44458008,-101.31680000
24.47509766,-103.33180000
24.50561523,-97.88503000
24.53613281,-95.87643000
24.56665039,-97.97366000
24.59716797,-102.09860000
24.62768555,-97.23830000
24.65820313,-90.43106000
24.68872070,-88.41507000
24.71923828,-92.21831000
24.74975586,-98.56091000
24.78027344,-92.91705000
24.81079102,-92.67615000
24.84130859,-96.44362000
24.87182617,-91.13271000
24.90234375,-84.53700000
24.93286133,-82.45541000
24.96337891,-83.59132000
24.99389648,-87.61107000
25.02441406,-93.61489000
25.05493164,-98.72456000
25.08544922,-99.01512000
25.11596680,-97.48413000
25.14648438,-95.28206000
25.17700195,-90.82976000
25.20751953,-90.83621000
25.23803711,-94.18939000
25.26855469,-92.39632000
25.29907227,-92.93489000
25.32958984,-99.09622000
25.36010742,-88.54855000
25.39062500,-84.31050000
25.42114258,-84.56941000
25.45166016,-90.19144000
25.48217773,-102.85340000
25.51269531,-93.38649000
25.54321289,-91.66234000
25.57373047,-90.89935000
25.60424805,-91.06538000
25.63476563,-89.20695000
25.66528320,-86.93085000
25.69580078,-86.05119000
25.72631836,-86.69986000
25.75683594,-87.95905000
25.78735352,-87.72900000
25.81787109,-87.07399000
25.84838867,-85.83302000
25.87890625,-84.56006000
25.90942383,-85.06039000
25.93994141,-86.96056000
25.97045898,-89.06188000
26.00097656,-92.57852000
26.03149414,-106.38410000
26.06201172,-92.01624000
26.09252930,-87.10284000
26.12304688,-87.10506000
26.15356445,-90.30855000
26.18408203,-94.03358000
26.21459961,-91.91290000
26.24511719,-87.42577000
26.27563477,-84.24129000
26.30615234,-83.44975000
26.33666992,-86.47650000
26.36718750,-99.17165000
26.39770508,-92.24516000
26.42822266,-88.65067000
26.45874023,-88.36223000
26.48925781,-88.59030000
26.51977539,-91.12690000
26.55029297,-96.79733000
26.58081055,-99.07060000
26.61132813,-96.59706000
26.64184570,-94.17207000
26.67236328,-92.56059000
26.70288086,-93.71819000
26.73339844,-102.34440000
26.76391602,-93.77975000
26.79443359,-87.22711000
26.82495117,-84.31367000
26.85546875,-82.89413000
26.88598633,-83.10910000
26.91650391,-86.16705000
26.94702148,-91.44016000
26.97753906,-88.95291000
27.00805664,-89.72925000
27.03857422,-100.78860000
27.06909180,-91.85835000
27.09960938,-87.42894000
27.13012695,-85.67690000
27.16064453,-83.84078000
27.19116211,-83.43693000
27.22167969,-87.06894000
27.25219727,-94.81194000
27.28271484,-84.69845000
27.31323242,-81.08012000
27.34375000,-80.70624000
27.37426758,-83.26499000
27.40478516,-89.59387000
27.43530273,-85.11817000
27.46582031,-80.14360000
27.49633789,-78.33065000
27.52685547,-78.77550000
27.55737305,-81.47301000
27.58789063,-85.49817000
27.61840820,-85.34909000
27.64892578,-83.47820000
27.67944336,-83.09012000
27.70996094,-84.36387000
27.74047852,-88.24704000
27.77099609,-95.23530000
27.80151367,-88.92276000
27.83203125,-84.14403000
27.86254883,-81.77474000
27.89306641,-80.88014000
27.92358398,-81.20891000
27.95410156,-82.64935000
27.98461914,-85.56520000
28.01513672,-92.26273000
28.04565430,-94.89809000
28.07617188,-87.10054000
28.10668945,-85.52446000
28.13720703,-88.06964000
28.16772461,-93.58054000
28.19824219,-88.86948000
28.22875977,-85.06223000
28.25927734,-84.14183000
28.28979492,-84.55722000
28.32031250,-84.64988000
28.35083008,-84.29160000
28.38134766,-83.80603000
28.41186523,-82.95998000
28.44238281,-82.21051000
28.47290039,-82.19864000
28.50341797,-82.93568000
28.53393555,-84.03532000
28.56445313,-84.42250000
28.59497070,-83.23654000
28.62548828,-81.33530000
28.65600586,-79.58607000
28.68652344,-78.59746000
28.71704102,-78.95863000
28.74755859,-81.22269000
28.77807617,-85.63499000
28.80859375,-88.92258000
28.83911133,-85.97089000
28.86962891,-83.19630000
28.90014648,-82.95945000
28.93066406,-85.62614000
28.96118164,-90.98561000
28.99169922,-96.36330000
29.02221680,-99.76237000
29.05273438,-90.65232000
29.08325195,-85.88029000
29.11376953,-84.93944000
29.14428711,-85.27673000
29.17480469,-85.57278000
29.20532227,-86.96806000
29.23583984,-88.28653000
29.26635742,-91.13907000
29.29687500,-105.78510000
29.32739258,-87.91646000
29.35791016,-83.69401000
29.38842773,-83.46136000
29.41894531,-85.55500000
29.44946289,-88.62041000
29.47998047,-90.78284000
29.51049805,-87.72079000
29.54101563,-84.31758000
29.57153320,-82.81534000
29.60205078,-82.76093000
29.63256836,-84.52224000
29.66308594,-90.00304000
29.69360352,-93.33865000
29.72412109,-85.94207000
29.75463867,-83.09068000
29.78515625,-82.93506000
29.81567383,-85.15252000
29.84619141,-86.78506000
29.87670898,-83.83500000
29.90722656,-81.91196000
29.93774414,-82.39163000
29.96826172,-86.02043000
29.99877930,-99.36959000
30.02929688,-89.03963000
30.05981445,-83.80817000
30.09033203,-83.06148000
30.12084961,-84.99396000
30.15136719,-89.15538000
30.18188477,-93.80329000
30.21240234,-93.23770000
30.24291992,-96.38234000
30.27343750,-95.68921000
30.30395508,-85.39201000
30.33447266,-82.47738000
30.36499023,-83.74242000
30.39550781,-88.65891000
30.42602539,-87.54570000
30.45654297,-83.80291000
30.48706055,-83.27975000
30.51757813,-85.22968000
30.54809570,-87.16325000
30.57861328,-84.85358000
30.60913086,-81.39772000
30.63964844,-79.22742000
30.67016602,-79.35202000
30.70068359,-83.53923000
30.73120117,-94.95869000
30.76171875,-82.63170000
30.79223633,-79.54472000
30.82275391,-79.59528000
30.85327148,-81.01037000
30.88378906,-83.08341000
30.91430664,-85.51372000
30.94482422,-89.42849000
30.97534180,-105.25850000
31.00585938,-88.63440000
31.03637695,-83.39310000
31.06689453,-82.80534000
31.09741211,-85.93321000
31.12792969,-92.58871000
31.15844727,-93.02719000
31.18896484,-91.04005000
31.21948242,-91.90172000
31.25000000,-96.49915000
31.28051758,-102.57640000
31.31103516,-103.15480000
31.34155273,-101.91420000
31.37207031,-93.26366000
31.40258789,-86.98027000
31.43310547,-83.32568000
31.46362305,-82.47902000
31.49414063,-85.52502000
31.52465820,-101.18140000
31.55517578,-89.70776000
31.58569336,-87.13223000
31.61621094,-88.63925000
31.64672852,-88.45468000
31.67724609,-91.78798000
31.70776367,-94.52348000
31.73828125,-87.00076000
31.76879883,-85.89652000
31.79931641,-88.20400000
31.82983398,-91.09064000
31.86035156,-90.25237000
31.89086914,-87.37921000
31.92138672,-86.37073000
31.95190430,-89.18442000
31.98242188,-101.10790000
32.01293945,-92.49516000
32.04345703,-90.86932000
32.07397461,-102.33880000
32.10449219,-91.75015000
32.13500977,-86.40437000
32.16552734,-84.70376000
32.19604492,-83.53185000
32.22656250,-83.34059000
32.25708008,-84.46544000
32.28759766,-86.05353000
32.31811523,-87.38186000
32.34863281,-88.95322000
32.37915039,-91.22357000
32.40966797,-92.52347000
32.44018555,-90.98723000
32.47070313,-89.12720000
32.50122070,-89.30859000
32.53173828,-92.73647000
32.56225586,-97.21725000
32.59277344,-92.68781000
32.62329102,-89.78601000
32.65380859,-89.44669000
32.68432617,-89.02518000
32.71484375,-86.56846000
32.74536133,-85.31068000
32.77587891,-86.50100000
32.80639648,-89.86839000
32.83691406,-95.04465000
32.86743164,-102.35390000
32.89794922,-95.06302000
32.92846680,-90.25916000
32.95898438,-88.16486000
32.98950195,-86.63957000
33.02001953,-85.59035000
33.05053711,-87.22703000
33.08105469,-97.76142000
33.11157227,-91.97029000
33.14208984,-87.71194000
33.17260742,-90.38802000
33.20312500,-95.04406000
33.23364258,-92.95731000
33.26416016,-90.60677000
33.29467773,-88.09923000
33.32519531,-86.67995000
33.35571289,-88.00626000
33.38623047,-93.71921000
33.41674805,-93.67972000
33.44726563,-89.21492000
33.47778320,-90.86106000
33.50830078,-95.58464000
33.53881836,-88.91287000
33.56933594,-86.42071000
33.59985352,-86.59253000
33.63037109,-87.30261000
33.66088867,-87.11729000
33.69140625,-86.65412000
33.72192383,-87.42042000
33.75244141,-90.27461000
33.78295898,-99.02152000
33.81347656,-95.99263000
33.84399414,-88.31893000
33.87451172,-87.35455000
33.90502930,-92.12089000
33.93554688,-90.58611000
33.96606445,-85.10132000
33.99658203,-84.31819000
34.02709961,-85.96895000
34.05761719,-87.30359000
34.08813477,-88.53402000
34.11865234,-93.62717000
34.14916992,-102.00290000
34.17968750,-92.41896000
34.21020508,-88.26750000
34.24072266,-85.71494000
34.27124023,-85.70802000
34.30175781,-90.78452000
34.33227539,-94.10249000
34.36279297,-84.57497000
34.39331055,-82.27836000
34.42382813,-84.17415000
34.45434570,-91.89017000
34.48486328,-93.70610000
34.51538086,-89.05682000
34.54589844,-90.30700000
34.57641602,-92.45395000
34.60693359,-94.17441000
34.63745117,-100.66680000
34.66796875,-97.14420000
34.69848633,-89.68845000
34.72900391,-85.30231000
34.75952148,-83.78330000
34.79003906,-86.06717000
34.82055664,-94.08348000
34.85107422,-85.93250000
34.88159180,-82.27640000
34.91210938,-82.49260000
34.94262695,-85.46262000
34.97314453,-91.30815000
35.00366211,-92.75692000
35.03417969,-88.20776000
35.06469727,-85.14146000
35.09521484,-83.12209000
35.12573242,-81.66840000
35.15625000,-80.91529000
35.18676758,-81.85385000
35.21728516,-86.33324000
35.24780273,-104.38970000
35.27832031,-91.29922000
35.30883789,-90.86967000
35.33935547,-98.88354000
35.36987305,-87.55390000
35.40039063,-83.61189000
35.43090820,-82.72784000
35.46142578,-82.84656000
35.49194336,-83.63056000
35.52246094,-83.77090000
35.55297852,-82.76397000
35.58349609,-82.58595000
35.61401367,-83.24287000
35.64453125,-83.91434000
35.67504883,-84.97189000
35.70556641,-87.01156000
35.73608398,-89.62121000
35.76660156,-91.41313000
35.79711914,-92.93555000
35.82763672,-97.47794000
35.85815430,-122.72590000
35.88867188,-98.06152000
35.91918945,-92.06274000
35.94970703,-86.84364000
35.98022461,-84.41197000
36.01074219,-85.44914000
36.04125977,-91.49242000
36.07177734,-86.39156000
36.10229492,-80.74490000
36.13281250,-79.52737000
36.16333008,-81.69952000
36.19384766,-86.08176000
36.22436523,-88.26049000
36.25488281,-88.68459000
36.28540039,-85.67490000
36.31591797,-83.66382000
36.34643555,-85.32925000
36.37695313,-93.44197000
36.40747070,-91.82321000
36.43798828,-85.95338000
36.46850586,-85.53851000
36.49902344,-88.27655000
36.52954102,-92.32277000
36.56005859,-94.21364000
36.59057617,-90.97016000
36.62109375,-85.87124000
36.65161133,-83.50155000
36.68212891,-83.73066000
36.71264648,-85.08861000
36.74316406,-86.53062000
36.77368164,-89.84020000
36.80419922,-96.88313000
36.83471680,-102.06920000
36.86523438,-95.35255000
36.89575195,-92.38910000
36.92626953,-89.30443000
36.95678711,-85.47001000
36.98730469,-83.71136000
37.01782227,-84.63746000
37.04833984,-87.92365000
37.07885742,-92.92763000
37.10937500,-95.83813000
37.13989258,-98.15273000
37.17041016,-97.38560000
37.20092773,-86.94824000
37.23144531,-83.73048000
37.26196289,-85.23086000
37.29248047,-96.87106000
37.32299805,-89.12360000
37.35351563,-84.13950000
37.38403320,-85.65665000
37.41455078,-93.20573000
37.44506836,-95.55489000
37.47558594,-92.98724000
37.50610352,-91.07687000
37.53662109,-88.10646000
37.56713867,-88.72701000
37.59765625,-96.75477000
37.62817383,-90.14640000
37.65869141,-86.52043000
37.68920898,-89.09726000
37.71972656,-101.53600000
37.75024414,-95.05814000
37.78076172,-97.55082000
37.81127930,-94.18029000
37.84179688,-85.93357000
37.87231445,-85.12264000
37.90283203,-89.91367000
37.93334961,-93.74091000
37.96386719,-88.89569000
37.99438477,-88.10406000
38.02490234,-88.65639000
38.05541992,-89.34416000
38.08593750,-88.98072000
38.11645508,-85.61882000
38.14697266,-82.68184000
38.17749023,-81.94838000
38.20800781,-83.57031000
38.23852539,-87.39282000
38.26904297,-91.66718000
38.29956055,-90.58152000
38.33007813,-88.28373000
38.36059570,-87.88448000
38.39111328,-90.10109000
38.42163086,-96.93504000
38.45214844,-102.92050000
38.48266602,-99.36863000
38.51318359,-97.29517000
38.54370117,-92.34346000
38.57421875,-89.33028000
38.60473633,-87.86279000
38.63525391,-86.88466000
38.66577148,-87.02184000
38.69628906,-88.16595000
38.72680664,-86.82140000
38.75732422,-86.63956000
38.78784180,-89.33544000
38.81835938,-90.47102000
38.84887695,-91.05102000
38.87939453,-92.34792000
38.90991211,-88.06637000
38.94042969,-85.32947000
38.97094727,-86.45072000
39.00146484,-91.30862000
39.03198242,-99.02026000
39.06250000,-95.13940000
39.09301758,-89.27313000
39.12353516,-86.81952000
39.15405273,-85.53093000
39.18457031,-83.83366000
39.21508789,-83.01036000
39.24560547,-84.67610000
39.27612305,-88.98717000
39.30664063,-89.01846000
39.33715820,-86.47079000
39.36767578,-87.06253000
39.39819336,-93.04358000
39.42871094,-90.48333000
39.45922852,-84.22135000
39.48974609,-83.54603000
39.52026367,-87.19568000
39.55078125,-94.74744000
39.58129883,-91.38118000
39.61181641,-86.43301000
39.64233398,-84.29908000
39.67285156,-84.92820000
39.70336914,-87.78919000
39.73388672,-91.85792000
39.76440430,-96.13754000
39.79492188,-95.47856000
39.82543945,-94.22616000
39.85595703,-95.97034000
39.88647461,-91.43894000
39.91699219,-86.53694000
39.94750977,-84.90224000
39.97802734,-85.28236000
40.00854492,-86.60369000
40.03906250,-89.67673000
40.06958008,-101.20880000
40.10009766,-94.52137000
40.13061523,-88.62362000
40.16113281,-87.94727000
40.19165039,-89.83157000
40.22216797,-90.23704000
40.25268555,-87.28838000
40.28320313,-84.93091000
40.31372070,-84.01991000
40.34423828,-85.01235000
40.37475586,-88.75172000
40.40527344,-97.41393000
40.43579102,-100.98600000
40.46630859,-96.81133000
40.49682617,-95.20893000
40.52734375,-90.79506000
40.55786133,-86.92245000
40.58837891,-84.92915000
40.61889648,-84.18342000
40.64941406,-84.28390000
40.67993164,-85.40898000
40.71044922,-87.45818000
40.74096680,-88.47984000
40.77148438,-87.86565000
40.80200195,-87.83591000
40.83251953,-88.42790000
40.86303711,-86.29249000
40.89355469,-83.15242000
40.92407227,-81.70630000
40.95458984,-82.27902000
40.98510742,-83.70391000
41.01562500,-83.74188000
41.04614258,-84.32787000
41.07666016,-87.46854000
41.10717773,-91.70680000
41.13769531,-93.40404000
41.16821289,-88.94474000
41.19873047,-82.65950000
41.22924805,-80.23338000
41.25976563,-81.54890000
41.29028320,-87.38999000
41.32080078,-87.05821000
41.35131836,-82.56598000
41.38183594,-82.47862000
41.41235352,-86.45364000
41.44287109,-98.21951000
41.47338867,-95.68912000
41.50390625,-89.16737000
41.53442383,-86.06953000
41.56494141,-86.13362000
41.59545898,-89.41100000
41.62597656,-93.42651000
41.65649414,-92.93130000
41.68701172,-89.50845000
41.71752930,-86.47083000
41.74804688,-83.93591000
41.77856445,-82.01431000
41.80908203,-80.71415000
41.83959961,-79.94332000
41.87011719,-80.06030000
41.90063477,-81.06761000
41.93115234,-82.73307000
41.96166992,-85.91019000
41.99218750,-91.54733000
42.02270508,-89.28997000
42.05322266,-87.21416000
42.08374023,-90.64035000
42.11425781,-97.63496000
42.14477539,-93.74977000
42.17529297,-98.51224000
42.20581055,-96.99155000
42.23632813,-85.77644000
42.26684570,-81.11716000
42.29736328,-80.06705000
42.32788086,-82.43188000
42.35839844,-87.59241000
42.38891602,-91.31782000
42.41943359,-89.30850000
42.44995117,-86.37165000
42.48046875,-85.76900000
42.51098633,-85.60841000
42.54150391,-85.55508000
42.57202148,-85.70772000
42.60253906,-84.12204000
42.63305664,-82.18604000
42.66357422,-81.94708000
42.69409180,-83.99385000
42.72460938,-88.06747000
42.75512695,-91.13620000
42.78564453,-91.57307000
42.81616211,-92.34172000
42.84667969,-93.92055000
42.87719727,-88.27880000
42.90771484,-84.48930000
42.93823242,-84.36198000
42.96875000,-85.76863000
42.99926758,-85.36304000
43.02978516,-84.44879000
43.06030273,-84.11518000
43.09082031,-83.66631000
43.12133789,-83.12149000
43.15185547,-83.55477000
43.18237305,-85.93738000
43.21289063,-90.13900000
43.24340820,-94.06461000
43.27392578,-96.02016000
43.30444336,-94.98702000
43.33496094,-90.07880000
43.36547852,-86.89933000
43.39599609,-86.43129000
43.42651367,-86.08325000
43.45703125,-85.43233000
43.48754883,-88.75530000
43.51806641,-99.71576000
43.54858398,-87.77113000
43.57910156,-85.70320000
43.60961914,-87.75650000
43.64013672,-94.46849000
43.67065430,-96.49486000
43.70117188,-87.26189000
43.73168945,-85.10544000
43.76220703,-85.24696000
43.79272461,-84.95521000
43.82324219,-85.56596000
43.85375977,-86.71502000
43.88427734,-86.16760000
43.91479492,-86.11932000
43.94531250,-87.41158000
43.97583008,-89.15259000
44.00634766,-90.76442000
44.03686523,-92.12657000
44.06738281,-91.83421000
44.09790039,-88.44234000
44.12841797,-85.23533000
44.15893555,-83.68298000
44.18945313,-83.19574000
44.21997070,-83.31017000
44.25048828,-83.79604000
44.28100586,-83.78947000
44.31152344,-83.60933000
44.34204102,-85.36334000
44.37255859,-90.19533000
44.40307617,-90.19121000
44.43359375,-91.35779000
44.46411133,-98.32622000
44.49462891,-87.46880000
44.52514648,-86.52100000
44.55566406,-90.05032000
44.58618164,-87.72110000
44.61669922,-86.28330000
44.64721680,-89.24193000
44.67773438,-99.23966000
44.70825195,-100.79540000
44.73876953,-94.82551000
44.76928711,-96.56323000
44.79980469,-106.54030000
44.83032227,-95.14012000
44.86083984,-89.46771000
44.89135742,-87.47566000
44.92187500,-88.19904000
44.95239258,-90.57114000
44.98291016,-93.42250000
45.01342773,-94.86751000
45.04394531,-91.84996000
45.07446289,-92.08363000
45.10498047,-96.97618000
45.13549805,-103.26490000
45.16601563,-95.73351000
45.19653320,-87.57527000
45.22705078,-83.78603000
45.25756836,-83.32819000
45.28808594,-86.80750000
45.31860352,-97.19894000
45.34912109,-88.27756000
45.37963867,-85.36276000
45.41015625,-88.12296000
45.44067383,-96.00834000
45.47119141,-85.29235000
45.50170898,-81.48979000
45.53222656,-80.78755000
45.56274414,-81.55159000
45.59326172,-82.85106000
45.62377930,-84.18088000
45.65429688,-87.09079000
45.68481445,-92.73140000
45.71533203,-99.11073000
45.74584961,-103.84250000
45.77636719,-92.95166000
45.80688477,-88.92625000
45.83740234,-87.25093000
45.86791992,-88.18471000
45.89843750,-94.74419000
45.92895508,-93.73688000
45.95947266,-85.67493000
45.98999023,-82.76080000
46.02050781,-82.20837000
46.05102539,-83.76743000
46.08154297,-88.57069000
46.11206055,-95.70205000
46.14257813,-89.20316000
46.17309570,-87.48992000
46.20361328,-91.11382000
46.23413086,-114.52300000
46.26464844,-93.70200000
46.29516602,-92.47545000
46.32568359,-90.52016000
46.35620117,-86.96845000
46.38671875,-87.36560000
46.41723633,-93.78616000
46.44775391,-93.84904000
46.47827148,-88.12461000
46.50878906,-87.46833000
46.53930664,-86.45073000
46.56982422,-84.13295000
46.60034180,-82.80917000
46.63085938,-82.18091000
46.66137695,-82.78138000
46.69189453,-83.87905000
46.72241211,-83.79462000
46.75292969,-85.35293000
46.78344727,-88.32954000
46.81396484,-85.46786000
46.84448242,-83.75169000
46.87500000,-84.97425000
46.90551758,-89.42536000
46.93603516,-92.09471000
46.96655273,-83.86230000
46.99707031,-79.65392000
47.02758789,-77.97513000
47.05810547,-78.10020000
47.08862305,-79.79610000
47.11914063,-82.45820000
47.14965820,-84.23029000
47.18017578,-85.84108000
47.21069336,-90.82371000
47.24121094,-101.92960000
47.27172852,-100.69860000
47.30224609,-104.73160000
47.33276367,-93.29105000
47.36328125,-91.85509000
47.39379883,-95.61230000
47.42431641,-99.15710000
47.45483398,-98.09808000
47.48535156,-93.77097000
47.51586914,-90.18996000
47.54638672,-88.93749000
47.57690430,-87.62120000
47.60742188,-84.92171000
47.63793945,-83.00172000
47.66845703,-82.68515000
47.69897461,-83.85780000
47.72949219,-85.28838000
47.76000977,-84.85835000
47.79052734,-84.26163000
47.82104492,-85.00008000
47.85156250,-85.79963000
47.88208008,-85.66164000
47.91259766,-85.21283000
47.94311523,-84.39812000
47.97363281,-83.95450000
48.00415039,-84.33211000
48.03466797,-84.48550000
48.06518555,-83.95512000
48.09570313,-83.47839000
48.12622070,-83.31915000
48.15673828,-83.43411000
48.18725586,-84.03218000
48.21777344,-85.99065000
48.24829102,-90.17003000
48.27880859,-95.25966000
48.30932617,-96.13358000
48.33984375,-97.68045000
48.37036133,-93.18267000
48.40087891,-87.62091000
48.43139648,-84.73659000
48.46191406,-83.97601000
48.49243164,-85.54833000
48.52294922,-90.72826000
48.55346680,-103.02030000
48.58398438,-98.50188000
48.61450195,-101.75280000
48.64501953,-107.55190000
48.67553711,-95.94738000
48.70605469,-92.83630000
48.73657227,-94.11130000
48.76708984,-92.50065000
48.79760742,-85.95276000
48.82812500,-83.88671000
48.85864258,-85.18612000
48.88916016,-89.01550000
48.91967773,-95.53166000
48.95019531,-103.13650000
48.98071289,-99.31477000
49.01123047,-93.12799000
49.04174805,-93.27068000
49.07226563,-101.08700000
49.10278320,-89.92911000
49.13330078,-84.45004000
49.16381836,-81.66701000
49.19433594,-80.23411000
49.22485352,-80.16188000
49.25537109,-81.46605000
49.28588867,-83.03972000
49.31640625,-83.60496000
49.34692383,-83.99915000
49.37744141,-84.97520000
49.40795898,-86.72404000
49.43847656,-89.23392000
49.46899414,-91.83506000
49.49951172,-93.32034000
49.53002930,-94.67165000
49.56054688,-104.89670000
49.59106445,-98.77773000
49.62158203,-95.29967000
49.65209961,-93.19594000
49.68261719,-89.82356000
49.71313477,-92.54174000
49.74365234,-104.58480000
49.77416992,-93.13870000
49.80468750,-95.31346000
49.83520508,-103.06440000
49.86572266,-90.33192000
49.89624023,-87.45025000
49.92675781,-86.98335000
49.95727539,-87.92031000
49.98779297,-92.57024000
50.01831055,-98.99392000
