Frequency,Channel A
(MHz),(dBu)

0.00000000,-14.00696000
0.03051758,-14.40211000
0.06103516,-19.70432000
0.09155273,-29.82476000
0.12207031,-48.69026000
0.15258789,-54.27123000
0.18310547,-51.76737000
0.21362305,-55.73993000
0.24414063,-59.98898000
0.27465820,-61.83406000
0.30517578,-57.17832000
0.33569336,-54.40276000
0.36621094,-53.61401000
0.39672852,-53.85501000
0.42724609,-55.51049000
0.45776367,-59.28004000
0.48828125,-68.39715000
0.51879883,-58.75013000
0.54931641,-54.81195000
0.57983398,-54.21009000
0.61035156,-55.80913000
0.64086914,-59.76877000
0.67138672,-64.54738000
0.70190430,-61.02770000
0.73242188,-56.82602000
0.76293945,-55.76748000
0.79345703,-56.93494000
0.82397461,-57.59559000
0.85449219,-58.01247000
0.88500977,-61.46823000
0.91552734,-76.62637000
0.94604492,-63.88229000
0.97656250,-58.82293000
1.00708008,-58.43938000
1.03759766,-62.12895000
1.06811523,-65.19288000
1.09863281,-61.07994000
1.12915039,-60.82161000
1.15966797,-64.66051000
1.19018555,-69.26848000
1.22070313,-64.73126000
1.25122070,-62.69545000
1.28173828,-63.13110000
1.31225586,-63.62515000
1.34277344,-63.04316000
1.37329102,-63.72443000
1.40380859,-66.76030000
1.43432617,-66.67747000
1.46484375,-63.95041000
1.49536133,-64.17313000
1.52587891,-64.78285000
1.55639648,-61.78798000
1.58691406,-60.05791000
1.61743164,-60.23063000
1.64794922,-60.46814000
1.67846680,-60.82930000
1.70898438,-63.01977000
1.73950195,-66.60738000
1.77001953,-69.07253000
1.80053711,-69.58228000
1.83105469,-66.28271000
1.86157227,-64.58898000
1.89208984,-63.87577000
1.92260742,-62.11063000
1.95312500,-60.76933000
1.98364258,-61.21055000
2.01416016,-63.05027000
2.04467773,-62.99747000
2.07519531,-62.21449000
2.10571289,-64.57243000
2.13623047,-74.84595000
2.16674805,-72.43414000
2.19726563,-66.41994000
2.22778320,-65.95860000
2.25830078,-66.65726000
2.28881836,-66.17825000
2.31933594,-66.86303000
2.34985352,-69.33528000
2.38037109,-67.63898000
2.41088867,-65.17345000
2.44140625,-64.91204000
2.47192383,-65.17609000
2.50244141,-65.03215000
2.53295898,-65.60223000
2.56347656,-67.13821000
2.59399414,-70.03852000
2.62451172,-73.02171000
2.65502930,-71.44637000
2.68554688,-71.54156000
2.71606445,-69.11841000
2.74658203,-64.98201000
2.77709961,-63.69122000
2.80761719,-64.72401000
2.83813477,-66.11594000
2.86865234,-67.10288000
2.89916992,-68.71611000
2.92968750,-70.29649000
2.96020508,-69.03095000
2.99072266,-63.52396000
3.02124023,-61.07897000
3.05175781,-62.32647000
3.08227539,-64.40970000
3.11279297,-62.26210000
3.14331055,-62.13210000
3.17382813,-67.41692000
3.20434570,-77.61534000
3.23486328,-64.89690000
3.26538086,-62.15635000
3.29589844,-62.26613000
3.32641602,-63.81538000
3.35693359,-64.83401000
3.38745117,-64.67123000
3.41796875,-65.40599000
3.44848633,-66.27505000
3.47900391,-65.91206000
3.50952148,-65.87837000
3.54003906,-65.15359000
3.57055664,-63.85601000
3.60107422,-63.69099000
3.63159180,-64.13541000
3.66210938,-64.67191000
3.69262695,-65.48868000
3.72314453,-65.65119000
3.75366211,-66.06779000
3.78417969,-65.76344000
3.81469727,-63.48887000
3.84521484,-62.92738000
3.87573242,-64.03240000
3.90625000,-64.06646000
3.93676758,-63.54162000
3.96728516,-64.30208000
3.99780273,-67.71277000
4.02832031,-69.71345000
4.05883789,-63.88776000
4.08935547,-62.08106000
4.11987305,-63.29619000
4.15039063,-63.95923000
4.18090820,-63.67866000
4.21142578,-66.97842000
4.24194336,-76.26730000
4.27246094,-67.55440000
4.30297852,-65.10046000
4.33349609,-65.79987000
4.36401367,-66.98412000
4.39453125,-66.69488000
4.42504883,-65.39144000
4.45556641,-65.49423000
4.48608398,-67.95209000
4.51660156,-72.33598000
4.54711914,-74.88587000
4.57763672,-70.30224000
4.60815430,-66.63197000
4.63867188,-65.52610000
4.66918945,-66.11398000
4.69970703,-67.08749000
4.73022461,-67.78482000
4.76074219,-68.87874000
4.79125977,-72.40252000
4.82177734,-78.22791000
4.85229492,-72.27332000
4.88281250,-68.75655000
4.91333008,-65.85662000
4.94384766,-63.58884000
4.97436523,-62.97057000
5.00488281,-64.06195000
5.03540039,-67.29819000
5.06591797,-75.54076000
5.09643555,-82.62147000
5.12695313,-74.76093000
5.15747070,-73.90254000
5.18798828,-70.42969000
5.21850586,-67.78083000
5.24902344,-67.53747000
5.27954102,-68.52979000
5.31005859,-68.56864000
5.34057617,-67.47498000
5.37109375,-66.93526000
5.40161133,-67.70565000
5.43212891,-70.87000000
5.46264648,-82.89050000
5.49316406,-71.16592000
5.52368164,-64.84316000
5.55419922,-62.04211000
5.58471680,-60.66447000
5.61523438,-60.29793000
5.64575195,-61.02141000
5.67626953,-62.80155000
5.70678711,-66.68244000
5.73730469,-73.52953000
5.76782227,-64.78059000
5.79833984,-60.63725000
5.82885742,-59.57176000
5.85937500,-59.68806000
5.88989258,-60.03719000
5.92041016,-61.43797000
5.95092773,-65.16682000
5.98144531,-71.87888000
6.01196289,-72.96656000
6.04248047,-67.10807000
6.07299805,-63.84975000
6.10351563,-62.23740000
6.13403320,-61.18395000
6.16455078,-61.09795000
6.19506836,-62.86964000
6.22558594,-67.14761000
6.25610352,-75.09289000
6.28662109,-80.78989000
6.31713867,-71.61693000
6.34765625,-66.36491000
6.37817383,-64.02180000
6.40869141,-64.20524000
6.43920898,-66.73256000
6.46972656,-71.71832000
6.50024414,-81.68880000
6.53076172,-80.81253000
6.56127930,-74.77980000
6.59179688,-72.65490000
6.62231445,-70.82501000
6.65283203,-68.86978000
6.68334961,-68.15576000
6.71386719,-69.98947000
6.74438477,-75.84014000
6.77490234,-77.92684000
6.80541992,-72.71405000
6.83593750,-71.45097000
6.86645508,-73.12630000
6.89697266,-74.45480000
6.92749023,-71.89092000
6.95800781,-70.78493000
6.98852539,-72.25272000
7.01904297,-76.06221000
7.04956055,-80.20351000
7.08007813,-80.97945000
7.11059570,-89.46282000
7.14111328,-80.01378000
7.17163086,-72.16412000
7.20214844,-69.97527000
7.23266602,-71.17078000
7.26318359,-74.83241000
7.29370117,-77.37234000
7.32421875,-78.47694000
7.35473633,-84.25908000
7.38525391,-82.89702000
7.41577148,-75.04941000
7.44628906,-72.55660000
7.47680664,-73.37949000
7.50732422,-76.92876000
7.53784180,-79.27872000
7.56835938,-76.97656000
7.59887695,-75.73592000
7.62939453,-76.77366000
7.65991211,-80.34032000
7.69042969,-85.16674000
7.72094727,-87.06448000
7.75146484,-87.15717000
7.78198242,-79.20121000
7.81250000,-74.00964000
7.84301758,-71.74483000
7.87353516,-71.95015000
7.90405273,-74.65434000
7.93457031,-77.68027000
7.96508789,-77.97105000
7.99560547,-79.77390000
8.02612305,-76.08112000
8.05664063,-71.94859000
8.08715820,-71.04456000
8.11767578,-72.79606000
8.14819336,-76.71855000
8.17871094,-80.55597000
8.20922852,-80.33391000
8.23974609,-78.99234000
8.27026367,-79.44729000
8.30078125,-82.85744000
8.33129883,-89.65918000
8.36181641,-93.47795000
8.39233398,-92.46960000
8.42285156,-93.47607000
8.45336914,-87.59775000
8.48388672,-81.88702000
8.51440430,-79.06205000
8.54492188,-78.33117000
8.57543945,-79.13099000
8.60595703,-79.88945000
8.63647461,-77.83867000
8.66699219,-75.29176000
8.69750977,-74.19036000
8.72802734,-74.35975000
8.75854492,-75.23716000
8.78906250,-76.43838000
8.81958008,-77.94724000
8.85009766,-80.56954000
8.88061523,-85.62626000
8.91113281,-90.37556000
8.94165039,-92.23365000
8.97216797,-98.80241000
9.00268555,-90.72038000
9.03320313,-88.40182000
9.06372070,-82.54155000
9.09423828,-77.86234000
9.12475586,-76.15485000
9.15527344,-76.15792000
9.18579102,-76.56253000
9.21630859,-77.05354000
9.24682617,-78.39360000
9.27734375,-80.64163000
9.30786133,-81.25401000
9.33837891,-78.60143000
9.36889648,-76.94855000
9.39941406,-76.67726000
9.42993164,-76.16331000
9.46044922,-76.08479000
9.49096680,-76.56705000
9.52148438,-76.38490000
9.55200195,-76.66211000
9.58251953,-78.22624000
9.61303711,-80.34657000
9.64355469,-79.58793000
9.67407227,-76.34619000
9.70458984,-74.15108000
9.73510742,-72.96269000
9.76562500,-72.71056000
9.79614258,-74.07463000
9.82666016,-77.83739000
9.85717773,-86.11504000
9.88769531,-81.23847000
9.91821289,-76.74181000
9.94873047,-78.04424000
9.97924805,-81.29456000
10.00976563,-75.08914000
10.04028320,-71.96088000
10.07080078,-71.64296000
10.10131836,-73.33015000
10.13183594,-76.83633000
10.16235352,-79.24593000
10.19287109,-77.93176000
10.22338867,-76.74246000
10.25390625,-74.57402000
10.28442383,-72.65234000
10.31494141,-72.90880000
10.34545898,-74.95108000
10.37597656,-74.69958000
10.40649414,-73.00864000
10.43701172,-73.23290000
10.46752930,-75.41587000
10.49804688,-78.44481000
10.52856445,-80.48769000
10.55908203,-81.06720000
10.58959961,-81.13028000
10.62011719,-80.04659000
10.65063477,-77.30396000
10.68115234,-74.51189000
10.71166992,-72.82253000
10.74218750,-72.30502000
10.77270508,-72.62862000
10.80322266,-73.95911000
10.83374023,-76.40034000
10.86425781,-78.24250000
10.89477539,-77.54187000
10.92529297,-76.33556000
10.95581055,-76.66994000
10.98632813,-79.10251000
11.01684570,-78.00425000
11.04736328,-74.28841000
11.07788086,-73.14291000
11.10839844,-74.71526000
11.13891602,-79.83924000
11.16943359,-99.93336000
11.19995117,-84.29002000
11.23046875,-80.74546000
11.26098633,-83.15024000
11.29150391,-85.89018000
11.32202148,-78.00272000
11.35253906,-75.41125000
11.38305664,-75.35531000
11.41357422,-73.63606000
11.44409180,-71.50463000
11.47460938,-71.57729000
11.50512695,-73.87721000
11.53564453,-77.32356000
11.56616211,-79.07233000
11.59667969,-78.10165000
11.62719727,-77.25953000
11.65771484,-76.97027000
11.68823242,-76.79919000
11.71875000,-77.79700000
11.74926758,-80.95105000
11.77978516,-80.18329000
11.81030273,-76.61996000
11.84082031,-76.02725000
11.87133789,-77.07303000
11.90185547,-77.46114000
11.93237305,-78.08432000
11.96289063,-81.26840000
11.99340820,-85.64907000
12.02392578,-80.83145000
12.05444336,-77.96361000
12.08496094,-77.55437000
12.11547852,-78.78796000
12.14599609,-82.08802000
12.17651367,-82.53334000
12.20703125,-77.24866000
12.23754883,-74.15773000
12.26806641,-73.41786000
12.29858398,-75.26752000
12.32910156,-80.49992000
12.35961914,-87.02851000
12.39013672,-85.69568000
12.42065430,-84.09837000
12.45117188,-80.95781000
12.48168945,-77.38385000
12.51220703,-74.54550000
12.54272461,-73.36423000
12.57324219,-73.71477000
12.60375977,-74.44957000
12.63427734,-74.51505000
12.66479492,-74.91431000
12.69531250,-77.19516000
12.72583008,-79.19651000
12.75634766,-76.19371000
12.78686523,-74.20741000
12.81738281,-74.40448000
12.84790039,-75.84243000
12.87841797,-77.19482000
12.90893555,-77.79095000
12.93945313,-78.46146000
12.96997070,-79.93111000
13.00048828,-81.45335000
13.03100586,-80.25761000
13.06152344,-77.87849000
13.09204102,-77.68179000
13.12255859,-80.31521000
13.15307617,-84.67439000
13.18359375,-88.55719000
13.21411133,-94.04744000
13.24462891,-96.86926000
13.27514648,-90.01260000
13.30566406,-83.61539000
13.33618164,-80.45338000
13.36669922,-80.00947000
13.39721680,-82.33557000
13.42773438,-88.17017000
13.45825195,-82.34979000
13.48876953,-73.53908000
13.51928711,-68.11861000
13.54980469,-65.80140000
13.58032227,-66.45551000
13.61083984,-69.78301000
13.64135742,-74.46278000
13.67187500,-78.53071000
13.70239258,-81.69198000
13.73291016,-81.91029000
13.76342773,-81.59390000
13.79394531,-78.80695000
13.82446289,-73.33388000
13.85498047,-70.55148000
13.88549805,-70.95561000
13.91601563,-74.28026000
13.94653320,-77.91756000
13.97705078,-78.66640000
14.00756836,-80.40341000
14.03808594,-81.76416000
14.06860352,-79.47229000
14.09912109,-76.83046000
14.12963867,-75.24319000
14.16015625,-74.66636000
14.19067383,-74.56126000
14.22119141,-74.24496000
14.25170898,-73.58628000
14.28222656,-73.00521000
14.31274414,-72.89784000
14.34326172,-73.37233000
14.37377930,-74.08708000
14.40429688,-74.52058000
14.43481445,-74.97139000
14.46533203,-76.17698000
14.49584961,-77.73576000
14.52636719,-77.15538000
14.55688477,-75.44617000
14.58740234,-75.39491000
14.61791992,-78.19382000
14.64843750,-82.02721000
14.67895508,-77.31266000
14.70947266,-74.73260000
14.73999023,-75.68053000
14.77050781,-78.47144000
14.80102539,-77.68906000
14.83154297,-77.05287000
14.86206055,-80.85128000
14.89257813,-95.82983000
14.92309570,-85.63342000
14.95361328,-83.68167000
14.98413086,-86.05499000
15.01464844,-92.31207000
15.04516602,-83.92991000
15.07568359,-80.34926000
15.10620117,-80.75699000
15.13671875,-78.86449000
15.16723633,-78.18106000
15.19775391,-85.52193000
15.22827148,-81.36546000
15.25878906,-76.58111000
15.28930664,-76.47561000
15.31982422,-77.25755000
15.35034180,-78.08015000
15.38085938,-74.82980000
15.41137695,-71.50751000
15.44189453,-70.95597000
15.47241211,-73.06366000
15.50292969,-74.38565000
15.53344727,-71.78951000
15.56396484,-70.75270000
15.59448242,-71.70332000
15.62500000,-72.32691000
15.65551758,-72.19530000
15.68603516,-73.98756000
15.71655273,-79.01873000
15.74707031,-81.50528000
15.77758789,-78.53941000
15.80810547,-77.97285000
15.83862305,-79.15862000
15.86914063,-78.57201000
15.89965820,-75.98852000
15.93017578,-74.80991000
15.96069336,-75.77820000
15.99121094,-78.51583000
16.02172852,-82.03393000
16.05224609,-86.80665000
16.08276367,-88.07489000
16.11328125,-86.80443000
16.14379883,-89.01495000
16.17431641,-89.82735000
16.20483398,-85.98802000
16.23535156,-81.53572000
16.26586914,-78.80807000
16.29638672,-77.84462000
16.32690430,-78.03968000
16.35742188,-77.78185000
16.38793945,-76.94469000
16.41845703,-78.02611000
16.44897461,-83.52081000
16.47949219,-85.40662000
16.51000977,-81.11797000
16.54052734,-83.23463000
16.57104492,-87.78205000
16.60156250,-82.61412000
16.63208008,-80.95463000
16.66259766,-81.31084000
16.69311523,-80.49918000
16.72363281,-79.22039000
16.75415039,-79.05688000
16.78466797,-80.22086000
16.81518555,-82.64372000
16.84570313,-85.62079000
16.87622070,-87.99841000
16.90673828,-88.23490000
16.93725586,-86.86456000
16.96777344,-88.07094000
16.99829102,-92.08291000
17.02880859,-95.01579000
17.05932617,-98.30108000
17.08984375,-85.78408000
17.12036133,-79.03477000
17.15087891,-76.21894000
17.18139648,-76.65727000
17.21191406,-79.40170000
17.24243164,-79.44716000
17.27294922,-78.33686000
17.30346680,-79.22138000
17.33398438,-80.93606000
17.36450195,-82.81020000
17.39501953,-86.47234000
17.42553711,-96.80853000
17.45605469,-94.75448000
17.48657227,-87.55481000
17.51708984,-83.83660000
17.54760742,-81.83941000
17.57812500,-82.21351000
17.60864258,-85.35892000
17.63916016,-83.59409000
17.66967773,-75.71803000
17.70019531,-70.89487000
17.73071289,-69.66738000
17.76123047,-73.42580000
17.79174805,-91.15773000
17.82226563,-74.93677000
17.85278320,-73.99850000
17.88330078,-78.59113000
17.91381836,-89.61788000
17.94433594,-91.70361000
17.97485352,-86.42334000
18.00537109,-83.64252000
18.03588867,-82.57736000
18.06640625,-82.49714000
18.09692383,-83.08453000
18.12744141,-85.97292000
18.15795898,-90.12802000
18.18847656,-85.51955000
18.21899414,-83.57415000
18.24951172,-84.76630000
18.28002930,-87.72191000
18.31054688,-91.57462000
18.34106445,-93.83147000
18.37158203,-93.51196000
18.40209961,-94.08676000
18.43261719,-87.34573000
18.46313477,-84.34758000
18.49365234,-84.66179000
18.52416992,-86.45225000
18.55468750,-90.54489000
18.58520508,-99.43520000
18.61572266,-85.88226000
18.64624023,-81.18653000
18.67675781,-80.53901000
18.70727539,-82.90676000
18.73779297,-85.29160000
18.76831055,-84.71627000
18.79882813,-84.90097000
18.82934570,-87.21619000
18.85986328,-91.69470000
18.89038086,-94.17010000
18.92089844,-90.24239000
18.95141602,-85.81796000
18.98193359,-84.30710000
19.01245117,-85.74179000
19.04296875,-89.52076000
19.07348633,-93.15509000
19.10400391,-92.85519000
19.13452148,-90.14970000
19.16503906,-88.65565000
19.19555664,-87.61108000
19.22607422,-84.62780000
19.25659180,-82.34529000
19.28710938,-81.89966000
19.31762695,-83.07756000
19.34814453,-84.66032000
19.37866211,-85.53096000
19.40917969,-86.15013000
19.43969727,-84.00465000
19.47021484,-81.82703000
19.50073242,-82.57204000
19.53125000,-86.85818000
19.56176758,-87.16336000
19.59228516,-82.06768000
19.62280273,-79.89327000
19.65332031,-79.99221000
19.68383789,-81.23970000
19.71435547,-81.56826000
19.74487305,-80.45782000
19.77539063,-79.62486000
19.80590820,-79.19630000
19.83642578,-78.99960000
19.86694336,-79.39973000
19.89746094,-80.53477000
19.92797852,-82.85328000
19.95849609,-87.16763000
19.98901367,-93.51454000
20.01953125,-101.04320000
20.05004883,-104.01890000
20.08056641,-99.44973000
20.11108398,-103.01750000
20.14160156,-92.44114000
20.17211914,-87.51170000
20.20263672,-85.07180000
20.23315430,-84.22294000
20.26367188,-84.37581000
20.29418945,-84.72968000
20.32470703,-86.00167000
20.35522461,-88.21745000
20.38574219,-87.24477000
20.41625977,-83.90871000
20.44677734,-81.63773000
20.47729492,-81.17839000
20.50781250,-81.82606000
20.53833008,-81.90576000
20.56884766,-81.22679000
20.59936523,-80.93491000
20.62988281,-82.04140000
20.66040039,-84.05452000
20.69091797,-84.17972000
20.72143555,-82.24551000
20.75195313,-80.73187000
20.78247070,-80.12280000
20.81298828,-79.48604000
20.84350586,-78.28379000
20.87402344,-77.13907000
20.90454102,-76.52324000
20.93505859,-75.98833000
20.96557617,-74.98178000
20.99609375,-73.85316000
21.02661133,-73.34346000
21.05712891,-73.77390000
21.08764648,-74.85358000
21.11816406,-76.06403000
21.14868164,-76.84608000
21.17919922,-76.70930000
21.20971680,-76.51888000
21.24023438,-77.27913000
21.27075195,-78.93092000
21.30126953,-81.11564000
21.33178711,-83.98342000
21.36230469,-84.62730000
21.39282227,-82.10168000
21.42333984,-80.57525000
21.45385742,-80.05952000
21.48437500,-79.77052000
21.51489258,-79.45052000
21.54541016,-79.42733000
21.57592773,-80.26817000
21.60644531,-81.66496000
21.63696289,-81.75949000
21.66748047,-79.94080000
21.69799805,-78.20866000
21.72851563,-78.27745000
21.75903320,-80.57476000
21.78955078,-84.09430000
21.82006836,-86.79008000
21.85058594,-88.92458000
21.88110352,-87.32883000
21.91162109,-83.93896000
21.94213867,-81.93284000
21.97265625,-81.38325000
22.00317383,-82.35158000
22.03369141,-85.61760000
22.06420898,-93.81580000
22.09472656,-94.18265000
22.12524414,-92.84680000
22.15576172,-104.63120000
22.18627930,-87.85257000
22.21679688,-83.02335000
22.24731445,-81.79277000
22.27783203,-82.54211000
22.30834961,-84.24550000
22.33886719,-85.80980000
22.36938477,-86.20462000
22.39990234,-85.21584000
22.43041992,-83.77059000
22.46093750,-82.79852000
22.49145508,-82.92676000
22.52197266,-85.37139000
22.55249023,-95.13560000
22.58300781,-90.97139000
22.61352539,-84.21461000
22.64404297,-82.63680000
22.67456055,-83.41394000
22.70507813,-85.65575000
22.73559570,-87.82236000
22.76611328,-87.28165000
22.79663086,-85.48305000
22.82714844,-84.19727000
22.85766602,-84.17371000
22.88818359,-85.99239000
22.91870117,-90.53918000
22.94921875,-99.33459000
22.97973633,-100.23490000
23.01025391,-93.25285000
23.04077148,-88.57787000
23.07128906,-87.44823000
23.10180664,-89.89312000
23.13232422,-97.85427000
23.16284180,-94.18550000
23.19335938,-89.16835000
23.22387695,-87.57714000
23.25439453,-86.13412000
23.28491211,-85.11558000
23.31542969,-85.69235000
23.34594727,-87.28412000
23.37646484,-88.45933000
23.40698242,-89.40840000
23.43750000,-90.59312000
23.46801758,-88.38433000
23.49853516,-85.45062000
23.52905273,-85.27824000
23.55957031,-87.77969000
23.59008789,-89.99294000
23.62060547,-91.21284000
23.65112305,-98.75091000
23.68164063,-95.56607000
23.71215820,-87.69128000
23.74267578,-84.91766000
23.77319336,-83.78458000
23.80371094,-83.65070000
23.83422852,-85.10703000
23.86474609,-88.29752000
23.89526367,-89.62006000
23.92578125,-88.60641000
23.95629883,-87.53701000
23.98681641,-85.22746000
24.01733398,-83.49806000
24.04785156,-84.41884000
24.07836914,-89.54185000
24.10888672,-88.96988000
24.13940430,-84.45756000
24.16992188,-83.61485000
24.20043945,-85.57863000
24.23095703,-89.67358000
24.26147461,-89.43370000
24.29199219,-87.71492000
24.32250977,-87.68917000
24.35302734,-89.89617000
24.38354492,-99.22604000
24.41406250,-95.88113000
24.44458008,-88.68690000
24.47509766,-87.40498000
24.50561523,-88.95331000
24.53613281,-90.44411000
24.56665039,-88.94951000
24.59716797,-87.20154000
24.62768555,-86.47453000
24.65820313,-86.72083000
24.68872070,-87.47238000
24.71923828,-87.88326000
24.74975586,-87.21935000
24.78027344,-85.58694000
24.81079102,-84.38225000
24.84130859,-84.89246000
24.87182617,-86.91312000
24.90234375,-85.81682000
24.93286133,-82.70001000
24.96337891,-82.21870000
24.99389648,-85.79536000
25.02441406,-99.35249000
25.05493164,-93.15541000
25.08544922,-88.92570000
25.11596680,-88.08159000
25.14648438,-87.60224000
25.17700195,-86.85123000
25.20751953,-86.03455000
25.23803711,-83.87903000
25.26855469,-82.14761000
25.29907227,-83.50584000
25.32958984,-90.57886000
25.36010742,-93.05360000
25.39062500,-85.83223000
25.42114258,-84.61140000
25.45166016,-86.87148000
25.48217773,-92.63672000
25.51269531,-97.70702000
25.54321289,-96.68740000
25.57373047,-90.88490000
25.60424805,-87.37151000
25.63476563,-86.04196000
25.66528320,-83.92673000
25.69580078,-81.88554000
25.72631836,-81.61495000
25.75683594,-83.71486000
25.78735352,-90.18979000
25.81787109,-95.59320000
25.84838867,-85.74955000
25.87890625,-82.59736000
25.90942383,-82.35256000
25.93994141,-84.43237000
25.97045898,-88.59192000
26.00097656,-94.49994000
26.03149414,-103.42070000
26.06201172,-101.67980000
26.09252930,-95.31534000
26.12304688,-90.08526000
26.15356445,-85.74199000
26.18408203,-83.40611000
26.21459961,-83.26054000
26.24511719,-84.68842000
26.27563477,-86.44073000
26.30615234,-88.05035000
26.33666992,-90.51269000
26.36718750,-90.77527000
26.39770508,-88.80535000
26.42822266,-90.99805000
26.45874023,-103.22220000
26.48925781,-93.89648000
26.51977539,-89.76717000
26.55029297,-88.75327000
26.58081055,-89.09111000
26.61132813,-90.14606000
26.64184570,-91.15489000
26.67236328,-90.71774000
26.70288086,-87.76907000
26.73339844,-85.03941000
26.76391602,-83.86124000
26.79443359,-84.01857000
26.82495117,-85.17371000
26.85546875,-87.35058000
26.88598633,-90.51316000
26.91650391,-94.15359000
26.94702148,-92.10826000
26.97753906,-90.74911000
27.00805664,-96.53059000
27.03857422,-105.41080000
27.06909180,-99.58060000
27.09960938,-98.52398000
27.13012695,-94.94016000
27.16064453,-95.96073000
27.19116211,-91.02039000
27.22167969,-87.27969000
27.25219727,-88.07563000
27.28271484,-96.53633000
27.31323242,-95.86081000
27.34375000,-92.07198000
27.37426758,-92.80723000
27.40478516,-87.33939000
27.43530273,-84.97189000
27.46582031,-86.56417000
27.49633789,-92.13326000
27.52685547,-97.50574000
27.55737305,-95.86521000
27.58789063,-93.75948000
27.61840820,-89.81926000
27.64892578,-86.02298000
27.67944336,-84.11353000
27.70996094,-84.63715000
27.74047852,-86.96420000
27.77099609,-87.92957000
27.80151367,-86.48215000
27.83203125,-84.40749000
27.86254883,-82.88789000
27.89306641,-82.44046000
27.92358398,-83.06227000
27.95410156,-85.14938000
27.98461914,-89.97461000
28.01513672,-96.81446000
28.04565430,-96.85774000
28.07617188,-96.57689000
28.10668945,-89.15262000
28.13720703,-86.44756000
28.16772461,-86.07787000
28.19824219,-85.55550000
28.22875977,-86.84860000
28.25927734,-92.99553000
28.28979492,-100.35450000
28.32031250,-99.66080000
28.35083008,-92.19104000
28.38134766,-86.60378000
28.41186523,-85.35847000
28.44238281,-86.69104000
28.47290039,-89.28320000
28.50341797,-92.86965000
28.53393555,-99.95258000
28.56445313,-96.05717000
28.59497070,-91.97297000
28.62548828,-91.52741000
28.65600586,-92.77431000
28.68652344,-94.38561000
28.71704102,-91.00571000
28.74755859,-87.87589000
28.77807617,-88.16460000
28.80859375,-91.60074000
28.83911133,-89.55936000
28.86962891,-83.63440000
28.90014648,-80.52370000
28.93066406,-79.46375000
28.96118164,-79.79577000
28.99169922,-81.20950000
29.02221680,-83.66612000
29.05273438,-86.98341000
29.08325195,-88.15303000
29.11376953,-86.30927000
29.14428711,-86.16530000
29.17480469,-88.21224000
29.20532227,-90.69932000
29.23583984,-90.69305000
29.26635742,-86.95977000
29.29687500,-85.02785000
29.32739258,-86.16741000
29.35791016,-85.88092000
29.38842773,-82.56568000
29.41894531,-81.82130000
29.44946289,-84.19685000
29.47998047,-87.24191000
29.51049805,-86.59026000
29.54101563,-86.40993000
29.57153320,-87.52992000
29.60205078,-89.06846000
29.63256836,-90.83884000
29.66308594,-92.06334000
29.69360352,-92.67102000
29.72412109,-93.66205000
29.75463867,-93.68909000
29.78515625,-94.51599000
29.81567383,-100.46630000
29.84619141,-92.77834000
29.87670898,-87.02327000
29.90722656,-85.36854000
29.93774414,-86.95181000
29.96826172,-92.33250000
29.99877930,-89.40628000
30.02929688,-84.91948000
30.05981445,-83.34408000
30.09033203,-83.12893000
30.12084961,-83.68863000
30.15136719,-85.23189000
30.18188477,-89.18246000
30.21240234,-94.34983000
30.24291992,-89.23370000
30.27343750,-89.09979000
30.30395508,-97.07424000
30.33447266,-100.11040000
30.36499023,-93.33675000
30.39550781,-94.51386000
30.42602539,-111.11280000
30.45654297,-89.12919000
30.48706055,-83.66314000
30.51757813,-83.52776000
30.54809570,-89.08572000
30.57861328,-98.81754000
30.60913086,-89.83257000
30.63964844,-89.52707000
30.67016602,-95.32318000
30.70068359,-99.50214000
30.73120117,-88.68549000
30.76171875,-85.99938000
30.79223633,-86.23749000
30.82275391,-86.25622000
30.85327148,-85.13858000
30.88378906,-84.50131000
30.91430664,-86.06716000
30.94482422,-90.90244000
30.97534180,-90.00285000
31.00585938,-86.01624000
31.03637695,-84.42337000
31.06689453,-85.22285000
31.09741211,-89.22559000
31.12792969,-104.49630000
31.15844727,-91.33405000
31.18896484,-87.02964000
31.21948242,-87.84939000
31.25000000,-93.92160000
31.28051758,-101.01340000
31.31103516,-89.11127000
31.34155273,-84.68463000
31.37207031,-82.02903000
31.40258789,-79.97672000
31.43310547,-78.97783000
31.46362305,-79.66679000
31.49414063,-81.91014000
31.52465820,-84.14363000
31.55517578,-84.12411000
31.58569336,-83.17039000
31.61621094,-83.49344000
31.64672852,-85.24228000
31.67724609,-87.32365000
31.70776367,-89.77443000
31.73828125,-89.62842000
31.76879883,-86.15192000
31.79931641,-84.96864000
31.82983398,-86.73306000
31.86035156,-90.88162000
31.89086914,-92.90659000
31.92138672,-93.31638000
31.95190430,-94.90015000
31.98242188,-93.05576000
32.01293945,-91.41396000
32.04345703,-91.76314000
32.07397461,-92.09084000
32.10449219,-89.57545000
32.13500977,-87.10471000
32.16552734,-86.88674000
32.19604492,-88.99266000
32.22656250,-90.73987000
32.25708008,-91.11591000
32.28759766,-93.74248000
32.31811523,-96.08420000
32.34863281,-88.89587000
32.37915039,-84.91653000
32.40966797,-83.52399000
32.44018555,-83.27921000
32.47070313,-82.91501000
32.50122070,-82.53181000
32.53173828,-83.13362000
32.56225586,-84.67696000
32.59277344,-85.07138000
32.62329102,-83.60608000
32.65380859,-82.92557000
32.68432617,-84.42014000
32.71484375,-89.09148000
32.74536133,-94.53517000
32.77587891,-89.90417000
32.80639648,-88.45352000
32.83691406,-88.22495000
32.86743164,-86.83893000
32.89794922,-85.74924000
32.92846680,-85.66322000
32.95898438,-86.88335000
32.98950195,-88.94944000
33.02001953,-89.52454000
33.05053711,-90.65827000
33.08105469,-93.46832000
33.11157227,-96.19582000
33.14208984,-105.22200000
33.17260742,-96.09283000
33.20312500,-89.47725000
33.23364258,-86.77286000
33.26416016,-86.20204000
33.29467773,-87.88452000
33.32519531,-93.81142000
33.35571289,-102.19650000
33.38623047,-90.56614000
33.41674805,-87.59035000
33.44726563,-87.50668000
33.47778320,-87.89807000
33.50830078,-86.47132000
33.53881836,-84.80675000
33.56933594,-84.42188000
33.59985352,-85.41222000
33.63037109,-87.50779000
33.66088867,-90.77495000
33.69140625,-91.21291000
33.72192383,-89.63154000
33.75244141,-93.52280000
33.78295898,-102.56280000
33.81347656,-95.46004000
33.84399414,-106.31030000
33.87451172,-94.97978000
33.90502930,-91.82249000
33.93554688,-94.75228000
33.96606445,-91.12472000
33.99658203,-86.21159000
34.02709961,-83.92453000
34.05761719,-83.53019000
34.08813477,-85.29502000
34.11865234,-91.08353000
34.14916992,-95.73524000
34.17968750,-88.48527000
34.21020508,-87.34862000
34.24072266,-89.85284000
34.27124023,-95.67924000
34.30175781,-102.80600000
34.33227539,-96.82305000
34.36279297,-97.38631000
34.39331055,-105.96150000
34.42382813,-94.17464000
34.45434570,-91.03692000
34.48486328,-91.92417000
34.51538086,-93.62486000
34.54589844,-92.26135000
34.57641602,-90.69293000
34.60693359,-89.55318000
34.63745117,-89.02478000
34.66796875,-90.48161000
34.69848633,-93.13051000
34.72900391,-92.93689000
34.75952148,-88.85962000
34.79003906,-84.37209000
34.82055664,-81.93733000
34.85107422,-81.55048000
34.88159180,-82.67877000
34.91210938,-84.28176000
34.94262695,-85.59468000
34.97314453,-88.38638000
35.00366211,-96.86949000
35.03417969,-98.12856000
35.06469727,-89.55368000
35.09521484,-85.49242000
35.12573242,-84.14771000
35.15625000,-85.66167000
35.18676758,-89.22638000
35.21728516,-89.23517000
35.24780273,-87.01873000
35.27832031,-86.67297000
35.30883789,-87.59778000
35.33935547,-88.13725000
35.36987305,-88.97672000
35.40039063,-90.78081000
35.43090820,-92.49129000
35.46142578,-95.01057000
35.49194336,-92.75330000
35.52246094,-88.34807000
35.55297852,-86.90228000
35.58349609,-88.62171000
35.61401367,-92.59281000
35.64453125,-91.81763000
35.67504883,-89.56275000
35.70556641,-89.02480000
35.73608398,-87.58709000
35.76660156,-84.84653000
35.79711914,-84.06418000
35.82763672,-87.55837000
35.85815430,-94.69397000
35.88867188,-88.90694000
35.91918945,-90.41352000
35.94970703,-91.74535000
35.98022461,-85.97914000
36.01074219,-85.08356000
36.04125977,-86.58318000
36.07177734,-87.15141000
36.10229492,-87.93861000
36.13281250,-90.40000000
36.16333008,-95.31326000
36.19384766,-107.70620000
36.22436523,-90.70885000
36.25488281,-87.22530000
36.28540039,-87.43146000
36.31591797,-85.57532000
36.34643555,-81.41312000
36.37695313,-79.09795000
36.40747070,-78.79301000
36.43798828,-79.88119000
36.46850586,-81.14348000
36.49902344,-82.09443000
36.52954102,-84.35240000
36.56005859,-89.31326000
36.59057617,-96.32320000
36.62109375,-101.64270000
36.65161133,-92.27565000
36.68212891,-87.19306000
36.71264648,-84.55260000
36.74316406,-83.39932000
36.77368164,-84.71342000
36.80419922,-91.08092000
36.83471680,-95.90096000
36.86523438,-89.08775000
36.89575195,-88.77628000
36.92626953,-91.74193000
36.95678711,-92.73500000
36.98730469,-90.06138000
37.01782227,-93.14793000
37.04833984,-99.75102000
37.07885742,-87.53915000
37.10937500,-85.45174000
37.13989258,-87.68317000
37.17041016,-91.22945000
37.20092773,-91.49539000
37.23144531,-92.44536000
37.26196289,-88.93152000
37.29248047,-84.23717000
37.32299805,-82.34361000
37.35351563,-83.28127000
37.38403320,-87.29694000
37.41455078,-89.16339000
37.44506836,-84.51598000
37.47558594,-82.03439000
37.50610352,-81.78467000
37.53662109,-83.45330000
37.56713867,-86.56073000
37.59765625,-89.70325000
37.62817383,-92.15249000
37.65869141,-94.15051000
37.68920898,-92.49068000
37.71972656,-92.04886000
37.75024414,-96.50200000
37.78076172,-98.63755000
37.81127930,-93.22887000
37.84179688,-91.58009000
37.87231445,-93.16818000
37.90283203,-95.75662000
37.93334961,-92.13716000
37.96386719,-86.06085000
37.99438477,-82.84606000
38.02490234,-82.51065000
38.05541992,-84.38663000
38.08593750,-86.86853000
38.11645508,-87.56287000
38.14697266,-87.19735000
38.17749023,-86.35204000
38.20800781,-85.56100000
38.23852539,-85.99049000
38.26904297,-87.17619000
38.29956055,-86.49047000
38.33007813,-85.19170000
38.36059570,-86.22733000
38.39111328,-88.03581000
38.42163086,-88.49023000
38.45214844,-91.00132000
38.48266602,-94.65729000
38.51318359,-94.60610000
38.54370117,-93.87176000
38.57421875,-94.89359000
38.60473633,-98.92006000
38.63525391,-96.06838000
38.66577148,-91.87340000
38.69628906,-90.74927000
38.72680664,-90.86353000
38.75732422,-90.97478000
38.78784180,-90.80965000
38.81835938,-88.73941000
38.84887695,-86.50746000
38.87939453,-86.05403000
38.90991211,-87.10930000
38.94042969,-86.63087000
38.97094727,-84.99686000
39.00146484,-86.55515000
39.03198242,-94.26596000
39.06250000,-90.00623000
39.09301758,-86.77670000
39.12353516,-88.92747000
39.15405273,-94.84502000
39.18457031,-99.32013000
39.21508789,-93.55526000
39.24560547,-87.87948000
39.27612305,-86.10907000
39.30664063,-86.08944000
39.33715820,-86.01295000
39.36767578,-85.69981000
39.39819336,-85.03693000
39.42871094,-84.03014000
39.45922852,-82.87572000
39.48974609,-82.04543000
39.52026367,-82.75135000
39.55078125,-86.21482000
39.58129883,-94.04877000
39.61181641,-93.96538000
39.64233398,-89.60265000
39.67285156,-88.84686000
39.70336914,-90.05101000
39.73388672,-94.84254000
39.76440430,-98.61282000
39.79492188,-89.91920000
39.82543945,-86.78156000
39.85595703,-86.01999000
39.88647461,-87.15199000
39.91699219,-90.73904000
39.94750977,-92.54470000
39.97802734,-88.39066000
40.00854492,-86.73592000
40.03906250,-88.27653000
40.06958008,-92.71180000
40.10009766,-95.58158000
40.13061523,-92.01822000
40.16113281,-88.31687000
40.19165039,-88.36046000
40.22216797,-94.43114000
40.25268555,-92.33049000
40.28320313,-86.48993000
40.31372070,-85.91808000
40.34423828,-89.99359000
40.37475586,-93.09535000
40.40527344,-90.03269000
40.43579102,-92.83389000
40.46630859,-91.24480000
40.49682617,-87.68807000
40.52734375,-89.21823000
40.55786133,-99.27346000
40.58837891,-93.78215000
40.61889648,-87.53819000
40.64941406,-85.89713000
40.67993164,-86.43474000
40.71044922,-88.03273000
40.74096680,-89.19067000
40.77148438,-88.35145000
40.80200195,-86.35139000
40.83251953,-85.51804000
40.86303711,-86.71645000
40.89355469,-89.51689000
40.92407227,-91.65951000
40.95458984,-90.25037000
40.98510742,-86.77359000
41.01562500,-84.01630000
41.04614258,-83.13175000
41.07666016,-83.86876000
41.10717773,-84.15259000
41.13769531,-83.75731000
41.16821289,-85.00740000
41.19873047,-88.66421000
41.22924805,-94.54982000
41.25976563,-97.78629000
41.29028320,-94.44392000
41.32080078,-91.69064000
41.35131836,-89.88593000
41.38183594,-88.99452000
41.41235352,-88.91595000
41.44287109,-88.40781000
41.47338867,-87.19603000
41.50390625,-87.12482000
41.53442383,-90.76112000
41.56494141,-92.24273000
41.59545898,-85.48096000
41.62597656,-83.56915000
41.65649414,-84.65361000
41.68701172,-85.81728000
41.71752930,-84.99206000
41.74804688,-85.05886000
41.77856445,-87.55462000
41.80908203,-92.95273000
41.83959961,-93.48180000
41.87011719,-88.58201000
41.90063477,-87.61218000
41.93115234,-93.80269000
41.96166992,-93.93837000
41.99218750,-86.17730000
42.02270508,-88.49283000
42.05322266,-99.13519000
42.08374023,-85.73925000
42.11425781,-83.86544000
42.14477539,-84.24389000
42.17529297,-83.69636000
42.20581055,-83.30582000
42.23632813,-83.96049000
42.26684570,-86.37987000
42.29736328,-93.67888000
42.32788086,-98.04000000
42.35839844,-88.62552000
42.38891602,-86.18880000
42.41943359,-86.58501000
42.44995117,-89.28841000
42.48046875,-91.80595000
42.51098633,-92.48628000
42.54150391,-91.75574000
42.57202148,-91.07151000
42.60253906,-95.68691000
42.63305664,-88.57169000
42.66357422,-82.70873000
42.69409180,-81.40503000
42.72460938,-83.27596000
42.75512695,-86.40832000
42.78564453,-88.01659000
42.81616211,-91.81828000
42.84667969,-110.23840000
42.87719727,-96.53095000
42.90771484,-94.26538000
42.93823242,-96.08592000
42.96875000,-96.44580000
42.99926758,-97.97736000
43.02978516,-111.08050000
43.06030273,-93.67607000
43.09082031,-88.29552000
43.12133789,-85.79643000
43.15185547,-84.60170000
43.18237305,-84.94796000
43.21289063,-86.48325000
43.24340820,-87.75878000
43.27392578,-88.75851000
43.30444336,-91.54849000
43.33496094,-93.08610000
43.36547852,-88.80708000
43.39599609,-87.44411000
43.42651367,-87.01880000
43.45703125,-83.52182000
43.48754883,-80.70525000
43.51806641,-80.13927000
43.54858398,-81.72156000
43.57910156,-85.07930000
43.60961914,-88.66454000
43.64013672,-88.50465000
43.67065430,-86.06679000
43.70117188,-84.18065000
43.73168945,-83.23777000
43.76220703,-84.20096000
43.79272461,-89.58450000
43.82324219,-104.10290000
43.85375977,-89.26010000
43.88427734,-85.88703000
43.91479492,-83.42316000
43.94531250,-81.40610000
43.97583008,-80.71445000
44.00634766,-81.99809000
44.03686523,-85.79143000
44.06738281,-91.43456000
44.09790039,-88.99856000
44.12841797,-85.80432000
44.15893555,-84.89636000
44.18945313,-85.87473000
44.21997070,-88.69275000
44.25048828,-92.70672000
44.28100586,-94.75838000
44.31152344,-93.94276000
44.34204102,-92.81604000
44.37255859,-88.89276000
44.40307617,-86.32514000
44.43359375,-85.78645000
44.46411133,-86.20633000
44.49462891,-87.28576000
44.52514648,-88.79771000
44.55566406,-90.41411000
44.58618164,-89.86401000
44.61669922,-87.77834000
44.64721680,-88.11748000
44.67773438,-91.08002000
44.70825195,-94.40365000
44.73876953,-96.38606000
44.76928711,-92.74506000
44.79980469,-87.38181000
44.83032227,-83.07268000
44.86083984,-81.00710000
44.89135742,-81.34968000
44.92187500,-84.00520000
44.95239258,-88.42243000
44.98291016,-90.71461000
45.01342773,-87.52387000
45.04394531,-84.55437000
45.07446289,-83.74362000
45.10498047,-84.79484000
45.13549805,-87.71193000
45.16601563,-95.11583000
45.19653320,-90.87444000
45.22705078,-83.92465000
45.25756836,-81.26767000
45.28808594,-80.88981000
45.31860352,-82.28046000
45.34912109,-86.26862000
45.37963867,-91.21333000
45.41015625,-84.21218000
45.44067383,-81.11100000
45.47119141,-81.80556000
45.50170898,-85.92268000
45.53222656,-87.19910000
45.56274414,-82.50676000
45.59326172,-80.56794000
45.62377930,-81.65042000
45.65429688,-85.73964000
45.68481445,-92.96341000
45.71533203,-107.39280000
45.74584961,-96.22745000
45.77636719,-90.44316000
45.80688477,-89.44305000
45.83740234,-90.02303000
45.86791992,-90.27248000
45.89843750,-91.24405000
45.92895508,-90.46907000
45.95947266,-86.51855000
45.98999023,-82.53638000
46.02050781,-80.05576000
46.05102539,-80.02786000
46.08154297,-83.57410000
46.11206055,-92.73759000
46.14257813,-95.50758000
46.17309570,-97.96095000
46.20361328,-103.84940000
46.23413086,-104.34470000
46.26464844,-93.34010000
46.29516602,-91.07146000
46.32568359,-91.36543000
46.35620117,-90.97230000
46.38671875,-90.40638000
46.41723633,-90.09345000
46.44775391,-91.19621000
46.47827148,-96.69528000
46.50878906,-105.39040000
46.53930664,-96.17139000
46.56982422,-93.96822000
46.60034180,-92.69836000
46.63085938,-91.06438000
46.66137695,-88.58611000
46.69189453,-87.75114000
46.72241211,-90.03497000
46.75292969,-98.36137000
46.78344727,-100.90940000
46.81396484,-91.71318000
46.84448242,-89.52327000
46.87500000,-92.33661000
46.90551758,-100.11860000
46.93603516,-87.92523000
46.96655273,-83.69504000
46.99707031,-82.49660000
47.02758789,-83.15286000
47.05810547,-85.69450000
47.08862305,-91.08398000
47.11914063,-90.93744000
47.14965820,-85.63620000
47.18017578,-84.06705000
47.21069336,-84.93556000
47.24121094,-87.60213000
47.27172852,-92.41258000
47.30224609,-96.27473000
47.33276367,-97.36588000
47.36328125,-92.79965000
47.39379883,-84.74448000
47.42431641,-81.49095000
47.45483398,-81.49502000
47.48535156,-83.89772000
47.51586914,-86.48398000
47.54638672,-88.80756000
47.57690430,-100.59580000
47.60742188,-89.46898000
47.63793945,-82.78439000
47.66845703,-80.09256000
47.69897461,-79.71543000
47.72949219,-81.92206000
47.76000977,-87.82821000
47.79052734,-102.73990000
47.82104492,-100.28010000
47.85156250,-93.03989000
47.88208008,-87.83463000
47.91259766,-85.28640000
47.94311523,-84.58246000
47.97363281,-84.72714000
48.00415039,-84.73946000
48.03466797,-84.19681000
48.06518555,-83.90915000
48.09570313,-85.37079000
48.12622070,-88.51186000
48.15673828,-86.34456000
48.18725586,-83.63391000
48.21777344,-83.71149000
48.24829102,-85.94532000
48.27880859,-89.03680000
48.30932617,-92.70959000
48.33984375,-99.03073000
48.37036133,-100.81090000
48.40087891,-104.38950000
48.43139648,-94.94755000
48.46191406,-92.08327000
48.49243164,-96.13548000
48.52294922,-98.41925000
48.55346680,-90.61264000
48.58398438,-88.29963000
48.61450195,-87.48860000
48.64501953,-85.67833000
48.67553711,-84.94864000
48.70605469,-86.16418000
48.73657227,-87.42825000
48.76708984,-86.76772000
48.79760742,-85.88532000
48.82812500,-87.05885000
48.85864258,-91.16164000
48.88916016,-97.56400000
48.91967773,-99.65652000
48.95019531,-98.57787000
48.98071289,-96.60794000
49.01123047,-92.30956000
49.04174805,-87.21794000
49.07226563,-83.43514000
49.10278320,-81.58990000
49.13330078,-81.78902000
49.16381836,-84.12378000
49.19433594,-89.20433000
49.22485352,-101.51810000
49.25537109,-91.92231000
49.28588867,-87.04753000
49.31640625,-85.78872000
49.34692383,-85.70052000
49.37744141,-85.56340000
49.40795898,-85.91771000
49.43847656,-87.07866000
49.46899414,-88.18249000
49.49951172,-88.85369000
49.53002930,-90.36893000
49.56054688,-92.59674000
49.59106445,-88.23427000
49.62158203,-84.56600000
49.65209961,-83.19907000
49.68261719,-83.06119000
49.71313477,-84.06528000
49.74365234,-86.50025000
49.77416992,-88.33356000
49.80468750,-87.06588000
49.83520508,-86.26064000
49.86572266,-87.74924000
49.89624023,-95.84389000
49.92675781,-92.30232000
49.95727539,-88.98248000
49.98779297,-91.89724000
50.01831055,-86.08003000
