Frequency,Channel A
(MHz),(dBu)

0.00000000,-15.67577000
0.03051758,-15.97955000
0.06103516,-20.94496000
0.09155273,-30.22747000
0.12207031,-48.12963000
0.15258789,-55.18661000
0.18310547,-55.76632000
0.21362305,-59.97802000
0.24414063,-71.64700000
0.27465820,-61.25240000
0.30517578,-63.74306000
0.33569336,-61.28695000
0.36621094,-56.35941000
0.39672852,-54.07527000
0.42724609,-54.78076000
0.45776367,-58.79551000
0.48828125,-66.90728000
0.51879883,-63.77113000
0.54931641,-64.54078000
0.57983398,-66.98454000
0.61035156,-78.72156000
0.64086914,-62.73267000
0.67138672,-57.32531000
0.70190430,-58.24676000
0.73242188,-65.84136000
0.76293945,-64.06033000
0.79345703,-60.06024000
0.82397461,-60.80868000
0.85449219,-63.36975000
0.88500977,-64.19971000
0.91552734,-64.20557000
0.94604492,-67.18116000
0.97656250,-80.86723000
1.00708008,-68.22227000
1.03759766,-62.59436000
1.06811523,-58.28499000
1.09863281,-56.13530000
1.12915039,-57.94142000
1.15966797,-67.88820000
1.19018555,-67.57726000
1.22070313,-63.23048000
1.25122070,-65.44447000
1.28173828,-68.26920000
1.31225586,-69.48910000
1.34277344,-67.77838000
1.37329102,-66.36406000
1.40380859,-67.53543000
1.43432617,-69.51890000
1.46484375,-67.67129000
1.49536133,-65.86646000
1.52587891,-65.81552000
1.55639648,-65.11516000
1.58691406,-66.32742000
1.61743164,-74.75935000
1.64794922,-71.80534000
1.67846680,-68.49801000
1.70898438,-72.32220000
1.73950195,-74.22627000
1.77001953,-69.52338000
1.80053711,-67.19942000
1.83105469,-65.55850000
1.86157227,-65.10669000
1.89208984,-66.64922000
1.92260742,-69.93756000
1.95312500,-74.56140000
1.98364258,-91.97747000
2.01416016,-70.29041000
2.04467773,-65.45502000
2.07519531,-64.44161000
2.10571289,-63.55827000
2.13623047,-61.84742000
2.16674805,-61.64635000
2.19726563,-63.89910000
2.22778320,-71.28175000
2.25830078,-71.50851000
2.28881836,-65.64186000
2.31933594,-68.02036000
2.34985352,-90.69137000
2.38037109,-68.03220000
2.41088867,-64.80015000
2.44140625,-65.04115000
2.47192383,-67.58392000
2.50244141,-71.76292000
2.53295898,-75.10394000
2.56347656,-77.92525000
2.59399414,-74.28115000
2.62451172,-69.43699000
2.65502930,-68.62408000
2.68554688,-71.72870000
2.71606445,-75.09810000
2.74658203,-70.15181000
2.77709961,-67.68603000
2.80761719,-69.86237000
2.83813477,-75.81892000
2.86865234,-71.25359000
2.89916992,-69.82128000
2.92968750,-69.44054000
2.96020508,-68.63147000
2.99072266,-70.00220000
3.02124023,-71.55876000
3.05175781,-69.32887000
3.08227539,-68.13027000
3.11279297,-66.75220000
3.14331055,-64.49079000
3.17382813,-64.99986000
3.20434570,-71.26435000
3.23486328,-78.84935000
3.26538086,-70.20277000
3.29589844,-68.09392000
3.32641602,-66.22496000
3.35693359,-67.00912000
3.38745117,-77.49081000
3.41796875,-69.14124000
3.44848633,-63.81255000
3.47900391,-64.47678000
3.50952148,-69.09213000
3.54003906,-77.95703000
3.57055664,-77.84574000
3.60107422,-68.48412000
3.63159180,-66.93785000
3.66210938,-69.01979000
3.69262695,-68.34241000
3.72314453,-66.73602000
3.75366211,-67.46223000
3.78417969,-67.90857000
3.81469727,-69.54308000
3.84521484,-79.28867000
3.87573242,-72.41283000
3.90625000,-67.78417000
3.93676758,-68.05366000
3.96728516,-69.94010000
3.99780273,-67.92388000
4.02832031,-65.90199000
4.05883789,-66.75121000
4.08935547,-69.58958000
4.11987305,-73.48445000
4.15039063,-83.99071000
4.18090820,-71.46279000
4.21142578,-67.06981000
4.24194336,-66.17168000
4.27246094,-65.41942000
4.30297852,-65.35462000
4.33349609,-68.55618000
4.36401367,-69.78984000
4.39453125,-67.98064000
4.42504883,-74.15081000
4.45556641,-73.40917000
4.48608398,-65.63514000
4.51660156,-64.43314000
4.54711914,-67.45258000
4.57763672,-78.35483000
4.60815430,-73.06535000
4.63867188,-71.67561000
4.66918945,-72.79724000
4.69970703,-71.58313000
4.73022461,-70.57820000
4.76074219,-67.98011000
4.79125977,-67.19519000
4.82177734,-68.89182000
4.85229492,-73.66579000
4.88281250,-85.76389000
4.91333008,-70.92187000
4.94384766,-67.88940000
4.97436523,-69.45001000
5.00488281,-70.33731000
5.03540039,-67.57232000
5.06591797,-67.15387000
5.09643555,-69.80009000
5.12695313,-78.56375000
5.15747070,-72.37256000
5.18798828,-66.63227000
5.21850586,-64.88270000
5.24902344,-65.31855000
5.27954102,-68.21529000
5.31005859,-74.27010000
5.34057617,-81.09843000
5.37109375,-87.04805000
5.40161133,-87.36302000
5.43212891,-77.84523000
5.46264648,-72.45364000
5.49316406,-70.15248000
5.52368164,-70.22864000
5.55419922,-71.41862000
5.58471680,-73.82494000
5.61523438,-75.45751000
5.64575195,-68.04474000
5.67626953,-64.18303000
5.70678711,-64.19946000
5.73730469,-68.88412000
5.76782227,-80.29395000
5.79833984,-70.94239000
5.82885742,-66.47209000
5.85937500,-64.67852000
5.88989258,-65.62831000
5.92041016,-65.32658000
5.95092773,-63.38649000
5.98144531,-64.24570000
6.01196289,-70.35829000
6.04248047,-74.74690000
6.07299805,-65.04408000
6.10351563,-61.79781000
6.13403320,-61.78217000
6.16455078,-64.37791000
6.19506836,-65.84492000
6.22558594,-66.53566000
6.25610352,-71.61782000
6.28662109,-79.65717000
6.31713867,-77.79207000
6.34765625,-69.35834000
6.37817383,-65.64015000
6.40869141,-65.22757000
6.43920898,-65.88420000
6.46972656,-67.18105000
6.50024414,-69.98621000
6.53076172,-74.15893000
6.56127930,-82.30797000
6.59179688,-75.49527000
6.62231445,-70.18838000
6.65283203,-69.63351000
6.68334961,-71.79068000
6.71386719,-73.75927000
6.74438477,-76.53635000
6.77490234,-84.47746000
6.80541992,-84.54613000
6.83593750,-80.37538000
6.86645508,-76.45519000
6.89697266,-74.60535000
6.92749023,-74.90197000
6.95800781,-76.57725000
6.98852539,-79.33708000
7.01904297,-82.98035000
7.04956055,-88.63185000
7.08007813,-90.92307000
7.11059570,-82.00996000
7.14111328,-74.73917000
7.17163086,-72.47527000
7.20214844,-74.37467000
7.23266602,-79.72815000
7.26318359,-84.93854000
7.29370117,-85.79571000
7.32421875,-86.10770000
7.35473633,-87.02114000
7.38525391,-88.39173000
7.41577148,-86.50451000
7.44628906,-80.22575000
7.47680664,-77.97533000
7.50732422,-78.68513000
7.53784180,-79.10278000
7.56835938,-79.47318000
7.59887695,-81.88511000
7.62939453,-88.02298000
7.65991211,-97.72541000
7.69042969,-83.40507000
7.72094727,-78.72783000
7.75146484,-76.77604000
7.78198242,-76.79743000
7.81250000,-77.36265000
7.84301758,-77.63898000
7.87353516,-80.64674000
7.90405273,-86.61401000
7.93457031,-83.23164000
7.96508789,-76.53163000
7.99560547,-73.30884000
8.02612305,-73.93546000
8.05664063,-77.56158000
8.08715820,-82.83363000
8.11767578,-90.57019000
8.14819336,-91.71810000
8.17871094,-82.12025000
8.20922852,-75.65517000
8.23974609,-73.80652000
8.27026367,-76.05549000
8.30078125,-78.54343000
8.33129883,-76.12350000
8.36181641,-77.71236000
8.39233398,-87.75245000
8.42285156,-88.40336000
8.45336914,-86.29574000
8.48388672,-83.48608000
8.51440430,-80.92704000
8.54492188,-79.88300000
8.57543945,-78.81256000
8.60595703,-78.70938000
8.63647461,-78.80455000
8.66699219,-78.02106000
8.69750977,-77.67192000
8.72802734,-78.89142000
8.75854492,-81.97581000
8.78906250,-87.04489000
8.81958008,-94.75294000
8.85009766,-95.50883000
8.88061523,-97.55121000
8.91113281,-85.29359000
8.94165039,-77.39165000
8.97216797,-73.84528000
9.00268555,-73.22219000
9.03320313,-74.92631000
9.06372070,-77.20992000
9.09423828,-78.66082000
9.12475586,-81.39677000
9.15527344,-84.53358000
9.18579102,-84.24081000
9.21630859,-83.40916000
9.24682617,-82.04101000
9.27734375,-79.65282000
9.30786133,-78.58030000
9.33837891,-79.83724000
9.36889648,-80.66204000
9.39941406,-77.40399000
9.42993164,-75.07614000
9.46044922,-75.31217000
9.49096680,-78.11194000
9.52148438,-79.56980000
9.55200195,-76.83341000
9.58251953,-75.49913000
9.61303711,-75.66987000
9.64355469,-75.97829000
9.67407227,-76.37411000
9.70458984,-78.35413000
9.73510742,-82.30247000
9.76562500,-83.71133000
9.79614258,-80.94933000
9.82666016,-78.41323000
9.85717773,-77.61272000
9.88769531,-78.55640000
9.91821289,-80.32011000
9.94873047,-82.73128000
9.97924805,-86.69003000
10.00976563,-90.60848000
10.04028320,-92.05974000
10.07080078,-85.18444000
10.10131836,-80.72720000
10.13183594,-79.77136000
10.16235352,-81.25240000
10.19287109,-81.29642000
10.22338867,-78.10154000
10.25390625,-76.63606000
10.28442383,-77.86617000
10.31494141,-79.76961000
10.34545898,-78.84152000
10.37597656,-77.24340000
10.40649414,-77.18996000
10.43701172,-81.34860000
10.46752930,-90.20908000
10.49804688,-81.29703000
10.52856445,-81.37345000
10.55908203,-83.56192000
10.58959961,-81.95239000
10.62011719,-85.41641000
10.65063477,-83.36483000
10.68115234,-78.06481000
10.71166992,-79.85114000
10.74218750,-87.94562000
10.77270508,-79.53028000
10.80322266,-78.83590000
10.83374023,-85.61662000
10.86425781,-92.17513000
10.89477539,-84.88631000
10.92529297,-84.32552000
10.95581055,-80.08347000
10.98632813,-76.23885000
11.01684570,-75.67797000
11.04736328,-77.59615000
11.07788086,-78.46234000
11.10839844,-78.07790000
11.13891602,-79.27872000
11.16943359,-80.85839000
11.19995117,-81.85047000
11.23046875,-82.74224000
11.26098633,-80.52161000
11.29150391,-76.98563000
11.32202148,-75.01602000
11.35253906,-74.85677000
11.38305664,-76.23517000
11.41357422,-80.81342000
11.44409180,-94.80706000
11.47460938,-77.65432000
11.50512695,-74.77405000
11.53564453,-76.01199000
11.56616211,-79.98905000
11.59667969,-89.71928000
11.62719727,-87.86308000
11.65771484,-85.71151000
11.68823242,-103.12130000
11.71875000,-85.28346000
11.74926758,-87.45876000
11.77978516,-87.04756000
11.81030273,-78.27658000
11.84082031,-77.48956000
11.87133789,-78.78816000
11.90185547,-77.23439000
11.93237305,-75.23398000
11.96289063,-72.95255000
11.99340820,-72.02640000
12.02392578,-73.42221000
12.05444336,-76.24772000
12.08496094,-77.60931000
12.11547852,-75.63193000
12.14599609,-73.07535000
12.17651367,-71.90572000
12.20703125,-72.30634000
12.23754883,-74.34370000
12.26806641,-77.46634000
12.29858398,-77.79689000
12.32910156,-75.95757000
12.35961914,-75.23540000
12.39013672,-77.18101000
12.42065430,-84.28474000
12.45117188,-86.58856000
12.48168945,-84.99399000
12.51220703,-90.32063000
12.54272461,-79.12126000
12.57324219,-72.95982000
12.60375977,-70.38290000
12.63427734,-70.93854000
12.66479492,-74.84225000
12.69531250,-82.56432000
12.72583008,-84.05602000
12.75634766,-81.97125000
12.78686523,-82.20883000
12.81738281,-82.82480000
12.84790039,-88.68439000
12.87841797,-90.99284000
12.90893555,-83.55980000
12.93945313,-85.42863000
12.96997070,-86.83808000
13.00048828,-81.97389000
13.03100586,-80.95192000
13.06152344,-81.81779000
13.09204102,-79.80946000
13.12255859,-76.60806000
13.15307617,-75.48329000
13.18359375,-77.10519000
13.21411133,-82.50661000
13.24462891,-90.32871000
13.27514648,-84.33131000
13.30566406,-83.50865000
13.33618164,-86.27216000
13.36669922,-87.17464000
13.39721680,-85.88510000
13.42773438,-85.40614000
13.45825195,-85.59146000
13.48876953,-76.40551000
13.51928711,-69.30373000
13.54980469,-66.92400000
13.58032227,-69.06378000
13.61083984,-78.10307000
13.64135742,-77.27729000
13.67187500,-74.56876000
13.70239258,-78.45934000
13.73291016,-87.52178000
13.76342773,-79.32915000
13.79394531,-76.08759000
13.82446289,-72.91936000
13.85498047,-70.81541000
13.88549805,-71.48723000
13.91601563,-75.29489000
13.94653320,-82.42530000
13.97705078,-89.93880000
14.00756836,-93.33783000
14.03808594,-86.59065000
14.06860352,-82.97389000
14.09912109,-83.71413000
14.12963867,-86.24310000
14.16015625,-89.75394000
14.19067383,-91.91779000
14.22119141,-80.76331000
14.25170898,-77.39482000
14.28222656,-77.37210000
14.31274414,-78.93289000
14.34326172,-79.43402000
14.37377930,-78.76079000
14.40429688,-79.94400000
14.43481445,-82.65137000
14.46533203,-84.42870000
14.49584961,-82.62768000
14.52636719,-80.90834000
14.55688477,-82.23062000
14.58740234,-81.56032000
14.61791992,-76.47384000
14.64843750,-73.80759000
14.67895508,-74.51060000
14.70947266,-77.80608000
14.73999023,-80.04617000
14.77050781,-79.33494000
14.80102539,-77.91545000
14.83154297,-76.68077000
14.86206055,-77.07620000
14.89257813,-80.28961000
14.92309570,-85.65721000
14.95361328,-88.18356000
14.98413086,-87.49374000
15.01464844,-88.13800000
15.04516602,-86.14781000
15.07568359,-83.18678000
15.10620117,-80.95029000
15.13671875,-79.33465000
15.16723633,-80.71066000
15.19775391,-79.68379000
15.22827148,-76.09261000
15.25878906,-75.57813000
15.28930664,-77.34004000
15.31982422,-80.65627000
15.35034180,-83.80272000
15.38085938,-82.79250000
15.41137695,-80.04823000
15.44189453,-76.96287000
15.47241211,-74.63139000
15.50292969,-73.85495000
15.53344727,-74.26474000
15.56396484,-75.23557000
15.59448242,-77.58173000
15.62500000,-83.40623000
15.65551758,-83.87154000
15.68603516,-79.13197000
15.71655273,-78.48290000
15.74707031,-80.13245000
15.77758789,-82.54803000
15.80810547,-83.73755000
15.83862305,-83.12865000
15.86914063,-83.42770000
15.89965820,-85.60263000
15.93017578,-93.24321000
15.96069336,-92.44658000
15.99121094,-86.02906000
16.02172852,-86.88196000
16.05224609,-94.92670000
16.08276367,-92.84644000
16.11328125,-87.38075000
16.14379883,-86.09677000
16.17431641,-85.91843000
16.20483398,-84.83262000
16.23535156,-81.87021000
16.26586914,-78.63353000
16.29638672,-77.67117000
16.32690430,-80.92319000
16.35742188,-89.05476000
16.38793945,-82.95770000
16.41845703,-81.87756000
16.44897461,-84.58961000
16.47949219,-85.32159000
16.51000977,-79.91113000
16.54052734,-76.81092000
16.57104492,-76.28818000
16.60156250,-77.65598000
16.63208008,-79.90073000
16.66259766,-82.88807000
16.69311523,-88.90708000
16.72363281,-87.21996000
16.75415039,-81.96327000
16.78466797,-80.38605000
16.81518555,-81.79660000
16.84570313,-86.60028000
16.87622070,-88.14678000
16.90673828,-83.73549000
16.93725586,-82.52197000
16.96777344,-84.18207000
16.99829102,-87.30127000
17.02880859,-84.14550000
17.05932617,-81.37006000
17.08984375,-82.23486000
17.12036133,-86.30786000
17.15087891,-83.74299000
17.18139648,-81.07689000
17.21191406,-82.71651000
17.24243164,-87.97775000
17.27294922,-91.11345000
17.30346680,-93.32745000
17.33398438,-98.43362000
17.36450195,-95.33634000
17.39501953,-93.43700000
17.42553711,-92.75636000
17.45605469,-92.42471000
17.48657227,-89.83940000
17.51708984,-85.41925000
17.54760742,-82.90706000
17.57812500,-82.94235000
17.60864258,-85.45575000
17.63916016,-86.29322000
17.66967773,-77.41552000
17.70019531,-71.13412000
17.73071289,-68.00204000
17.76123047,-67.00900000
17.79174805,-67.48859000
17.82226563,-69.36913000
17.85278320,-73.00094000
17.88330078,-78.17490000
17.91381836,-83.12981000
17.94433594,-89.13091000
17.97485352,-107.00380000
18.00537109,-93.60957000
18.03588867,-91.08252000
18.06640625,-92.42262000
18.09692383,-94.44267000
18.12744141,-94.13464000
18.15795898,-90.64375000
18.18847656,-85.81158000
18.21899414,-82.97807000
18.24951172,-82.96449000
18.28002930,-86.66812000
18.31054688,-91.05872000
18.34106445,-84.97952000
18.37158203,-82.45737000
18.40209961,-82.30435000
18.43261719,-84.09827000
18.46313477,-87.54353000
18.49365234,-84.38672000
18.52416992,-81.66779000
18.55468750,-82.75418000
18.58520508,-88.17783000
18.61572266,-103.18180000
18.64624023,-91.19004000
18.67675781,-87.58949000
18.70727539,-87.45155000
18.73779297,-88.98721000
18.76831055,-90.43382000
18.79882813,-90.83549000
18.82934570,-90.59373000
18.85986328,-88.24118000
18.89038086,-84.81836000
18.92089844,-83.45322000
18.95141602,-84.19842000
18.98193359,-86.21395000
19.01245117,-90.60639000
19.04296875,-94.13010000
19.07348633,-86.93867000
19.10400391,-85.93823000
19.13452148,-90.31639000
19.16503906,-90.32722000
19.19555664,-86.56926000
19.22607422,-87.92312000
19.25659180,-94.70389000
19.28710938,-91.54993000
19.31762695,-88.08183000
19.34814453,-87.78644000
19.37866211,-89.15643000
19.40917969,-91.99651000
19.43969727,-90.50536000
19.47021484,-86.68777000
19.50073242,-85.57310000
19.53125000,-86.54639000
19.56176758,-88.77068000
19.59228516,-91.51031000
19.62280273,-87.82256000
19.65332031,-84.10076000
19.68383789,-84.68004000
19.71435547,-87.74196000
19.74487305,-85.18266000
19.77539063,-83.99040000
19.80590820,-86.65261000
19.83642578,-95.98637000
19.86694336,-91.14534000
19.89746094,-81.73277000
19.92797852,-78.22468000
19.95849609,-78.31847000
19.98901367,-82.09019000
20.01953125,-89.94602000
20.05004883,-91.91240000
20.08056641,-91.69030000
20.11108398,-94.12769000
20.14160156,-101.80420000
20.17211914,-90.70729000
20.20263672,-86.11253000
20.23315430,-85.55553000
20.26367188,-87.76600000
20.29418945,-90.04153000
20.32470703,-85.91934000
20.35522461,-82.74581000
20.38574219,-82.58083000
20.41625977,-83.21841000
20.44677734,-80.62370000
20.47729492,-78.98407000
20.50781250,-80.92358000
20.53833008,-89.98180000
20.56884766,-87.12483000
20.59936523,-81.98058000
20.62988281,-83.96883000
20.66040039,-94.92180000
20.69091797,-84.03125000
20.72143555,-79.66846000
20.75195313,-77.94455000
20.78247070,-77.75469000
20.81298828,-79.89384000
20.84350586,-82.23382000
20.87402344,-79.43856000
20.90454102,-78.21233000
20.93505859,-80.29567000
20.96557617,-87.27698000
20.99609375,-97.72293000
21.02661133,-85.62775000
21.05712891,-83.68329000
21.08764648,-86.05525000
21.11816406,-97.69828000
21.14868164,-92.01221000
21.17919922,-87.01411000
21.20971680,-82.92159000
21.24023438,-78.38019000
21.27075195,-76.24144000
21.30126953,-75.95479000
21.33178711,-76.50047000
21.36230469,-77.34648000
21.39282227,-77.36639000
21.42333984,-77.05706000
21.45385742,-79.13031000
21.48437500,-82.40360000
21.51489258,-79.02539000
21.54541016,-77.25023000
21.57592773,-77.47344000
21.60644531,-78.31395000
21.63696289,-79.72298000
21.66748047,-78.24616000
21.69799805,-76.22047000
21.72851563,-76.01011000
21.75903320,-76.31659000
21.78955078,-76.65662000
21.82006836,-77.27100000
21.85058594,-78.80914000
21.88110352,-81.06673000
21.91162109,-77.63034000
21.94213867,-75.07142000
21.97265625,-75.99281000
22.00317383,-80.82970000
22.03369141,-85.79639000
22.06420898,-80.20248000
22.09472656,-77.80053000
22.12524414,-77.96397000
22.15576172,-79.98224000
22.18627930,-81.71402000
22.21679688,-80.54669000
22.24731445,-80.02717000
22.27783203,-80.89012000
22.30834961,-80.09200000
22.33886719,-78.88905000
22.36938477,-80.43240000
22.39990234,-83.70639000
22.43041992,-81.58691000
22.46093750,-80.13267000
22.49145508,-79.62401000
22.52197266,-77.89610000
22.55249023,-76.99940000
22.58300781,-77.84311000
22.61352539,-80.80550000
22.64404297,-89.49982000
22.67456055,-87.99096000
22.70507813,-80.94830000
22.73559570,-79.98630000
22.76611328,-82.56355000
22.79663086,-88.79887000
22.82714844,-103.63160000
22.85766602,-94.71013000
22.88818359,-88.88301000
22.91870117,-86.12320000
22.94921875,-86.03989000
22.97973633,-91.28082000
23.01025391,-90.22675000
23.04077148,-82.82674000
23.07128906,-80.81520000
23.10180664,-81.27597000
23.13232422,-83.07819000
23.16284180,-87.44868000
23.19335938,-97.52739000
23.22387695,-88.51997000
23.25439453,-85.96610000
23.28491211,-88.29781000
23.31542969,-91.10117000
23.34594727,-89.83446000
23.37646484,-93.51879000
23.40698242,-96.50008000
23.43750000,-91.12237000
23.46801758,-85.84109000
23.49853516,-82.60080000
23.52905273,-83.04112000
23.55957031,-87.90898000
23.59008789,-91.66379000
23.62060547,-87.95941000
23.65112305,-87.49541000
23.68164063,-88.87585000
23.71215820,-92.66267000
23.74267578,-120.34070000
23.77319336,-89.09550000
23.80371094,-83.05441000
23.83422852,-81.02172000
23.86474609,-81.64997000
23.89526367,-83.98511000
23.92578125,-86.37566000
23.95629883,-88.26836000
23.98681641,-92.72156000
24.01733398,-101.72490000
24.04785156,-93.10297000
24.07836914,-93.93321000
24.10888672,-100.98220000
24.13940430,-91.92578000
24.16992188,-87.95226000
24.20043945,-89.46059000
24.23095703,-100.96630000
24.26147461,-88.02025000
24.29199219,-84.08604000
24.32250977,-84.35324000
24.35302734,-87.38130000
24.38354492,-92.92484000
24.41406250,-96.24950000
24.44458008,-93.30357000
24.47509766,-90.09998000
24.50561523,-86.14681000
24.53613281,-84.75961000
24.56665039,-87.17187000
24.59716797,-92.17178000
24.62768555,-93.49175000
24.65820313,-97.19443000
24.68872070,-93.06403000
24.71923828,-90.77928000
24.74975586,-92.12518000
24.78027344,-96.74957000
24.81079102,-111.47560000
24.84130859,-105.44500000
24.87182617,-95.24802000
24.90234375,-89.48332000
24.93286133,-88.51050000
24.96337891,-91.73580000
24.99389648,-96.21705000
25.02441406,-90.48189000
25.05493164,-86.77637000
25.08544922,-84.95995000
25.11596680,-83.49053000
25.14648438,-82.49913000
25.17700195,-82.95313000
25.20751953,-86.06126000
25.23803711,-94.52221000
25.26855469,-93.76572000
25.29907227,-88.12560000
25.32958984,-86.61888000
25.36010742,-88.89879000
25.39062500,-97.87121000
25.42114258,-95.91496000
25.45166016,-89.55349000
25.48217773,-86.96120000
25.51269531,-86.42049000
25.54321289,-88.99070000
25.57373047,-101.89730000
25.60424805,-92.69490000
25.63476563,-86.31316000
25.66528320,-83.48388000
25.69580078,-82.40086000
25.72631836,-83.32302000
25.75683594,-85.75523000
25.78735352,-86.80598000
25.81787109,-87.01448000
25.84838867,-87.23298000
25.87890625,-85.95944000
25.90942383,-85.71404000
25.93994141,-88.78647000
25.97045898,-100.15080000
26.00097656,-91.84086000
26.03149414,-85.84892000
26.06201172,-84.54202000
26.09252930,-87.48534000
26.12304688,-102.86730000
26.15356445,-92.61557000
26.18408203,-90.92523000
26.21459961,-98.44591000
26.24511719,-89.88377000
26.27563477,-86.88640000
26.30615234,-88.53552000
26.33666992,-89.20590000
26.36718750,-87.89407000
26.39770508,-87.07152000
26.42822266,-86.00661000
26.45874023,-86.63646000
26.48925781,-90.14385000
26.51977539,-95.29698000
26.55029297,-97.00626000
26.58081055,-103.09360000
26.61132813,-96.45477000
26.64184570,-87.32054000
26.67236328,-83.39247000
26.70288086,-81.94829000
26.73339844,-82.04853000
26.76391602,-83.22392000
26.79443359,-85.51568000
26.82495117,-88.55251000
26.85546875,-91.17890000
26.88598633,-90.91713000
26.91650391,-86.74979000
26.94702148,-84.10247000
26.97753906,-83.70048000
27.00805664,-85.62652000
27.03857422,-90.35119000
27.06909180,-98.70648000
27.09960938,-96.04907000
27.13012695,-88.66757000
27.16064453,-85.25092000
27.19116211,-83.78181000
27.22167969,-82.80166000
27.25219727,-81.94401000
27.28271484,-81.77230000
27.31323242,-82.78273000
27.34375000,-85.12822000
27.37426758,-88.76404000
27.40478516,-94.34496000
27.43530273,-99.31363000
27.46582031,-94.29335000
27.49633789,-92.08913000
27.52685547,-91.38226000
27.55737305,-90.42672000
27.58789063,-90.33670000
27.61840820,-90.90575000
27.64892578,-89.02882000
27.67944336,-88.02139000
27.70996094,-89.64662000
27.74047852,-92.31258000
27.77099609,-93.87746000
27.80151367,-90.21361000
27.83203125,-86.59834000
27.86254883,-85.37938000
27.89306641,-85.00285000
27.92358398,-85.09362000
27.95410156,-86.92280000
27.98461914,-91.67012000
28.01513672,-104.95470000
28.04565430,-90.47901000
28.07617188,-83.10448000
28.10668945,-80.13542000
28.13720703,-80.30376000
28.16772461,-83.72121000
28.19824219,-91.19607000
28.22875977,-88.73783000
28.25927734,-84.50950000
28.28979492,-83.70074000
28.32031250,-85.61862000
28.35083008,-89.92146000
28.38134766,-92.65749000
28.41186523,-93.18433000
28.44238281,-95.45071000
28.47290039,-91.65234000
28.50341797,-87.01514000
28.53393555,-85.75507000
28.56445313,-87.76798000
28.59497070,-92.24514000
28.62548828,-92.51801000
28.65600586,-90.40733000
28.68652344,-89.41531000
28.71704102,-89.95017000
28.74755859,-88.94657000
28.77807617,-87.14657000
28.80859375,-87.02126000
28.83911133,-87.10267000
28.86962891,-85.74195000
28.90014648,-83.98872000
28.93066406,-83.47726000
28.96118164,-84.67311000
28.99169922,-88.10757000
29.02221680,-94.95105000
29.05273438,-94.64030000
29.08325195,-89.78992000
29.11376953,-85.83104000
29.14428711,-85.18998000
29.17480469,-85.68951000
29.20532227,-82.94656000
29.23583984,-80.63323000
29.26635742,-79.65019000
29.29687500,-79.41435000
29.32739258,-80.10879000
29.35791016,-82.47730000
29.38842773,-86.75497000
29.41894531,-86.65335000
29.44946289,-84.04045000
29.47998047,-83.39760000
29.51049805,-83.58566000
29.54101563,-84.15167000
29.57153320,-85.66375000
29.60205078,-87.94322000
29.63256836,-89.88132000
29.66308594,-93.32515000
29.69360352,-98.16796000
29.72412109,-94.36761000
29.75463867,-93.08504000
29.78515625,-98.17035000
29.81567383,-100.13510000
29.84619141,-93.60976000
29.87670898,-94.28603000
29.90722656,-96.71940000
29.93774414,-102.68690000
29.96826172,-95.87561000
29.99877930,-92.20415000
30.02929688,-95.64169000
30.05981445,-98.11180000
30.09033203,-90.12119000
30.12084961,-84.25531000
30.15136719,-81.20650000
30.18188477,-80.81463000
30.21240234,-82.90536000
30.24291992,-86.83566000
30.27343750,-88.94574000
30.30395508,-86.24474000
30.33447266,-82.48660000
30.36499023,-80.61416000
30.39550781,-80.72339000
30.42602539,-81.92074000
30.45654297,-83.15972000
30.48706055,-83.89684000
30.51757813,-84.49287000
30.54809570,-86.06384000
30.57861328,-88.87363000
30.60913086,-91.60091000
30.63964844,-92.92989000
30.67016602,-93.87381000
30.70068359,-95.29358000
30.73120117,-91.97624000
30.76171875,-86.19023000
30.79223633,-82.24019000
30.82275391,-80.35789000
30.85327148,-80.50871000
30.88378906,-82.59424000
30.91430664,-85.85666000
30.94482422,-88.97980000
30.97534180,-92.34085000
31.00585938,-88.78963000
31.03637695,-85.62129000
31.06689453,-87.20047000
31.09741211,-96.11853000
31.12792969,-101.04920000
31.15844727,-96.77975000
31.18896484,-97.63238000
31.21948242,-96.13915000
31.25000000,-91.31689000
31.28051758,-86.54297000
31.31103516,-85.09594000
31.34155273,-87.87583000
31.37207031,-97.69647000
31.40258789,-89.45766000
31.43310547,-86.33014000
31.46362305,-87.78999000
31.49414063,-91.64243000
31.52465820,-93.29642000
31.55517578,-92.65799000
31.58569336,-91.78931000
31.61621094,-92.89658000
31.64672852,-93.86218000
31.67724609,-87.44648000
31.70776367,-83.38544000
31.73828125,-82.10395000
31.76879883,-82.46863000
31.79931641,-83.76320000
31.82983398,-86.96662000
31.86035156,-96.45592000
31.89086914,-89.66377000
31.92138672,-85.26463000
31.95190430,-86.02783000
31.98242188,-88.57016000
32.01293945,-86.64733000
32.04345703,-85.82129000
32.07397461,-89.59557000
32.10449219,-96.45152000
32.13500977,-85.06642000
32.16552734,-80.96966000
32.19604492,-80.35173000
32.22656250,-82.21040000
32.25708008,-85.65757000
32.28759766,-88.79921000
32.31811523,-90.41785000
32.34863281,-91.91002000
32.37915039,-93.04076000
32.40966797,-91.67630000
32.44018555,-91.31378000
32.47070313,-96.76268000
32.50122070,-100.90180000
32.53173828,-95.35355000
32.56225586,-100.41870000
32.59277344,-95.43235000
32.62329102,-88.36144000
32.65380859,-84.77448000
32.68432617,-82.37296000
32.71484375,-80.91302000
32.74536133,-81.25478000
32.77587891,-84.61923000
32.80639648,-92.26048000
32.83691406,-98.22076000
32.86743164,-90.75829000
32.89794922,-85.38405000
32.92846680,-85.11826000
32.95898438,-87.43576000
32.98950195,-88.35496000
33.02001953,-91.97259000
33.05053711,-93.40572000
33.08105469,-89.64534000
33.11157227,-89.06140000
33.14208984,-87.31090000
33.17260742,-84.68684000
33.20312500,-83.15215000
33.23364258,-82.55029000
33.26416016,-82.11613000
33.29467773,-81.83398000
33.32519531,-81.99922000
33.35571289,-82.21053000
33.38623047,-82.41475000
33.41674805,-83.26447000
33.44726563,-85.62206000
33.47778320,-91.63741000
33.50830078,-113.49560000
33.53881836,-97.58564000
33.56933594,-98.97253000
33.59985352,-94.87431000
33.63037109,-88.09612000
33.66088867,-84.32899000
33.69140625,-83.03770000
33.72192383,-83.30188000
33.75244141,-82.92107000
33.78295898,-82.47050000
33.81347656,-84.07378000
33.84399414,-88.44047000
33.87451172,-95.84387000
33.90502930,-101.36580000
33.93554688,-97.42215000
33.96606445,-93.10577000
33.99658203,-89.88248000
34.02709961,-87.92747000
34.05761719,-85.66168000
34.08813477,-83.45287000
34.11865234,-83.15530000
34.14916992,-85.82477000
34.17968750,-90.57713000
34.21020508,-89.68540000
34.24072266,-87.31691000
34.27124023,-87.14217000
34.30175781,-90.58446000
34.33227539,-109.03310000
34.36279297,-89.65430000
34.39331055,-83.37479000
34.42382813,-80.86110000
34.45434570,-80.73750000
34.48486328,-82.41334000
34.51538086,-84.89790000
34.54589844,-86.25184000
34.57641602,-85.28523000
34.60693359,-84.04015000
34.63745117,-83.87162000
34.66796875,-84.26766000
34.69848633,-84.14389000
34.72900391,-83.34630000
34.75952148,-83.17944000
34.79003906,-84.97756000
34.82055664,-89.08181000
34.85107422,-90.18875000
34.88159180,-85.08262000
34.91210938,-82.06815000
34.94262695,-81.68033000
34.97314453,-82.85478000
35.00366211,-83.97580000
35.03417969,-85.06748000
35.06469727,-87.79855000
35.09521484,-91.65711000
35.12573242,-90.25648000
35.15625000,-88.89553000
35.18676758,-90.44427000
35.21728516,-96.16252000
35.24780273,-89.68179000
35.27832031,-83.35889000
35.30883789,-81.54464000
35.33935547,-83.06535000
35.36987305,-85.87307000
35.40039063,-86.71627000
35.43090820,-88.14739000
35.46142578,-91.01104000
35.49194336,-94.32168000
35.52246094,-101.37970000
35.55297852,-91.60172000
35.58349609,-87.20989000
35.61401367,-87.53114000
35.64453125,-90.65417000
35.67504883,-96.15489000
35.70556641,-97.51202000
35.73608398,-88.78754000
35.76660156,-85.33604000
35.79711914,-85.42236000
35.82763672,-88.94954000
35.85815430,-94.01912000
35.88867188,-90.84055000
35.91918945,-88.43900000
35.94970703,-87.96998000
35.98022461,-89.08963000
36.01074219,-92.20270000
36.04125977,-96.64092000
36.07177734,-98.59564000
36.10229492,-96.85959000
36.13281250,-94.12723000
36.16333008,-91.17530000
36.19384766,-89.05437000
36.22436523,-89.24516000
36.25488281,-92.24387000
36.28540039,-93.44336000
36.31591797,-93.44778000
36.34643555,-106.00010000
36.37695313,-93.69115000
36.40747070,-87.66534000
36.43798828,-85.72372000
36.46850586,-85.93797000
36.49902344,-87.40594000
36.52954102,-88.48649000
36.56005859,-89.77364000
36.59057617,-92.72599000
36.62109375,-93.87979000
36.65161133,-94.16740000
36.68212891,-97.93407000
36.71264648,-96.08517000
36.74316406,-89.24834000
36.77368164,-83.65487000
36.80419922,-81.72242000
36.83471680,-82.78055000
36.86523438,-85.84003000
36.89575195,-88.85133000
36.92626953,-89.08963000
36.95678711,-87.16388000
36.98730469,-85.23857000
37.01782227,-84.40366000
37.04833984,-84.98765000
37.07885742,-87.20498000
37.10937500,-90.55000000
37.13989258,-89.86030000
37.17041016,-86.20083000
37.20092773,-83.31010000
37.23144531,-81.76704000
37.26196289,-82.02611000
37.29248047,-84.24844000
37.32299805,-88.64356000
37.35351563,-98.40203000
37.38403320,-97.62471000
37.41455078,-91.04051000
37.44506836,-91.20469000
37.47558594,-93.79723000
37.50610352,-94.24333000
37.53662109,-93.17387000
37.56713867,-88.15083000
37.59765625,-84.64954000
37.62817383,-83.86536000
37.65869141,-85.59186000
37.68920898,-90.42155000
37.71972656,-100.95600000
37.75024414,-97.88651000
37.78076172,-94.34776000
37.81127930,-93.06995000
37.84179688,-92.54813000
37.87231445,-92.09904000
37.90283203,-91.95134000
37.93334961,-93.01926000
37.96386719,-94.18346000
37.99438477,-92.30676000
38.02490234,-92.92751000
38.05541992,-100.21040000
38.08593750,-99.14790000
38.11645508,-97.99478000
38.14697266,-102.73960000
38.17749023,-92.61643000
38.20800781,-87.04018000
38.23852539,-84.11213000
38.26904297,-82.53143000
38.29956055,-82.12139000
38.33007813,-83.48466000
38.36059570,-87.18919000
38.39111328,-92.91956000
38.42163086,-96.75269000
38.45214844,-95.01083000
38.48266602,-92.16462000
38.51318359,-89.41238000
38.54370117,-87.84483000
38.57421875,-89.29854000
38.60473633,-97.84943000
38.63525391,-97.30017000
38.66577148,-91.02252000
38.69628906,-91.87385000
38.72680664,-93.60216000
38.75732422,-90.51212000
38.78784180,-89.23878000
38.81835938,-90.98763000
38.84887695,-96.58463000
38.87939453,-96.05846000
38.90991211,-91.52489000
38.94042969,-92.72792000
38.97094727,-96.51387000
39.00146484,-91.38814000
39.03198242,-88.19602000
39.06250000,-86.23939000
39.09301758,-84.28891000
39.12353516,-82.58958000
39.15405273,-81.95701000
39.18457031,-83.32027000
39.21508789,-88.57741000
39.24560547,-108.08110000
39.27612305,-88.55359000
39.30664063,-86.27470000
39.33715820,-87.98389000
39.36767578,-91.00301000
39.39819336,-96.30328000
39.42871094,-96.52817000
39.45922852,-89.07384000
39.48974609,-87.13432000
39.52026367,-87.62959000
39.55078125,-89.22525000
39.58129883,-91.72484000
39.61181641,-93.43594000
39.64233398,-93.51387000
39.67285156,-91.79924000
39.70336914,-88.98421000
39.73388672,-88.20389000
39.76440430,-89.43066000
39.79492188,-91.79607000
39.82543945,-92.44416000
39.85595703,-95.34865000
39.88647461,-102.10990000
39.91699219,-91.16975000
39.94750977,-89.05700000
39.97802734,-90.55811000
40.00854492,-92.46480000
40.03906250,-91.08665000
40.06958008,-88.01521000
40.10009766,-86.08121000
40.13061523,-86.15971000
40.16113281,-88.26811000
40.19165039,-91.95502000
40.22216797,-98.90453000
40.25268555,-98.77065000
40.28320313,-92.19224000
40.31372070,-90.32630000
40.34423828,-88.48886000
40.37475586,-86.41925000
40.40527344,-85.36137000
40.43579102,-84.91561000
40.46630859,-85.59101000
40.49682617,-88.38547000
40.52734375,-93.08564000
40.55786133,-92.43859000
40.58837891,-88.00116000
40.61889648,-85.21710000
40.64941406,-84.80251000
40.67993164,-87.93122000
40.71044922,-97.68881000
40.74096680,-95.19601000
40.77148438,-95.82367000
40.80200195,-99.08374000
40.83251953,-94.14134000
40.86303711,-95.14159000
40.89355469,-95.80383000
40.92407227,-95.60243000
40.95458984,-98.18549000
40.98510742,-99.28642000
41.01562500,-100.95680000
41.04614258,-102.51170000
41.07666016,-94.41985000
41.10717773,-88.09844000
41.13769531,-84.93645000
41.16821289,-84.79582000
41.19873047,-87.20091000
41.22924805,-88.85246000
41.25976563,-88.09941000
41.29028320,-88.14014000
41.32080078,-88.35851000
41.35131836,-87.29507000
41.38183594,-85.44746000
41.41235352,-84.24073000
41.44287109,-84.52835000
41.47338867,-86.16165000
41.50390625,-88.47645000
41.53442383,-90.49720000
41.56494141,-88.20121000
41.59545898,-84.92610000
41.62597656,-84.76460000
41.65649414,-88.34693000
41.68701172,-88.54570000
41.71752930,-84.60956000
41.74804688,-83.82010000
41.77856445,-85.66046000
41.80908203,-89.30438000
41.83959961,-91.68546000
41.87011719,-88.87984000
41.90063477,-84.86865000
41.93115234,-83.10176000
41.96166992,-84.37563000
41.99218750,-89.63736000
42.02270508,-105.86880000
42.05322266,-94.26880000
42.08374023,-90.41840000
42.11425781,-90.07287000
42.14477539,-91.70000000
42.17529297,-94.00687000
42.20581055,-92.26936000
42.23632813,-88.93654000
42.26684570,-86.80452000
42.29736328,-85.68015000
42.32788086,-85.38249000
42.35839844,-85.56473000
42.38891602,-85.95105000
42.41943359,-86.30594000
42.44995117,-86.78399000
42.48046875,-89.57822000
42.51098633,-93.57632000
42.54150391,-91.52078000
42.57202148,-91.84327000
42.60253906,-91.53162000
42.63305664,-90.17635000
42.66357422,-91.58924000
42.69409180,-93.97574000
42.72460938,-92.02864000
42.75512695,-88.83768000
42.78564453,-88.57356000
42.81616211,-90.24804000
42.84667969,-89.28646000
42.87719727,-87.52876000
42.90771484,-86.97278000
42.93823242,-88.52912000
42.96875000,-95.34735000
42.99926758,-95.04922000
43.02978516,-83.99964000
43.06030273,-79.20032000
43.09082031,-77.33627000
43.12133789,-77.86526000
43.15185547,-80.66119000
43.18237305,-86.12453000
43.21289063,-92.07449000
43.24340820,-86.24440000
43.27392578,-83.44058000
43.30444336,-84.43288000
43.33496094,-88.37440000
43.36547852,-86.52752000
43.39599609,-83.61574000
43.42651367,-83.15369000
43.45703125,-83.12478000
43.48754883,-82.60215000
43.51806641,-83.27801000
43.54858398,-86.81889000
43.57910156,-90.94384000
43.60961914,-87.74105000
43.64013672,-85.84950000
43.67065430,-85.68103000
43.70117188,-86.60905000
43.73168945,-87.62703000
43.76220703,-87.19585000
43.79272461,-85.99778000
43.82324219,-84.75081000
43.85375977,-83.42243000
43.88427734,-82.84214000
43.91479492,-83.42965000
43.94531250,-82.83228000
43.97583008,-80.68724000
44.00634766,-80.12424000
44.03686523,-82.64245000
44.06738281,-91.20406000
44.09790039,-88.78517000
44.12841797,-84.47018000
44.15893555,-86.88632000
44.18945313,-102.53790000
44.21997070,-90.57899000
44.25048828,-87.57298000
44.28100586,-88.40582000
44.31152344,-93.19427000
44.34204102,-103.22440000
44.37255859,-90.63985000
44.40307617,-89.95843000
44.43359375,-91.63506000
44.46411133,-86.03072000
44.49462891,-81.64264000
44.52514648,-80.03997000
44.55566406,-81.65987000
44.58618164,-89.14982000
44.61669922,-95.91477000
44.64721680,-87.78624000
44.67773438,-88.04279000
44.70825195,-91.14009000
44.73876953,-91.91106000
44.76928711,-90.00495000
44.79980469,-90.02393000
44.83032227,-87.43231000
44.86083984,-84.01485000
44.89135742,-82.39898000
44.92187500,-81.55963000
44.95239258,-81.10286000
44.98291016,-81.13663000
45.01342773,-81.26344000
45.04394531,-80.97686000
45.07446289,-80.44905000
45.10498047,-80.70708000
45.13549805,-82.44576000
45.16601563,-85.13689000
45.19653320,-87.61989000
45.22705078,-90.88189000
45.25756836,-98.60900000
45.28808594,-89.24486000
45.31860352,-83.81493000
45.34912109,-82.17662000
45.37963867,-82.79572000
45.41015625,-85.92070000
45.44067383,-95.29431000
45.47119141,-95.05815000
45.50170898,-88.24288000
45.53222656,-86.75460000
45.56274414,-89.25782000
45.59326172,-97.37347000
45.62377930,-98.78261000
45.65429688,-87.89635000
45.68481445,-82.48367000
45.71533203,-81.18201000
45.74584961,-82.57065000
45.77636719,-84.62711000
45.80688477,-84.09572000
45.83740234,-82.22953000
45.86791992,-81.66408000
45.89843750,-83.08092000
45.92895508,-84.55723000
45.95947266,-83.16535000
45.98999023,-83.61717000
46.02050781,-89.33994000
46.05102539,-95.72937000
46.08154297,-90.02049000
46.11206055,-89.30544000
46.14257813,-86.77478000
46.17309570,-82.61372000
46.20361328,-80.34332000
46.23413086,-81.30591000
46.26464844,-86.64500000
46.29516602,-97.87464000
46.32568359,-96.83376000
46.35620117,-101.65330000
46.38671875,-89.87870000
46.41723633,-85.54626000
46.44775391,-84.42096000
46.47827148,-84.71646000
46.50878906,-84.36581000
46.53930664,-82.64863000
46.56982422,-81.36058000
46.60034180,-81.90211000
46.63085938,-84.08966000
46.66137695,-84.70074000
46.69189453,-83.39558000
46.72241211,-82.81437000
46.75292969,-83.24208000
46.78344727,-84.25630000
46.81396484,-85.98972000
46.84448242,-89.56969000
46.87500000,-92.93576000
46.90551758,-91.35487000
46.93603516,-90.18022000
46.96655273,-90.48514000
46.99707031,-91.62010000
47.02758789,-91.36242000
47.05810547,-89.27748000
47.08862305,-88.64236000
47.11914063,-89.21487000
47.14965820,-88.91968000
47.18017578,-88.99942000
47.21069336,-89.74184000
47.24121094,-87.12880000
47.27172852,-84.46342000
47.30224609,-83.71629000
47.33276367,-84.40938000
47.36328125,-86.65282000
47.39379883,-92.03740000
47.42431641,-94.76177000
47.45483398,-90.60770000
47.48535156,-92.81711000
47.51586914,-95.85416000
47.54638672,-88.64677000
47.57690430,-87.67368000
47.60742188,-92.36214000
47.63793945,-89.16467000
47.66845703,-84.49287000
47.69897461,-83.42599000
47.72949219,-83.70528000
47.76000977,-84.74164000
47.79052734,-87.72071000
47.82104492,-93.53362000
47.85156250,-100.56600000
47.88208008,-110.82800000
47.91259766,-96.17792000
47.94311523,-88.95534000
47.97363281,-86.68407000
48.00415039,-88.67924000
48.03466797,-92.70813000
48.06518555,-89.65205000
48.09570313,-87.35001000
48.12622070,-86.57567000
48.15673828,-86.65569000
48.18725586,-86.79786000
48.21777344,-86.67203000
48.24829102,-87.78648000
48.27880859,-90.95989000
48.30932617,-94.20152000
48.33984375,-93.68660000
48.37036133,-94.75449000
48.40087891,-97.24178000
48.43139648,-89.16625000
48.46191406,-85.73632000
48.49243164,-85.83538000
48.52294922,-88.45949000
48.55346680,-93.12530000
48.58398438,-97.17536000
48.61450195,-101.36920000
48.64501953,-107.27770000
48.67553711,-100.89630000
48.70605469,-101.91490000
48.73657227,-97.91320000
48.76708984,-96.39866000
48.79760742,-97.09103000
48.82812500,-92.28065000
48.85864258,-88.91792000
48.88916016,-90.06783000
48.91967773,-100.42900000
48.95019531,-94.64156000
48.98071289,-88.88208000
49.01123047,-86.86363000
49.04174805,-85.64502000
49.07226563,-86.65009000
49.10278320,-92.95174000
49.13330078,-98.45871000
49.16381836,-86.88683000
49.19433594,-83.55580000
49.22485352,-83.62840000
49.25537109,-86.32575000
49.28588867,-89.42085000
49.31640625,-89.29912000
49.34692383,-85.65904000
49.37744141,-82.88570000
49.40795898,-82.52583000
49.43847656,-84.33841000
49.46899414,-87.51204000
49.49951172,-90.78429000
49.53002930,-94.47899000
49.56054688,-101.78640000
49.59106445,-99.87167000
49.62158203,-100.20180000
49.65209961,-98.55577000
49.68261719,-90.96986000
49.71313477,-89.13501000
49.74365234,-90.32082000
49.77416992,-91.79449000
49.80468750,-91.41866000
49.83520508,-91.41635000
49.86572266,-95.75830000
49.89624023,-93.48328000
49.92675781,-86.89940000
49.95727539,-84.99026000
49.98779297,-85.19182000
50.01831055,-85.03836000
