Frequency,Channel A
(MHz),(dBu)

0.00000000,-13.02693000
0.03051758,-13.43652000
0.06103516,-18.80287000
0.09155273,-29.21385000
0.12207031,-52.76110000
0.15258789,-55.21940000
0.18310547,-52.86124000
0.21362305,-54.88539000
0.24414063,-54.56138000
0.27465820,-53.50260000
0.30517578,-52.89688000
0.33569336,-53.70861000
0.36621094,-59.38363000
0.39672852,-74.05986000
0.42724609,-58.29147000
0.45776367,-54.35658000
0.48828125,-54.31803000
0.51879883,-56.13926000
0.54931641,-56.41325000
0.57983398,-56.08603000
0.61035156,-53.67849000
0.64086914,-49.30756000
0.67138672,-48.06065000
0.70190430,-51.04967000
0.73242188,-60.23555000
0.76293945,-62.99002000
0.79345703,-66.88102000
0.82397461,-63.84591000
0.85449219,-60.05442000
0.88500977,-60.77792000
0.91552734,-59.29903000
0.94604492,-58.32602000
0.97656250,-58.47667000
1.00708008,-58.44244000
1.03759766,-60.27714000
1.06811523,-70.13769000
1.09863281,-63.30112000
1.12915039,-54.96236000
1.15966797,-51.70257000
1.19018555,-51.52290000
1.22070313,-54.55199000
1.25122070,-60.38408000
1.28173828,-58.40469000
1.31225586,-56.43858000
1.34277344,-58.51544000
1.37329102,-64.91080000
1.40380859,-62.34516000
1.43432617,-58.27969000
1.46484375,-57.22276000
1.49536133,-57.81345000
1.52587891,-59.16045000
1.55639648,-60.02838000
1.58691406,-60.28522000
1.61743164,-60.87285000
1.64794922,-61.95142000
1.67846680,-62.50235000
1.70898438,-62.17020000
1.73950195,-62.22551000
1.77001953,-62.35423000
1.80053711,-61.67729000
1.83105469,-61.53156000
1.86157227,-62.38646000
1.89208984,-62.03122000
1.92260742,-61.06899000
1.95312500,-62.54736000
1.98364258,-67.60014000
2.01416016,-65.54797000
2.04467773,-62.07760000
2.07519531,-61.17728000
2.10571289,-59.72030000
2.13623047,-58.61584000
2.16674805,-60.53551000
2.19726563,-69.95383000
2.22778320,-68.58623000
2.25830078,-61.79579000
2.28881836,-58.70943000
2.31933594,-56.50208000
2.34985352,-56.93954000
2.38037109,-62.17738000
2.41088867,-68.53556000
2.44140625,-59.88161000
2.47192383,-58.49596000
2.50244141,-61.73037000
2.53295898,-71.71783000
2.56347656,-65.11018000
2.59399414,-61.19373000
2.62451172,-61.05171000
2.65502930,-63.32617000
2.68554688,-66.44584000
2.71606445,-67.14098000
2.74658203,-67.45750000
2.77709961,-68.37776000
2.80761719,-66.95799000
2.83813477,-64.77068000
2.86865234,-64.09514000
2.89916992,-64.96848000
2.92968750,-66.52098000
2.96020508,-67.26279000
2.99072266,-67.82477000
3.02124023,-70.02214000
3.05175781,-68.89069000
3.08227539,-64.98307000
3.11279297,-63.07138000
3.14331055,-62.22067000
3.17382813,-61.91156000
3.20434570,-62.43573000
3.23486328,-63.60371000
3.26538086,-65.11423000
3.29589844,-67.40258000
3.32641602,-68.00063000
3.35693359,-61.89238000
3.38745117,-57.59853000
3.41796875,-56.04276000
3.44848633,-56.65683000
3.47900391,-59.03521000
3.50952148,-63.34101000
3.54003906,-66.10502000
3.57055664,-61.62019000
3.60107422,-59.65123000
3.63159180,-60.08457000
3.66210938,-59.71113000
3.69262695,-57.88934000
3.72314453,-57.42696000
3.75366211,-58.83778000
3.78417969,-60.78167000
3.81469727,-60.23044000
3.84521484,-58.04069000
3.87573242,-56.77086000
3.90625000,-56.87263000
3.93676758,-57.41808000
3.96728516,-57.61364000
3.99780273,-58.40004000
4.02832031,-59.60377000
4.05883789,-59.15157000
4.08935547,-58.23558000
4.11987305,-58.03578000
4.15039063,-57.68457000
4.18090820,-56.93192000
4.21142578,-56.77345000
4.24194336,-57.79097000
4.27246094,-59.24714000
4.30297852,-60.07021000
4.33349609,-60.97996000
4.36401367,-60.91887000
4.39453125,-58.93240000
4.42504883,-57.44402000
4.45556641,-57.31508000
4.48608398,-58.43569000
4.51660156,-60.61772000
4.54711914,-64.69296000
4.57763672,-70.46629000
4.60815430,-64.61082000
4.63867188,-61.74042000
4.66918945,-61.86418000
4.69970703,-62.42188000
4.73022461,-62.55938000
4.76074219,-63.88168000
4.79125977,-66.08640000
4.82177734,-67.47468000
4.85229492,-68.95077000
4.88281250,-67.51690000
4.91333008,-63.57722000
4.94384766,-61.59645000
4.97436523,-62.00268000
5.00488281,-64.93390000
5.03540039,-71.89559000
5.06591797,-76.41528000
5.09643555,-67.64059000
5.12695313,-64.67246000
5.15747070,-63.84663000
5.18798828,-63.99797000
5.21850586,-65.67653000
5.24902344,-70.10888000
5.27954102,-74.61734000
5.31005859,-70.65099000
5.34057617,-67.43283000
5.37109375,-64.73206000
5.40161133,-62.76305000
5.43212891,-62.60777000
5.46264648,-64.85312000
5.49316406,-70.20102000
5.52368164,-81.48262000
5.55419922,-73.58244000
5.58471680,-67.26613000
5.61523438,-64.10165000
5.64575195,-63.28879000
5.67626953,-64.70553000
5.70678711,-68.20561000
5.73730469,-71.39442000
5.76782227,-66.79635000
5.79833984,-63.53157000
5.82885742,-62.75900000
5.85937500,-63.02328000
5.88989258,-64.45911000
5.92041016,-69.42796000
5.95092773,-68.38195000
5.98144531,-61.92761000
6.01196289,-59.02527000
6.04248047,-57.79710000
6.07299805,-57.54521000
6.10351563,-58.42047000
6.13403320,-61.12108000
6.16455078,-66.96783000
6.19506836,-67.45325000
6.22558594,-61.74963000
6.25610352,-58.91283000
6.28662109,-57.67166000
6.31713867,-57.61315000
6.34765625,-58.88849000
6.37817383,-62.13866000
6.40869141,-68.33999000
6.43920898,-69.18196000
6.46972656,-65.28211000
6.50024414,-63.43448000
6.53076172,-61.94329000
6.56127930,-60.95879000
6.59179688,-61.39497000
6.62231445,-63.70930000
6.65283203,-68.22949000
6.68334961,-76.04157000
6.71386719,-81.64280000
6.74438477,-72.83840000
6.77490234,-68.23082000
6.80541992,-65.88103000
6.83593750,-65.27692000
6.86645508,-66.29780000
6.89697266,-68.88763000
6.92749023,-72.69616000
6.95800781,-76.91466000
6.98852539,-81.95084000
7.01904297,-82.96625000
7.04956055,-77.70959000
7.08007813,-75.67384000
7.11059570,-76.20379000
7.14111328,-77.72577000
7.17163086,-78.52669000
7.20214844,-79.37196000
7.23266602,-79.57439000
7.26318359,-76.66650000
7.29370117,-73.26259000
7.32421875,-71.62267000
7.35473633,-71.93230000
7.38525391,-73.82312000
7.41577148,-76.70324000
7.44628906,-79.04679000
7.47680664,-78.77807000
7.50732422,-77.91145000
7.53784180,-77.48795000
7.56835938,-76.29029000
7.59887695,-74.86559000
7.62939453,-73.81205000
7.65991211,-72.68443000
7.69042969,-71.30722000
7.72094727,-70.37240000
7.75146484,-70.80745000
7.78198242,-73.10127000
7.81250000,-74.95639000
7.84301758,-72.80951000
7.87353516,-71.38922000
7.90405273,-71.53553000
7.93457031,-71.54465000
7.96508789,-71.44795000
7.99560547,-73.10451000
8.02612305,-77.94388000
8.05664063,-81.96419000
8.08715820,-76.76677000
8.11767578,-74.43048000
8.14819336,-75.08730000
8.17871094,-77.74258000
8.20922852,-77.75291000
8.23974609,-77.25426000
8.27026367,-81.59528000
8.30078125,-88.57888000
8.33129883,-77.02058000
8.36181641,-73.81667000
8.39233398,-73.83372000
8.42285156,-75.08884000
8.45336914,-75.68609000
8.48388672,-77.27028000
8.51440430,-82.88498000
8.54492188,-91.50658000
8.57543945,-82.60603000
8.60595703,-78.88380000
8.63647461,-78.34944000
8.66699219,-81.72736000
8.69750977,-84.69493000
8.72802734,-79.61881000
8.75854492,-78.42619000
8.78906250,-80.52093000
8.81958008,-82.73181000
8.85009766,-81.91611000
8.88061523,-83.02171000
8.91113281,-87.96398000
8.94165039,-85.97076000
8.97216797,-82.16806000
9.00268555,-82.35557000
9.03320313,-87.26002000
9.06372070,-89.23569000
9.09423828,-83.58585000
9.12475586,-80.27808000
9.15527344,-76.71106000
9.18579102,-75.15497000
9.21630859,-76.57500000
9.24682617,-80.51828000
9.27734375,-81.69888000
9.30786133,-79.55918000
9.33837891,-77.91644000
9.36889648,-76.78186000
9.39941406,-76.22596000
9.42993164,-75.51010000
9.46044922,-74.35307000
9.49096680,-74.21031000
9.52148438,-75.13173000
9.55200195,-75.66262000
9.58251953,-75.69861000
9.61303711,-75.49729000
9.64355469,-75.29008000
9.67407227,-75.92704000
9.70458984,-77.90407000
9.73510742,-80.74576000
9.76562500,-82.14828000
9.79614258,-82.17522000
9.82666016,-82.58729000
9.85717773,-82.43492000
9.88769531,-81.58028000
9.91821289,-82.73210000
9.94873047,-90.31338000
9.97924805,-91.54395000
10.00976563,-83.81471000
10.04028320,-82.85760000
10.07080078,-84.23219000
10.10131836,-85.76437000
10.13183594,-83.42972000
10.16235352,-80.45375000
10.19287109,-80.00375000
10.22338867,-82.09942000
10.25390625,-84.37508000
10.28442383,-83.16438000
10.31494141,-81.85619000
10.34545898,-81.64195000
10.37597656,-76.67413000
10.40649414,-71.57872000
10.43701172,-69.40186000
10.46752930,-69.80080000
10.49804688,-72.65939000
10.52856445,-79.23621000
10.55908203,-86.89471000
10.58959961,-76.48421000
10.62011719,-73.31657000
10.65063477,-73.61552000
10.68115234,-75.46936000
10.71166992,-75.14252000
10.74218750,-73.93630000
10.77270508,-73.83458000
10.80322266,-73.84520000
10.83374023,-73.16848000
10.86425781,-73.07152000
10.89477539,-74.89198000
10.92529297,-78.70057000
10.95581055,-80.69057000
10.98632813,-78.44464000
11.01684570,-75.62296000
11.04736328,-73.94933000
11.07788086,-74.02937000
11.10839844,-76.46714000
11.13891602,-82.74471000
11.16943359,-98.63982000
11.19995117,-84.15430000
11.23046875,-74.47878000
11.26098633,-70.05396000
11.29150391,-69.03804000
11.32202148,-70.83572000
11.35253906,-75.48550000
11.38305664,-82.39285000
11.41357422,-80.18745000
11.44409180,-78.48990000
11.47460938,-77.00922000
11.50512695,-72.96703000
11.53564453,-70.64388000
11.56616211,-70.19059000
11.59667969,-70.85271000
11.62719727,-72.54827000
11.65771484,-75.60176000
11.68823242,-80.78114000
11.71875000,-89.97371000
11.74926758,-89.85114000
11.77978516,-81.47147000
11.81030273,-76.88667000
11.84082031,-75.10754000
11.87133789,-76.12016000
11.90185547,-79.86086000
11.93237305,-77.96130000
11.96289063,-75.28892000
11.99340820,-76.89936000
12.02392578,-81.37912000
12.05444336,-78.58054000
12.08496094,-76.79660000
12.11547852,-78.83382000
12.14599609,-83.53430000
12.17651367,-81.37451000
12.20703125,-77.96798000
12.23754883,-76.07890000
12.26806641,-73.86004000
12.29858398,-72.28980000
12.32910156,-72.52602000
12.35961914,-74.23943000
12.39013672,-75.71570000
12.42065430,-75.32722000
12.45117188,-74.11712000
12.48168945,-73.52505000
12.51220703,-73.61233000
12.54272461,-74.27685000
12.57324219,-76.30641000
12.60375977,-80.17796000
12.63427734,-76.61037000
12.66479492,-71.98055000
12.69531250,-70.68222000
12.72583008,-72.32707000
12.75634766,-76.93748000
12.78686523,-84.80003000
12.81738281,-85.60155000
12.84790039,-79.70849000
12.87841797,-77.22784000
12.90893555,-76.73287000
12.93945313,-76.96896000
12.96997070,-77.17355000
13.00048828,-77.34927000
13.03100586,-78.48383000
13.06152344,-83.03638000
13.09204102,-91.29365000
13.12255859,-80.13177000
13.15307617,-77.44472000
13.18359375,-78.66233000
13.21411133,-81.03186000
13.24462891,-80.92556000
13.27514648,-81.20094000
13.30566406,-81.53611000
13.33618164,-79.91286000
13.36669922,-78.11692000
13.39721680,-77.07989000
13.42773438,-77.04120000
13.45825195,-78.39521000
13.48876953,-74.12877000
13.51928711,-67.45050000
13.54980469,-64.24269000
13.58032227,-64.26379000
13.61083984,-67.54208000
13.64135742,-75.23811000
13.67187500,-107.61130000
13.70239258,-82.54669000
13.73291016,-78.83054000
13.76342773,-76.44290000
13.79394531,-75.05282000
13.82446289,-73.74052000
13.85498047,-73.06200000
13.88549805,-74.24799000
13.91601563,-77.81479000
13.94653320,-84.34312000
13.97705078,-100.87610000
14.00756836,-84.05341000
14.03808594,-79.04797000
14.06860352,-78.53114000
14.09912109,-81.34538000
14.12963867,-86.57426000
14.16015625,-91.21625000
14.19067383,-94.93381000
14.22119141,-96.05098000
14.25170898,-90.08011000
14.28222656,-83.60397000
14.31274414,-79.35184000
14.34326172,-77.14079000
14.37377930,-76.66780000
14.40429688,-77.71764000
14.43481445,-79.47469000
14.46533203,-79.87723000
14.49584961,-79.70602000
14.52636719,-81.98459000
14.55688477,-90.43715000
14.58740234,-90.54172000
14.61791992,-85.97238000
14.64843750,-86.87255000
14.67895508,-85.15324000
14.70947266,-82.32711000
14.73999023,-82.26597000
14.77050781,-85.34766000
14.80102539,-93.56544000
14.83154297,-86.96845000
14.86206055,-81.71529000
14.89257813,-81.17015000
14.92309570,-83.81430000
14.95361328,-86.37272000
14.98413086,-87.89458000
15.01464844,-97.74830000
15.04516602,-90.15694000
15.07568359,-84.11312000
15.10620117,-83.69229000
15.13671875,-89.01247000
15.16723633,-89.23032000
15.19775391,-78.67080000
15.22827148,-74.71667000
15.25878906,-74.27745000
15.28930664,-77.11556000
15.31982422,-83.99419000
15.35034180,-90.83591000
15.38085938,-89.67233000
15.41137695,-91.54274000
15.44189453,-88.56712000
15.47241211,-85.29231000
15.50292969,-82.89186000
15.53344727,-82.14674000
15.56396484,-83.89830000
15.59448242,-86.72524000
15.62500000,-87.08788000
15.65551758,-86.05135000
15.68603516,-84.72230000
15.71655273,-82.99339000
15.74707031,-81.20795000
15.77758789,-80.27813000
15.80810547,-81.06147000
15.83862305,-84.02245000
15.86914063,-88.34393000
15.89965820,-89.17007000
15.93017578,-88.01373000
15.96069336,-87.86372000
15.99121094,-87.93086000
16.02172852,-86.78985000
16.05224609,-84.82384000
16.08276367,-83.15975000
16.11328125,-82.61775000
16.14379883,-82.96059000
16.17431641,-81.29446000
16.20483398,-79.27814000
16.23535156,-80.30265000
16.26586914,-86.74393000
16.29638672,-97.14610000
16.32690430,-88.09511000
16.35742188,-89.26010000
16.38793945,-95.74934000
16.41845703,-93.98090000
16.44897461,-84.07538000
16.47949219,-80.14450000
16.51000977,-79.90502000
16.54052734,-82.89917000
16.57104492,-87.19180000
16.60156250,-86.40144000
16.63208008,-86.29068000
16.66259766,-90.38848000
16.69311523,-92.60838000
16.72363281,-85.36411000
16.75415039,-82.87304000
16.78466797,-82.81302000
16.81518555,-83.00755000
16.84570313,-83.57555000
16.87622070,-85.37467000
16.90673828,-86.87109000
16.93725586,-85.71129000
16.96777344,-83.16068000
16.99829102,-80.76482000
17.02880859,-78.66068000
17.05932617,-76.85262000
17.08984375,-75.86429000
17.12036133,-76.19331000
17.15087891,-78.21759000
17.18139648,-82.59753000
17.21191406,-91.22777000
17.24243164,-98.71060000
17.27294922,-93.72420000
17.30346680,-93.11827000
17.33398438,-97.56200000
17.36450195,-95.25320000
17.39501953,-86.39081000
17.42553711,-83.10867000
17.45605469,-82.21328000
17.48657227,-82.73850000
17.51708984,-83.83366000
17.54760742,-84.31963000
17.57812500,-83.02763000
17.60864258,-80.04468000
17.63916016,-75.95370000
17.66967773,-70.85672000
17.70019531,-66.58414000
17.73071289,-64.23453000
17.76123047,-63.71075000
17.79174805,-64.47894000
17.82226563,-66.38416000
17.85278320,-70.23578000
17.88330078,-78.18767000
17.91381836,-91.42348000
17.94433594,-80.32684000
17.97485352,-77.89037000
18.00537109,-77.91596000
18.03588867,-80.39143000
18.06640625,-85.84499000
18.09692383,-89.66698000
18.12744141,-89.15803000
18.15795898,-90.02862000
18.18847656,-94.99765000
18.21899414,-91.34444000
18.24951172,-84.69768000
18.28002930,-84.02524000
18.31054688,-88.57695000
18.34106445,-87.45444000
18.37158203,-83.22267000
18.40209961,-83.12383000
18.43261719,-86.30810000
18.46313477,-96.93338000
18.49365234,-96.15337000
18.52416992,-93.73699000
18.55468750,-94.62302000
18.58520508,-88.80093000
18.61572266,-87.52687000
18.64624023,-88.30010000
18.67675781,-89.04740000
18.70727539,-87.44328000
18.73779297,-85.08234000
18.76831055,-85.70781000
18.79882813,-89.74966000
18.82934570,-92.39010000
18.85986328,-88.43671000
18.89038086,-85.39049000
18.92089844,-85.94261000
18.95141602,-87.40242000
18.98193359,-87.16389000
19.01245117,-91.21868000
19.04296875,-100.92730000
19.07348633,-87.50743000
19.10400391,-86.15746000
19.13452148,-91.60484000
19.16503906,-99.82484000
19.19555664,-90.34189000
19.22607422,-90.91325000
19.25659180,-92.69255000
19.28710938,-90.36682000
19.31762695,-91.94358000
19.34814453,-105.78500000
19.37866211,-89.06175000
19.40917969,-82.39473000
19.43969727,-79.59689000
19.47021484,-79.41705000
19.50073242,-81.43491000
19.53125000,-85.76611000
19.56176758,-94.28645000
19.59228516,-106.89900000
19.62280273,-97.00287000
19.65332031,-86.36600000
19.68383789,-80.76382000
19.71435547,-78.94893000
19.74487305,-80.16975000
19.77539063,-83.59343000
19.80590820,-86.54372000
19.83642578,-87.22783000
19.86694336,-88.68931000
19.89746094,-94.49271000
19.92797852,-97.12414000
19.95849609,-91.19225000
19.98901367,-89.79484000
20.01953125,-90.01317000
20.05004883,-89.62363000
20.08056641,-86.97650000
20.11108398,-84.11225000
20.14160156,-82.95803000
20.17211914,-84.21528000
20.20263672,-88.86812000
20.23315430,-97.35696000
20.26367188,-91.21013000
20.29418945,-88.14369000
20.32470703,-88.00185000
20.35522461,-88.64998000
20.38574219,-86.85577000
20.41625977,-83.82881000
20.44677734,-82.12685000
20.47729492,-82.14080000
20.50781250,-83.42409000
20.53833008,-85.22012000
20.56884766,-85.38186000
20.59936523,-83.26500000
20.62988281,-81.95202000
20.66040039,-82.20612000
20.69091797,-83.48936000
20.72143555,-85.40532000
20.75195313,-89.41670000
20.78247070,-94.53508000
20.81298828,-87.49565000
20.84350586,-83.98170000
20.87402344,-82.68993000
20.90454102,-82.14489000
20.93505859,-81.44428000
20.96557617,-79.92992000
20.99609375,-78.63195000
21.02661133,-79.20782000
21.05712891,-82.76773000
21.08764648,-92.64360000
21.11816406,-92.41304000
21.14868164,-87.07162000
21.17919922,-89.98645000
21.20971680,-104.59270000
21.24023438,-91.85655000
21.27075195,-91.92194000
21.30126953,-101.28850000
21.33178711,-98.75747000
21.36230469,-93.67477000
21.39282227,-95.98471000
21.42333984,-92.78045000
21.45385742,-86.40971000
21.48437500,-84.83043000
21.51489258,-85.53596000
21.54541016,-81.89533000
21.57592773,-78.42364000
21.60644531,-77.63000000
21.63696289,-78.76903000
21.66748047,-80.92346000
21.69799805,-84.90459000
21.72851563,-98.53113000
21.75903320,-88.64415000
21.78955078,-83.13266000
21.82006836,-81.41038000
21.85058594,-80.81319000
21.88110352,-80.79563000
21.91162109,-81.95792000
21.94213867,-85.02918000
21.97265625,-87.52124000
22.00317383,-84.53470000
22.03369141,-82.89473000
22.06420898,-83.65195000
22.09472656,-85.35328000
22.12524414,-87.06006000
22.15576172,-90.95760000
22.18627930,-100.16700000
22.21679688,-92.19102000
22.24731445,-88.88020000
22.27783203,-87.45124000
22.30834961,-85.56297000
22.33886719,-85.96722000
22.36938477,-93.15948000
22.39990234,-93.04532000
22.43041992,-85.48631000
22.46093750,-84.84058000
22.49145508,-87.74461000
22.52197266,-94.31457000
22.55249023,-98.71266000
22.58300781,-89.90752000
22.61352539,-86.71378000
22.64404297,-86.56699000
22.67456055,-89.10649000
22.70507813,-94.05145000
22.73559570,-93.70264000
22.76611328,-91.75371000
22.79663086,-92.31696000
22.82714844,-95.18199000
22.85766602,-98.11217000
22.88818359,-93.54982000
22.91870117,-90.33119000
22.94921875,-89.98570000
22.97973633,-92.08892000
23.01025391,-96.15041000
23.04077148,-114.90710000
23.07128906,-93.73786000
23.10180664,-87.08945000
23.13232422,-84.30093000
23.16284180,-83.18473000
23.19335938,-82.86965000
23.22387695,-83.38527000
23.25439453,-85.97768000
23.28491211,-94.87135000
23.31542969,-95.14461000
23.34594727,-87.82463000
23.37646484,-86.39360000
23.40698242,-87.37793000
23.43750000,-90.79143000
23.46801758,-93.02670000
23.49853516,-88.26202000
23.52905273,-86.23167000
23.55957031,-87.43925000
23.59008789,-92.70168000
23.62060547,-107.63020000
23.65112305,-98.86050000
23.68164063,-98.99011000
23.71215820,-108.90840000
23.74267578,-99.33366000
23.77319336,-90.69305000
23.80371094,-87.49646000
23.83422852,-86.58827000
23.86474609,-86.57190000
23.89526367,-86.93755000
23.92578125,-86.28302000
23.95629883,-87.09464000
23.98681641,-90.96255000
24.01733398,-92.45071000
24.04785156,-92.44710000
24.07836914,-93.98167000
24.10888672,-90.04340000
24.13940430,-85.92590000
24.16992188,-83.69838000
24.20043945,-82.80774000
24.23095703,-82.60330000
24.26147461,-82.81963000
24.29199219,-84.11655000
24.32250977,-87.28438000
24.35302734,-92.87204000
24.38354492,-98.30858000
24.41406250,-95.97642000
24.44458008,-95.37960000
24.47509766,-95.30808000
24.50561523,-91.69379000
24.53613281,-88.29811000
24.56665039,-86.92290000
24.59716797,-88.41089000
24.62768555,-93.71126000
24.65820313,-93.35351000
24.68872070,-90.02402000
24.71923828,-87.90865000
24.74975586,-85.21243000
24.78027344,-83.06557000
24.81079102,-81.78990000
24.84130859,-81.61671000
24.87182617,-82.42067000
24.90234375,-83.27892000
24.93286133,-83.52620000
24.96337891,-83.55768000
24.99389648,-83.95132000
25.02441406,-85.63368000
25.05493164,-88.21766000
25.08544922,-86.39043000
25.11596680,-84.79882000
25.14648438,-85.80524000
25.17700195,-86.32913000
25.20751953,-86.34595000
25.23803711,-90.19353000
25.26855469,-109.16730000
25.29907227,-92.97492000
25.32958984,-90.92571000
25.36010742,-91.77689000
25.39062500,-90.38214000
25.42114258,-88.28493000
25.45166016,-87.14690000
25.48217773,-87.25510000
25.51269531,-89.20025000
25.54321289,-93.47998000
25.57373047,-95.45190000
25.60424805,-91.83662000
25.63476563,-88.61649000
25.66528320,-86.34122000
25.69580078,-84.98334000
25.72631836,-84.37051000
25.75683594,-84.36285000
25.78735352,-84.90601000
25.81787109,-85.94533000
25.84838867,-86.21139000
25.87890625,-84.63662000
25.90942383,-84.02354000
25.93994141,-86.69292000
25.97045898,-97.92738000
26.00097656,-91.82895000
26.03149414,-87.35213000
26.06201172,-88.81195000
26.09252930,-94.28171000
26.12304688,-94.14233000
26.15356445,-92.26899000
26.18408203,-88.04861000
26.21459961,-84.74036000
26.24511719,-83.62950000
26.27563477,-83.92416000
26.30615234,-85.33679000
26.33666992,-87.31666000
26.36718750,-87.66249000
26.39770508,-88.44255000
26.42822266,-94.76103000
26.45874023,-94.76159000
26.48925781,-86.95289000
26.51977539,-85.64988000
26.55029297,-89.17624000
26.58081055,-104.79770000
26.61132813,-92.72595000
26.64184570,-89.77577000
26.67236328,-92.27057000
26.70288086,-104.72390000
26.73339844,-96.94714000
26.76391602,-91.02567000
26.79443359,-89.00239000
26.82495117,-90.16760000
26.85546875,-96.39653000
26.88598633,-88.59091000
26.91650391,-82.95924000
26.94702148,-80.61455000
26.97753906,-79.97472000
27.00805664,-80.39378000
27.03857422,-81.57320000
27.06909180,-83.37394000
27.09960938,-85.89943000
27.13012695,-88.36696000
27.16064453,-88.64784000
27.19116211,-89.37081000
27.22167969,-91.66698000
27.25219727,-90.63416000
27.28271484,-89.68926000
27.31323242,-92.75191000
27.34375000,-95.74967000
27.37426758,-92.33325000
27.40478516,-92.83768000
27.43530273,-95.58759000
27.46582031,-96.85204000
27.49633789,-96.88187000
27.52685547,-87.87546000
27.55737305,-83.74167000
27.58789063,-83.01244000
27.61840820,-84.09092000
27.64892578,-84.79405000
27.67944336,-83.81232000
27.70996094,-82.44106000
27.74047852,-82.33813000
27.77099609,-84.41021000
27.80151367,-88.83173000
27.83203125,-89.36462000
27.86254883,-85.17513000
27.89306641,-83.54560000
27.92358398,-84.07497000
27.95410156,-85.16031000
27.98461914,-85.26405000
28.01513672,-84.76017000
28.04565430,-83.67028000
28.07617188,-82.26167000
28.10668945,-82.61707000
28.13720703,-85.66051000
28.16772461,-90.96687000
28.19824219,-95.92726000
28.22875977,-97.81802000
28.25927734,-95.81137000
28.28979492,-89.54495000
28.32031250,-84.66864000
28.35083008,-82.05219000
28.38134766,-81.74652000
28.41186523,-84.14873000
28.44238281,-90.30679000
28.47290039,-93.90366000
28.50341797,-88.37907000
28.53393555,-84.74478000
28.56445313,-81.50633000
28.59497070,-79.34190000
28.62548828,-78.93523000
28.65600586,-80.08704000
28.68652344,-81.75323000
28.71704102,-82.50450000
28.74755859,-82.04990000
28.77807617,-81.38815000
28.80859375,-81.21844000
28.83911133,-81.15936000
28.86962891,-80.41341000
28.90014648,-79.22778000
28.93066406,-78.78437000
28.96118164,-80.14423000
28.99169922,-84.19440000
29.02221680,-92.90295000
29.05273438,-93.34047000
29.08325195,-85.90080000
29.11376953,-83.62469000
29.14428711,-84.40352000
29.17480469,-86.93813000
29.20532227,-88.80690000
29.23583984,-87.98447000
29.26635742,-86.20678000
29.29687500,-85.74287000
29.32739258,-87.56286000
29.35791016,-92.21906000
29.38842773,-100.62230000
29.41894531,-101.84810000
29.44946289,-95.36946000
29.47998047,-91.05960000
29.51049805,-88.86074000
29.54101563,-89.32295000
29.57153320,-91.09737000
29.60205078,-87.19730000
29.63256836,-83.20908000
29.66308594,-81.62788000
29.69360352,-81.77822000
29.72412109,-83.13481000
29.75463867,-86.05484000
29.78515625,-93.01841000
29.81567383,-100.05400000
29.84619141,-88.11881000
29.87670898,-84.65869000
29.90722656,-84.40976000
29.93774414,-85.90374000
29.96826172,-86.27782000
29.99877930,-85.54023000
30.02929688,-85.71792000
30.05981445,-86.69907000
30.09033203,-87.73814000
30.12084961,-89.38271000
30.15136719,-93.30441000
30.18188477,-89.95450000
30.21240234,-85.33703000
30.24291992,-83.90861000
30.27343750,-84.14471000
30.30395508,-84.44580000
30.33447266,-84.51046000
30.36499023,-85.94344000
30.39550781,-90.87852000
30.42602539,-122.88070000
30.45654297,-92.67421000
30.48706055,-88.91420000
30.51757813,-88.13361000
30.54809570,-87.78500000
30.57861328,-89.62126000
30.60913086,-97.65656000
30.63964844,-91.79351000
30.67016602,-88.34998000
30.70068359,-89.61046000
30.73120117,-93.75105000
30.76171875,-99.66904000
30.79223633,-99.96975000
30.82275391,-94.22593000
30.85327148,-91.40967000
30.88378906,-89.03809000
30.91430664,-87.52408000
30.94482422,-90.67834000
30.97534180,-101.99730000
31.00585938,-88.89133000
31.03637695,-86.22074000
31.06689453,-86.89315000
31.09741211,-86.82235000
31.12792969,-84.90783000
31.15844727,-84.60815000
31.18896484,-86.99520000
31.21948242,-92.22786000
31.25000000,-94.41245000
31.28051758,-93.10462000
31.31103516,-97.36276000
31.34155273,-100.40180000
31.37207031,-88.36218000
31.40258789,-85.05769000
31.43310547,-84.99439000
31.46362305,-85.29094000
31.49414063,-84.54121000
31.52465820,-84.68575000
31.55517578,-86.76029000
31.58569336,-90.66650000
31.61621094,-92.22657000
31.64672852,-90.56179000
31.67724609,-90.02448000
31.70776367,-90.14500000
31.73828125,-89.31403000
31.76879883,-88.10986000
31.79931641,-87.60380000
31.82983398,-87.63019000
31.86035156,-86.52965000
31.89086914,-84.84002000
31.92138672,-85.01711000
31.95190430,-88.74565000
31.98242188,-106.94870000
32.01293945,-90.69283000
32.04345703,-85.35983000
32.07397461,-83.32504000
32.10449219,-82.93593000
32.13500977,-83.72542000
32.16552734,-83.90800000
32.19604492,-82.08194000
32.22656250,-80.39863000
32.25708008,-80.10567000
32.28759766,-81.18114000
32.31811523,-83.03086000
32.34863281,-85.19270000
32.37915039,-87.72666000
32.40966797,-89.72589000
32.44018555,-91.89482000
32.47070313,-97.23351000
32.50122070,-90.09652000
32.53173828,-85.98708000
32.56225586,-85.36576000
32.59277344,-86.76456000
32.62329102,-90.13335000
32.65380859,-94.89188000
32.68432617,-99.35527000
32.71484375,-99.34767000
32.74536133,-88.18414000
32.77587891,-83.85890000
32.80639648,-82.29773000
32.83691406,-81.92014000
32.86743164,-81.39972000
32.89794922,-80.80882000
32.92846680,-81.78033000
32.95898438,-84.94078000
32.98950195,-88.12033000
33.02001953,-89.39458000
33.05053711,-89.15231000
33.08105469,-88.02419000
33.11157227,-87.96242000
33.14208984,-89.01964000
33.17260742,-89.07795000
33.20312500,-87.76630000
33.23364258,-87.94636000
33.26416016,-86.29286000
33.29467773,-84.07161000
33.32519531,-84.61143000
33.35571289,-87.98065000
33.38623047,-89.29287000
33.41674805,-86.83232000
33.44726563,-86.18896000
33.47778320,-86.69234000
33.50830078,-86.53545000
33.53881836,-86.85663000
33.56933594,-89.86835000
33.59985352,-104.36570000
33.63037109,-92.51815000
33.66088867,-87.64323000
33.69140625,-87.51633000
33.72192383,-88.99146000
33.75244141,-90.32558000
33.78295898,-91.51720000
33.81347656,-92.91320000
33.84399414,-95.10380000
33.87451172,-94.75105000
33.90502930,-93.97000000
33.93554688,-94.00006000
33.96606445,-91.46117000
33.99658203,-92.06910000
34.02709961,-97.45163000
34.05761719,-100.88050000
34.08813477,-99.99750000
34.11865234,-98.97842000
34.14916992,-99.57271000
34.17968750,-104.33930000
34.21020508,-106.77420000
34.24072266,-103.30950000
34.27124023,-98.15248000
34.30175781,-94.21329000
34.33227539,-94.94777000
34.36279297,-95.18060000
34.39331055,-95.09834000
34.42382813,-98.93407000
34.45434570,-98.34297000
34.48486328,-90.42377000
34.51538086,-86.14825000
34.54589844,-86.14087000
34.57641602,-89.10405000
34.60693359,-90.56197000
34.63745117,-88.28194000
34.66796875,-86.44993000
34.69848633,-85.49052000
34.72900391,-85.09087000
34.75952148,-85.42712000
34.79003906,-86.73325000
34.82055664,-88.35120000
34.85107422,-89.54354000
34.88159180,-89.01116000
34.91210938,-87.53053000
34.94262695,-87.07000000
34.97314453,-87.83456000
35.00366211,-89.89223000
35.03417969,-91.00229000
35.06469727,-88.11034000
35.09521484,-86.72823000
35.12573242,-88.19060000
35.15625000,-89.63812000
35.18676758,-87.89207000
35.21728516,-88.53168000
35.24780273,-94.94752000
35.27832031,-97.40588000
35.30883789,-90.71441000
35.33935547,-88.10883000
35.36987305,-88.77965000
35.40039063,-92.68097000
35.43090820,-91.40919000
35.46142578,-89.39614000
35.49194336,-89.39574000
35.52246094,-87.56721000
35.55297852,-85.00961000
35.58349609,-84.14000000
35.61401367,-85.25796000
35.64453125,-88.21831000
35.67504883,-90.88680000
35.70556641,-87.68395000
35.73608398,-83.42154000
35.76660156,-81.08527000
35.79711914,-80.58117000
35.82763672,-81.02380000
35.85815430,-81.77814000
35.88867188,-83.42808000
35.91918945,-87.13963000
35.94970703,-93.74358000
35.98022461,-99.78548000
36.01074219,-95.03050000
36.04125977,-89.19337000
36.07177734,-86.87001000
36.10229492,-86.27229000
36.13281250,-86.06020000
36.16333008,-85.89108000
36.19384766,-86.30350000
36.22436523,-87.67023000
36.25488281,-89.28134000
36.28540039,-90.35739000
36.31591797,-92.79899000
36.34643555,-98.02472000
36.37695313,-98.42803000
36.40747070,-98.81973000
36.43798828,-93.23432000
36.46850586,-87.73932000
36.49902344,-85.68114000
36.52954102,-85.40780000
36.56005859,-84.65251000
36.59057617,-83.98346000
36.62109375,-84.81220000
36.65161133,-85.31300000
36.68212891,-84.80959000
36.71264648,-85.53588000
36.74316406,-87.89730000
36.77368164,-91.72952000
36.80419922,-96.76415000
36.83471680,-97.49850000
36.86523438,-91.29868000
36.89575195,-85.79886000
36.92626953,-83.46359000
36.95678711,-83.45628000
36.98730469,-84.11961000
37.01782227,-84.77821000
37.04833984,-85.76001000
37.07885742,-86.91187000
37.10937500,-87.24734000
37.13989258,-86.81677000
37.17041016,-88.75467000
37.20092773,-97.13382000
37.23144531,-92.62196000
37.26196289,-87.24689000
37.29248047,-86.35696000
37.32299805,-87.12853000
37.35351563,-90.03259000
37.38403320,-104.83760000
37.41455078,-91.12789000
37.44506836,-87.43491000
37.47558594,-88.05958000
37.50610352,-89.61674000
37.53662109,-89.89289000
37.56713867,-88.80499000
37.59765625,-89.49378000
37.62817383,-87.24992000
37.65869141,-82.37337000
37.68920898,-80.52570000
37.71972656,-80.84380000
37.75024414,-81.02544000
37.78076172,-80.15922000
37.81127930,-79.59245000
37.84179688,-80.04517000
37.87231445,-81.86420000
37.90283203,-83.55212000
37.93334961,-81.75900000
37.96386719,-79.64497000
37.99438477,-79.43961000
38.02490234,-81.16049000
38.05541992,-84.49821000
38.08593750,-90.45428000
38.11645508,-96.59988000
38.14697266,-90.99832000
38.17749023,-88.27670000
38.20800781,-86.81877000
38.23852539,-85.42134000
38.26904297,-84.14137000
38.29956055,-83.16177000
38.33007813,-82.29028000
38.36059570,-81.70410000
38.39111328,-81.91277000
38.42163086,-83.32931000
38.45214844,-86.21358000
38.48266602,-91.46653000
38.51318359,-101.69640000
38.54370117,-92.05998000
38.57421875,-87.42426000
38.60473633,-86.07928000
38.63525391,-86.59827000
38.66577148,-88.22868000
38.69628906,-90.80693000
38.72680664,-95.12859000
38.75732422,-97.70550000
38.78784180,-91.56929000
38.81835938,-89.87460000
38.84887695,-92.54757000
38.87939453,-95.20569000
38.90991211,-96.94254000
38.94042969,-96.87290000
38.97094727,-92.47598000
39.00146484,-91.52210000
39.03198242,-89.01598000
39.06250000,-87.76561000
39.09301758,-88.07431000
39.12353516,-86.43295000
39.15405273,-85.88124000
39.18457031,-87.87515000
39.21508789,-91.50645000
39.24560547,-93.82644000
39.27612305,-96.67729000
39.30664063,-112.18610000
39.33715820,-90.75336000
39.36767578,-85.02869000
39.39819336,-82.72925000
39.42871094,-83.16238000
39.45922852,-87.32674000
39.48974609,-92.33391000
39.52026367,-88.31425000
39.55078125,-88.66106000
39.58129883,-88.59050000
39.61181641,-85.37431000
39.64233398,-84.26622000
39.67285156,-84.55060000
39.70336914,-84.87328000
39.73388672,-85.53483000
39.76440430,-87.01377000
39.79492188,-87.93977000
39.82543945,-87.73976000
39.85595703,-88.40355000
39.88647461,-91.21126000
39.91699219,-95.94691000
39.94750977,-99.81065000
39.97802734,-101.21910000
40.00854492,-100.59090000
40.03906250,-101.45980000
40.06958008,-106.20370000
40.10009766,-127.71050000
40.13061523,-104.33880000
40.16113281,-95.54018000
40.19165039,-90.11459000
40.22216797,-86.96007000
40.25268555,-84.80141000
40.28320313,-84.02301000
40.31372070,-84.98951000
40.34423828,-85.22202000
40.37475586,-83.34525000
40.40527344,-82.58224000
40.43579102,-83.94164000
40.46630859,-87.62137000
40.49682617,-90.70782000
40.52734375,-87.64404000
40.55786133,-85.97200000
40.58837891,-85.97913000
40.61889648,-84.71674000
40.64941406,-82.89840000
40.67993164,-83.29032000
40.71044922,-87.99564000
40.74096680,-91.83807000
40.77148438,-83.87353000
40.80200195,-81.90278000
40.83251953,-83.35048000
40.86303711,-86.98989000
40.89355469,-91.51767000
40.92407227,-95.83007000
40.95458984,-100.59940000
40.98510742,-106.37330000
41.01562500,-103.71350000
41.04614258,-93.88603000
41.07666016,-88.35742000
41.10717773,-87.04510000
41.13769531,-89.82310000
41.16821289,-98.50443000
41.19873047,-100.65520000
41.22924805,-95.16120000
41.25976563,-92.46471000
41.29028320,-89.65356000
41.32080078,-88.45546000
41.35131836,-90.80955000
41.38183594,-100.00950000
41.41235352,-91.92679000
41.44287109,-87.32698000
41.47338867,-86.43703000
41.50390625,-87.04986000
41.53442383,-87.07981000
41.56494141,-85.61253000
41.59545898,-84.06776000
41.62597656,-83.86113000
41.65649414,-85.79779000
41.68701172,-90.79364000
41.71752930,-98.38524000
41.74804688,-95.26382000
41.77856445,-93.35130000
41.80908203,-94.74961000
41.83959961,-102.44020000
41.87011719,-106.05020000
41.90063477,-99.30223000
41.93115234,-93.32349000
41.96166992,-89.29022000
41.99218750,-90.19788000
42.02270508,-93.43222000
42.05322266,-89.99103000
42.08374023,-88.98083000
42.11425781,-89.61966000
42.14477539,-86.84857000
42.17529297,-83.61633000
42.20581055,-81.75426000
42.23632813,-81.13675000
42.26684570,-81.42216000
42.29736328,-81.96855000
42.32788086,-82.27104000
42.35839844,-82.62145000
42.38891602,-83.42995000
42.41943359,-84.88311000
42.44995117,-87.74260000
42.48046875,-90.58344000
42.51098633,-85.63750000
42.54150391,-82.36553000
42.57202148,-82.03712000
42.60253906,-83.42857000
42.63305664,-85.15260000
42.66357422,-87.09914000
42.69409180,-89.88364000
42.72460938,-94.21090000
42.75512695,-99.36650000
42.78564453,-102.82850000
42.81616211,-99.47372000
42.84667969,-87.33070000
42.87719727,-82.67770000
42.90771484,-81.64095000
42.93823242,-83.09210000
42.96875000,-84.89261000
42.99926758,-83.99776000
43.02978516,-82.09169000
43.06030273,-81.33372000
43.09082031,-82.35340000
43.12133789,-84.66470000
43.15185547,-86.22672000
43.18237305,-86.61996000
43.21289063,-86.51897000
43.24340820,-85.69592000
43.27392578,-86.25221000
43.30444336,-89.91489000
43.33496094,-94.88914000
43.36547852,-92.14408000
43.39599609,-89.88567000
43.42651367,-91.21883000
43.45703125,-92.32613000
43.48754883,-89.03393000
43.51806641,-88.05676000
43.54858398,-89.43124000
43.57910156,-88.42323000
43.60961914,-83.44069000
43.64013672,-80.42828000
43.67065430,-80.21375000
43.70117188,-83.53775000
43.73168945,-89.76065000
43.76220703,-85.09080000
43.79272461,-82.70422000
43.82324219,-82.99186000
43.85375977,-83.83296000
43.88427734,-83.83559000
43.91479492,-83.77051000
43.94531250,-85.87703000
43.97583008,-94.26572000
44.00634766,-89.79422000
44.03686523,-83.78497000
44.06738281,-82.79527000
44.09790039,-85.16869000
44.12841797,-91.68687000
44.15893555,-100.70390000
44.18945313,-89.08624000
44.21997070,-86.24810000
44.25048828,-86.62827000
44.28100586,-88.09635000
44.31152344,-90.08794000
44.34204102,-91.19553000
44.37255859,-85.89020000
44.40307617,-82.25776000
44.43359375,-81.59519000
44.46411133,-83.39847000
44.49462891,-86.66886000
44.52514648,-88.76339000
44.55566406,-89.12192000
44.58618164,-90.37650000
44.61669922,-91.22220000
44.64721680,-87.62585000
44.67773438,-85.28696000
44.70825195,-84.53809000
44.73876953,-83.66927000
44.76928711,-83.38113000
44.79980469,-84.71001000
44.83032227,-87.76063000
44.86083984,-92.48376000
44.89135742,-93.20338000
44.92187500,-87.50746000
44.95239258,-84.49930000
44.98291016,-83.96948000
45.01342773,-86.05484000
45.04394531,-93.51479000
45.07446289,-98.23294000
45.10498047,-89.59702000
45.13549805,-89.56811000
45.16601563,-88.42625000
45.19653320,-83.63663000
45.22705078,-82.24365000
45.25756836,-84.15669000
45.28808594,-88.19040000
45.31860352,-92.90868000
45.34912109,-91.82461000
45.37963867,-86.74770000
45.41015625,-84.69466000
45.44067383,-85.12756000
45.47119141,-87.20018000
45.50170898,-86.70432000
45.53222656,-84.96619000
45.56274414,-86.46236000
45.59326172,-92.50149000
45.62377930,-94.59935000
45.65429688,-89.38522000
45.68481445,-85.89403000
45.71533203,-83.49624000
45.74584961,-82.41800000
45.77636719,-82.74725000
45.80688477,-84.03259000
45.83740234,-85.32798000
45.86791992,-86.29479000
45.89843750,-88.26358000
45.92895508,-93.62237000
45.95947266,-103.59670000
45.98999023,-101.08850000
46.02050781,-88.61426000
46.05102539,-82.25349000
46.08154297,-79.49661000
46.11206055,-79.31508000
46.14257813,-81.34617000
46.17309570,-85.28978000
46.20361328,-90.76626000
46.23413086,-101.17300000
46.26464844,-93.97521000
46.29516602,-86.54492000
46.32568359,-84.32678000
46.35620117,-85.12405000
46.38671875,-88.39363000
46.41723633,-96.66019000
46.44775391,-99.68530000
46.47827148,-90.86620000
46.50878906,-88.95238000
46.53930664,-89.28519000
46.56982422,-88.84190000
46.60034180,-85.51525000
46.63085938,-83.99825000
46.66137695,-85.47678000
46.69189453,-89.59535000
46.72241211,-98.00506000
46.75292969,-97.41588000
46.78344727,-91.11260000
46.81396484,-88.56483000
46.84448242,-88.85815000
46.87500000,-90.23254000
46.90551758,-86.38050000
46.93603516,-83.27427000
46.96655273,-82.71889000
46.99707031,-84.43785000
47.02758789,-87.65738000
47.05810547,-90.37669000
47.08862305,-91.07948000
47.11914063,-89.23279000
47.14965820,-85.30200000
47.18017578,-82.08207000
47.21069336,-81.38472000
47.24121094,-83.87535000
47.27172852,-87.87136000
47.30224609,-86.61693000
47.33276367,-85.80058000
47.36328125,-87.42535000
47.39379883,-91.29536000
47.42431641,-97.14783000
47.45483398,-102.83150000
47.48535156,-94.53432000
47.51586914,-91.12618000
47.54638672,-87.75554000
47.57690430,-84.62936000
47.60742188,-83.43953000
47.63793945,-83.07578000
47.66845703,-82.23668000
47.69897461,-81.62228000
47.72949219,-82.48759000
47.76000977,-85.58109000
47.79052734,-90.79889000
47.82104492,-94.71591000
47.85156250,-94.58747000
47.88208008,-94.27186000
47.91259766,-94.03367000
47.94311523,-89.43124000
47.97363281,-84.78669000
48.00415039,-82.31885000
48.03466797,-81.97375000
48.06518555,-83.13712000
48.09570313,-84.64766000
48.12622070,-84.35734000
48.15673828,-83.10182000
48.18725586,-83.88505000
48.21777344,-86.14877000
48.24829102,-86.04206000
48.27880859,-83.31997000
48.30932617,-81.17913000
48.33984375,-80.92660000
48.37036133,-82.40469000
48.40087891,-84.63850000
48.43139648,-86.65154000
48.46191406,-89.02399000
48.49243164,-89.49724000
48.52294922,-87.61252000
48.55346680,-84.53000000
48.58398438,-81.79369000
48.61450195,-80.16007000
48.64501953,-79.54719000
48.67553711,-80.65724000
48.70605469,-84.70738000
48.73657227,-90.10941000
48.76708984,-87.81477000
48.79760742,-87.12902000
48.82812500,-89.79504000
48.85864258,-94.95942000
48.88916016,-95.49734000
48.91967773,-89.81770000
48.95019531,-84.52968000
48.98071289,-81.09023000
49.01123047,-79.59555000
49.04174805,-80.25102000
49.07226563,-83.63997000
49.10278320,-91.29050000
49.13330078,-99.66717000
49.16381836,-96.43536000
49.19433594,-102.24750000
49.22485352,-108.48460000
49.25537109,-97.66139000
49.28588867,-94.55791000
49.31640625,-97.41306000
49.34692383,-111.10680000
49.37744141,-99.04755000
49.40795898,-105.98640000
49.43847656,-94.51495000
49.46899414,-88.28551000
49.49951172,-86.42106000
49.53002930,-86.45184000
49.56054688,-86.04070000
49.59106445,-84.17645000
49.62158203,-82.80809000
49.65209961,-83.26141000
49.68261719,-86.48540000
49.71313477,-94.34242000
49.74365234,-92.14333000
49.77416992,-87.87323000
49.80468750,-87.58705000
49.83520508,-89.95421000
49.86572266,-93.86327000
49.89624023,-97.04185000
49.92675781,-94.84538000
49.95727539,-93.18988000
49.98779297,-98.44160000
50.01831055,-100.47330000
