Frequency,Channel A
(MHz),(dBu)

0.00000000,-8.69746000
0.03051758,-9.07959800
0.06103516,-14.33884000
0.09155273,-24.43372000
0.12207031,-45.16564000
0.15258789,-47.40730000
0.18310547,-49.54489000
0.21362305,-48.97962000
0.24414063,-51.97312000
0.27465820,-53.85786000
0.30517578,-52.61687000
0.33569336,-52.25035000
0.36621094,-53.44360000
0.39672852,-56.74602000
0.42724609,-56.52694000
0.45776367,-57.49599000
0.48828125,-59.06109000
0.51879883,-52.42807000
0.54931641,-46.82543000
0.57983398,-42.05596000
0.61035156,-38.44941000
0.64086914,-36.40889000
0.67138672,-36.06515000
0.70190430,-37.52699000
0.73242188,-40.86214000
0.76293945,-45.82970000
0.79345703,-50.96206000
0.82397461,-52.82189000
0.85449219,-51.98079000
0.88500977,-51.46646000
0.91552734,-51.43542000
0.94604492,-51.52758000
0.97656250,-52.13884000
1.00708008,-53.54168000
1.03759766,-54.98963000
1.06811523,-55.68698000
1.09863281,-57.78941000
1.12915039,-66.11678000
1.15966797,-59.35198000
1.19018555,-54.77105000
1.22070313,-54.69022000
1.25122070,-56.65971000
1.28173828,-58.81418000
1.31225586,-59.85226000
1.34277344,-59.31672000
1.37329102,-58.05833000
1.40380859,-57.13498000
1.43432617,-56.82398000
1.46484375,-56.76937000
1.49536133,-56.87756000
1.52587891,-57.46299000
1.55639648,-58.18936000
1.58691406,-57.68848000
1.61743164,-56.05173000
1.64794922,-55.07445000
1.67846680,-55.77110000
1.70898438,-58.55677000
1.73950195,-61.78905000
1.77001953,-59.77138000
1.80053711,-57.44705000
1.83105469,-56.94184000
1.86157227,-57.33174000
1.89208984,-57.26994000
1.92260742,-56.40723000
1.95312500,-55.36853000
1.98364258,-54.80358000
2.01416016,-55.35147000
2.04467773,-57.55245000
2.07519531,-61.26417000
2.10571289,-62.30749000
2.13623047,-59.49860000
2.16674805,-57.17539000
2.19726563,-55.63002000
2.22778320,-54.79966000
2.25830078,-55.20432000
2.28881836,-57.83633000
2.31933594,-64.53281000
2.34985352,-73.28412000
2.38037109,-68.58136000
2.41088867,-68.19437000
2.44140625,-68.34067000
2.47192383,-65.75109000
2.50244141,-62.59274000
2.53295898,-60.64203000
2.56347656,-59.37086000
2.59399414,-59.20498000
2.62451172,-60.13465000
2.65502930,-60.69516000
2.68554688,-60.29085000
2.71606445,-59.92415000
2.74658203,-59.89208000
2.77709961,-60.15453000
2.80761719,-60.50912000
2.83813477,-60.55214000
2.86865234,-60.59181000
2.89916992,-61.31365000
2.92968750,-62.44413000
2.96020508,-62.63583000
2.99072266,-61.62628000
3.02124023,-60.41819000
3.05175781,-59.74506000
3.08227539,-59.93129000
3.11279297,-60.36581000
3.14331055,-59.73882000
3.17382813,-58.66716000
3.20434570,-58.38490000
3.23486328,-58.82258000
3.26538086,-59.24576000
3.29589844,-59.64341000
3.32641602,-60.01675000
3.35693359,-58.54770000
3.38745117,-55.94393000
3.41796875,-54.51157000
3.44848633,-54.95462000
3.47900391,-57.35447000
3.50952148,-60.15889000
3.54003906,-59.81132000
3.57055664,-58.96289000
3.60107422,-59.24263000
3.63159180,-59.58526000
3.66210938,-58.75275000
3.69262695,-57.16282000
3.72314453,-56.16690000
3.75366211,-56.64737000
3.78417969,-58.05970000
3.81469727,-57.02275000
3.84521484,-54.55666000
3.87573242,-53.44404000
3.90625000,-53.68662000
3.93676758,-54.10920000
3.96728516,-53.54994000
3.99780273,-52.89470000
4.02832031,-53.22598000
4.05883789,-54.33439000
4.08935547,-54.97455000
4.11987305,-54.67633000
4.15039063,-54.08540000
4.18090820,-53.46660000
4.21142578,-53.04861000
4.24194336,-53.02967000
4.27246094,-53.31389000
4.30297852,-53.80579000
4.33349609,-54.56114000
4.36401367,-55.21444000
4.39453125,-55.16119000
4.42504883,-54.76202000
4.45556641,-54.47876000
4.48608398,-54.19147000
4.51660156,-54.08427000
4.54711914,-54.78475000
4.57763672,-56.66315000
4.60815430,-58.94360000
4.63867188,-59.13489000
4.66918945,-57.88638000
4.69970703,-57.28858000
4.73022461,-57.60891000
4.76074219,-58.55992000
4.79125977,-59.58424000
4.82177734,-59.45309000
4.85229492,-58.06154000
4.88281250,-56.79453000
4.91333008,-56.24887000
4.94384766,-56.51073000
4.97436523,-57.63909000
5.00488281,-59.43476000
5.03540039,-60.95795000
5.06591797,-61.09219000
5.09643555,-59.99870000
5.12695313,-58.78708000
5.15747070,-58.34946000
5.18798828,-58.74889000
5.21850586,-59.53769000
5.24902344,-60.52408000
5.27954102,-61.36110000
5.31005859,-60.70422000
5.34057617,-59.11899000
5.37109375,-58.24696000
5.40161133,-58.47980000
5.43212891,-59.82239000
5.46264648,-62.56119000
5.49316406,-65.84050000
5.52368164,-64.41095000
5.55419922,-61.70791000
5.58471680,-60.46047000
5.61523438,-60.71379000
5.64575195,-63.33401000
5.67626953,-69.70427000
5.70678711,-65.96877000
5.73730469,-61.15394000
5.76782227,-59.49241000
5.79833984,-59.62308000
5.82885742,-60.76588000
5.85937500,-61.59849000
5.88989258,-60.17799000
5.92041016,-57.62114000
5.95092773,-55.77785000
5.98144531,-54.93039000
6.01196289,-54.83641000
6.04248047,-55.31834000
6.07299805,-56.12760000
6.10351563,-56.44886000
6.13403320,-55.76713000
6.16455078,-54.80828000
6.19506836,-54.22450000
6.22558594,-54.25802000
6.25610352,-54.97330000
6.28662109,-56.13593000
6.31713867,-57.14034000
6.34765625,-57.37201000
6.37817383,-56.73617000
6.40869141,-55.84441000
6.43920898,-55.41270000
6.46972656,-55.76816000
6.50024414,-56.97821000
6.53076172,-58.97862000
6.56127930,-61.23129000
6.59179688,-62.35756000
6.62231445,-62.20055000
6.65283203,-61.93589000
6.68334961,-61.89317000
6.71386719,-62.28577000
6.74438477,-63.56844000
6.77490234,-65.82755000
6.80541992,-68.60911000
6.83593750,-72.16660000
6.86645508,-77.53396000
6.89697266,-74.26122000
6.92749023,-69.16841000
6.95800781,-66.71178000
6.98852539,-66.13569000
7.01904297,-67.01775000
7.04956055,-68.94759000
7.08007813,-71.74086000
7.11059570,-76.06010000
7.14111328,-83.39172000
7.17163086,-80.87845000
7.20214844,-75.74532000
7.23266602,-73.26474000
7.26318359,-72.43308000
7.29370117,-73.31092000
7.32421875,-76.08214000
7.35473633,-79.58335000
7.38525391,-79.90210000
7.41577148,-77.64556000
7.44628906,-75.71813000
7.47680664,-74.41349000
7.50732422,-73.54842000
7.53784180,-73.58222000
7.56835938,-75.11895000
7.59887695,-78.94215000
7.62939453,-87.24150000
7.65991211,-91.18492000
7.69042969,-85.09761000
7.72094727,-82.27616000
7.75146484,-80.12247000
7.78198242,-78.27245000
7.81250000,-76.39227000
7.84301758,-75.49136000
7.87353516,-77.03585000
7.90405273,-82.52087000
7.93457031,-80.79219000
7.96508789,-75.94106000
7.99560547,-75.06210000
8.02612305,-77.23105000
8.05664063,-79.33800000
8.08715820,-75.65723000
8.11767578,-72.51010000
8.14819336,-71.03903000
8.17871094,-70.70901000
8.20922852,-71.07604000
8.23974609,-71.86368000
8.27026367,-73.39417000
8.30078125,-75.31541000
8.33129883,-73.18424000
8.36181641,-69.45711000
8.39233398,-67.25471000
8.42285156,-66.47238000
8.45336914,-66.83189000
8.48388672,-68.10648000
8.51440430,-69.78690000
8.54492188,-70.85761000
8.57543945,-70.36926000
8.60595703,-68.90764000
8.63647461,-67.82767000
8.66699219,-67.63911000
8.69750977,-68.29768000
8.72802734,-69.68159000
8.75854492,-71.52722000
8.78906250,-73.06276000
8.81958008,-73.55470000
8.85009766,-72.76797000
8.88061523,-71.19028000
8.91113281,-69.90937000
8.94165039,-69.45245000
8.97216797,-69.79724000
9.00268555,-71.09368000
9.03320313,-74.66837000
9.06372070,-88.04238000
9.09423828,-78.50034000
9.12475586,-72.86073000
9.15527344,-71.84377000
9.18579102,-73.27310000
9.21630859,-76.24139000
9.24682617,-78.52390000
9.27734375,-79.11604000
9.30786133,-81.19956000
9.33837891,-85.81756000
9.36889648,-83.98945000
9.39941406,-79.68392000
9.42993164,-78.45498000
9.46044922,-79.96680000
9.49096680,-82.79458000
9.52148438,-80.01485000
9.55200195,-75.77611000
9.58251953,-73.68553000
9.61303711,-73.32442000
9.64355469,-74.33177000
9.67407227,-76.65575000
9.70458984,-80.06949000
9.73510742,-85.40480000
9.76562500,-99.87625000
9.79614258,-86.09219000
9.82666016,-80.29079000
9.85717773,-78.98750000
9.88769531,-80.71290000
9.91821289,-80.03890000
9.94873047,-77.83168000
9.97924805,-77.31969000
10.00976563,-76.98740000
10.04028320,-75.97498000
10.07080078,-76.12892000
10.10131836,-79.18349000
10.13183594,-88.69048000
10.16235352,-87.96834000
10.19287109,-79.09948000
10.22338867,-75.78619000
10.25390625,-75.02672000
10.28442383,-76.14145000
10.31494141,-79.68151000
10.34545898,-81.43434000
10.37597656,-75.06552000
10.40649414,-72.66245000
10.43701172,-73.75620000
10.46752930,-77.73195000
10.49804688,-80.51030000
10.52856445,-77.83471000
10.55908203,-76.78384000
10.58959961,-78.45948000
10.62011719,-82.24104000
10.65063477,-83.44169000
10.68115234,-80.86373000
10.71166992,-79.36376000
10.74218750,-79.11982000
10.77270508,-79.48501000
10.80322266,-81.00018000
10.83374023,-84.65268000
10.86425781,-77.43810000
10.89477539,-70.46734000
10.92529297,-66.40334000
10.95581055,-64.49937000
10.98632813,-64.53232000
11.01684570,-65.99332000
11.04736328,-67.82874000
11.07788086,-69.51088000
11.10839844,-71.95763000
11.13891602,-77.05163000
11.16943359,-82.86003000
11.19995117,-74.49835000
11.23046875,-70.76936000
11.26098633,-70.01652000
11.29150391,-71.14156000
11.32202148,-73.02932000
11.35253906,-75.54601000
11.38305664,-84.05549000
11.41357422,-76.47476000
11.44409180,-70.13856000
11.47460938,-69.09283000
11.50512695,-72.21107000
11.53564453,-83.72718000
11.56616211,-80.03427000
11.59667969,-75.17842000
11.62719727,-75.56519000
11.65771484,-78.52949000
11.68823242,-81.97920000
11.71875000,-82.99035000
11.74926758,-82.00040000
11.77978516,-79.84099000
11.81030273,-77.20239000
11.84082031,-75.57626000
11.87133789,-75.55061000
11.90185547,-76.16934000
11.93237305,-74.78280000
11.96289063,-71.36638000
11.99340820,-68.89857000
12.02392578,-68.00561000
12.05444336,-68.22193000
12.08496094,-68.83791000
12.11547852,-69.08720000
12.14599609,-68.84981000
12.17651367,-69.26152000
12.20703125,-71.35977000
12.23754883,-76.24673000
12.26806641,-80.95296000
12.29858398,-76.20431000
12.32910156,-73.32162000
12.35961914,-72.17477000
12.39013672,-72.32677000
12.42065430,-73.52836000
12.45117188,-75.00092000
12.48168945,-75.58284000
12.51220703,-75.02007000
12.54272461,-73.77716000
12.57324219,-72.19479000
12.60375977,-71.25283000
12.63427734,-72.06977000
12.66479492,-74.64547000
12.69531250,-77.16637000
12.72583008,-78.27798000
12.75634766,-77.08401000
12.78686523,-74.68633000
12.81738281,-73.25214000
12.84790039,-72.55633000
12.87841797,-72.25381000
12.90893555,-72.61588000
12.93945313,-73.86617000
12.96997070,-76.06673000
13.00048828,-79.64181000
13.03100586,-86.18694000
13.06152344,-100.97120000
13.09204102,-93.26422000
13.12255859,-87.59667000
13.15307617,-84.43596000
13.18359375,-83.57346000
13.21411133,-82.56927000
13.24462891,-80.30109000
13.27514648,-80.01338000
13.30566406,-83.78673000
13.33618164,-88.95221000
13.36669922,-80.21147000
13.39721680,-77.94100000
13.42773438,-80.34108000
13.45825195,-81.91804000
13.48876953,-73.13110000
13.51928711,-66.80457000
13.54980469,-63.79292000
13.58032227,-63.59566000
13.61083984,-65.93760000
13.64135742,-71.20538000
13.67187500,-84.84625000
13.70239258,-72.71337000
13.73291016,-67.31612000
13.76342773,-66.27938000
13.79394531,-68.13166000
13.82446289,-71.64612000
13.85498047,-73.86823000
13.88549805,-74.98988000
13.91601563,-77.90100000
13.94653320,-81.06140000
13.97705078,-79.55543000
14.00756836,-77.20279000
14.03808594,-76.85748000
14.06860352,-78.04933000
14.09912109,-79.47572000
14.12963867,-80.30556000
14.16015625,-80.85674000
14.19067383,-81.54073000
14.22119141,-83.27414000
14.25170898,-87.42738000
14.28222656,-84.66492000
14.31274414,-80.29646000
14.34326172,-78.93494000
14.37377930,-78.69405000
14.40429688,-78.53932000
14.43481445,-79.44634000
14.46533203,-82.44951000
14.49584961,-84.91141000
14.52636719,-83.13420000
14.55688477,-81.83936000
14.58740234,-82.58254000
14.61791992,-87.48837000
14.64843750,-94.13379000
14.67895508,-84.86011000
14.70947266,-81.51671000
14.73999023,-79.09138000
14.77050781,-76.73772000
14.80102539,-75.60477000
14.83154297,-76.21433000
14.86206055,-78.54821000
14.89257813,-82.59911000
14.92309570,-90.24841000
14.95361328,-92.89200000
14.98413086,-83.66200000
15.01464844,-79.37029000
15.04516602,-76.08408000
15.07568359,-73.96486000
15.10620117,-73.36353000
15.13671875,-73.73013000
15.16723633,-73.66873000
15.19775391,-72.59968000
15.22827148,-71.84541000
15.25878906,-72.73074000
15.28930664,-74.73239000
15.31982422,-74.71327000
15.35034180,-74.09273000
15.38085938,-74.74970000
15.41137695,-75.92957000
15.44189453,-76.88660000
15.47241211,-76.98241000
15.50292969,-76.17697000
15.53344727,-75.33932000
15.56396484,-74.74231000
15.59448242,-74.42120000
15.62500000,-74.52088000
15.65551758,-75.06924000
15.68603516,-75.82030000
15.71655273,-76.41654000
15.74707031,-77.04390000
15.77758789,-78.71974000
15.80810547,-82.92683000
15.83862305,-88.50313000
15.86914063,-86.27786000
15.89965820,-84.80357000
15.93017578,-82.95329000
15.96069336,-81.39897000
15.99121094,-81.01759000
16.02172852,-81.16611000
16.05224609,-81.69249000
16.08276367,-82.58081000
16.11328125,-83.91165000
16.14379883,-86.08490000
16.17431641,-87.14998000
16.20483398,-85.58407000
16.23535156,-85.85677000
16.26586914,-87.10898000
16.29638672,-84.03954000
16.32690430,-80.86911000
16.35742188,-79.41265000
16.38793945,-79.48572000
16.41845703,-81.13090000
16.44897461,-84.20711000
16.47949219,-86.97282000
16.51000977,-88.22865000
16.54052734,-90.10805000
16.57104492,-92.75437000
16.60156250,-92.52730000
16.63208008,-90.03699000
16.66259766,-87.49844000
16.69311523,-83.78833000
16.72363281,-81.95624000
16.75415039,-83.32138000
16.78466797,-87.58176000
16.81518555,-89.48753000
16.84570313,-87.30491000
16.87622070,-86.49028000
16.90673828,-84.69678000
16.93725586,-81.26884000
16.96777344,-78.95115000
16.99829102,-78.02383000
17.02880859,-78.12450000
17.05932617,-79.06607000
17.08984375,-80.67563000
17.12036133,-82.97565000
17.15087891,-87.33970000
17.18139648,-102.06980000
17.21191406,-90.80407000
17.24243164,-84.41489000
17.27294922,-81.78298000
17.30346680,-81.04049000
17.33398438,-80.78685000
17.36450195,-79.40659000
17.39501953,-77.55367000
17.42553711,-76.99399000
17.45605469,-78.88937000
17.48657227,-84.91657000
17.51708984,-102.85040000
17.54760742,-84.70551000
17.57812500,-79.75483000
17.60864258,-76.79459000
17.63916016,-74.64187000
17.66967773,-71.24752000
17.70019531,-67.48180000
17.73071289,-66.30309000
17.76123047,-69.17322000
17.79174805,-78.50974000
17.82226563,-76.07558000
17.85278320,-74.58871000
17.88330078,-77.48438000
17.91381836,-81.45616000
17.94433594,-85.93668000
17.97485352,-95.01435000
18.00537109,-89.83509000
18.03588867,-87.13128000
18.06640625,-89.38050000
18.09692383,-91.16715000
18.12744141,-86.76857000
18.15795898,-82.53827000
18.18847656,-81.61893000
18.21899414,-84.67291000
18.24951172,-89.62523000
18.28002930,-85.25749000
18.31054688,-84.25408000
18.34106445,-87.00002000
18.37158203,-90.08528000
18.40209961,-94.33048000
18.43261719,-91.96075000
18.46313477,-84.57544000
18.49365234,-82.35535000
18.52416992,-82.11639000
18.55468750,-82.22449000
18.58520508,-83.36060000
18.61572266,-86.60924000
18.64624023,-91.43169000
18.67675781,-87.89304000
18.70727539,-83.10901000
18.73779297,-80.49310000
18.76831055,-79.16946000
18.79882813,-78.31887000
18.82934570,-77.69086000
18.85986328,-77.81944000
18.89038086,-79.13383000
18.92089844,-81.21648000
18.95141602,-83.51528000
18.98193359,-85.61652000
19.01245117,-83.81451000
19.04296875,-81.94759000
19.07348633,-82.43285000
19.10400391,-84.83064000
19.13452148,-89.50436000
19.16503906,-100.55180000
19.19555664,-93.70389000
19.22607422,-86.21779000
19.25659180,-82.93861000
19.28710938,-82.26913000
19.31762695,-82.92897000
19.34814453,-83.09241000
19.37866211,-84.42268000
19.40917969,-91.55508000
19.43969727,-88.91628000
19.47021484,-81.66042000
19.50073242,-78.98957000
19.53125000,-78.26711000
19.56176758,-78.80960000
19.59228516,-80.43865000
19.62280273,-82.90234000
19.65332031,-86.47461000
19.68383789,-93.89949000
19.71435547,-92.10832000
19.74487305,-85.12654000
19.77539063,-82.82378000
19.80590820,-83.55277000
19.83642578,-86.88689000
19.86694336,-92.60394000
19.89746094,-95.44061000
19.92797852,-89.90287000
19.95849609,-87.42477000
19.98901367,-87.98251000
20.01953125,-89.61324000
20.05004883,-89.01009000
20.08056641,-86.79353000
20.11108398,-84.31436000
20.14160156,-82.29504000
20.17211914,-81.31905000
20.20263672,-81.38992000
20.23315430,-82.54128000
20.26367188,-85.36075000
20.29418945,-90.31760000
20.32470703,-92.02798000
20.35522461,-91.15300000
20.38574219,-94.41872000
20.41625977,-91.33084000
20.44677734,-89.55010000
20.47729492,-93.28827000
20.50781250,-97.48792000
20.53833008,-95.65767000
20.56884766,-93.64584000
20.59936523,-99.59181000
20.62988281,-92.38644000
20.66040039,-85.91343000
20.69091797,-83.67122000
20.72143555,-82.79559000
20.75195313,-82.70409000
20.78247070,-83.84085000
20.81298828,-84.75520000
20.84350586,-84.09502000
20.87402344,-84.18552000
20.90454102,-85.26948000
20.93505859,-85.30862000
20.96557617,-83.20816000
20.99609375,-81.11602000
21.02661133,-79.91113000
21.05712891,-79.53035000
21.08764648,-79.83321000
21.11816406,-80.38605000
21.14868164,-81.10419000
21.17919922,-83.36064000
21.20971680,-89.16000000
21.24023438,-89.24033000
21.27075195,-85.61807000
21.30126953,-87.01643000
21.33178711,-93.93294000
21.36230469,-94.64583000
21.39282227,-90.80539000
21.42333984,-90.56836000
21.45385742,-89.73064000
21.48437500,-89.38065000
21.51489258,-93.22396000
21.54541016,-88.30923000
21.57592773,-84.12952000
21.60644531,-84.06310000
21.63696289,-85.58117000
21.66748047,-85.83298000
21.69799805,-86.87547000
21.72851563,-88.22417000
21.75903320,-84.14023000
21.78955078,-82.39391000
21.82006836,-84.23099000
21.85058594,-86.38577000
21.88110352,-83.01369000
21.91162109,-80.82383000
21.94213867,-80.79491000
21.97265625,-82.05349000
22.00317383,-83.95637000
22.03369141,-86.50532000
22.06420898,-90.55620000
22.09472656,-96.37848000
22.12524414,-89.02238000
22.15576172,-84.83313000
22.18627930,-84.75455000
22.21679688,-88.37871000
22.24731445,-99.92218000
22.27783203,-86.28740000
22.30834961,-80.26140000
22.33886719,-78.40050000
22.36938477,-79.34703000
22.39990234,-82.24559000
22.43041992,-85.41129000
22.46093750,-88.61732000
22.49145508,-94.16172000
22.52197266,-94.03432000
22.55249023,-91.74664000
22.58300781,-95.77183000
22.61352539,-96.69667000
22.64404297,-90.00186000
22.67456055,-89.47929000
22.70507813,-89.22574000
22.73559570,-84.68706000
22.76611328,-82.55227000
22.79663086,-82.68470000
22.82714844,-83.67103000
22.85766602,-84.62185000
22.88818359,-86.17432000
22.91870117,-89.73912000
22.94921875,-90.08134000
22.97973633,-86.95741000
23.01025391,-86.67060000
23.04077148,-87.88016000
23.07128906,-89.72745000
23.10180664,-94.32304000
23.13232422,-97.38127000
23.16284180,-86.93683000
23.19335938,-82.73857000
23.22387695,-81.41522000
23.25439453,-82.23382000
23.28491211,-85.43367000
23.31542969,-93.07439000
23.34594727,-96.48946000
23.37646484,-87.59857000
23.40698242,-84.59220000
23.43750000,-83.88879000
23.46801758,-83.57504000
23.49853516,-82.74405000
23.52905273,-82.19901000
23.55957031,-82.85660000
23.59008789,-83.95573000
23.62060547,-83.97849000
23.65112305,-84.03725000
23.68164063,-85.47372000
23.71215820,-87.42588000
23.74267578,-84.57809000
23.77319336,-81.73593000
23.80371094,-80.95605000
23.83422852,-81.46854000
23.86474609,-82.64769000
23.89526367,-84.16878000
23.92578125,-85.74799000
23.95629883,-87.21005000
23.98681641,-86.35600000
24.01733398,-83.14088000
24.04785156,-81.55479000
24.07836914,-82.39914000
24.10888672,-85.52307000
24.13940430,-89.67732000
24.16992188,-90.12807000
24.20043945,-91.19141000
24.23095703,-97.86073000
24.26147461,-96.94768000
24.29199219,-98.05028000
24.32250977,-92.91324000
24.35302734,-87.32234000
24.38354492,-85.48905000
24.41406250,-84.55170000
24.44458008,-83.35448000
24.47509766,-82.92060000
24.50561523,-84.51524000
24.53613281,-88.16058000
24.56665039,-89.85938000
24.59716797,-88.04507000
24.62768555,-86.22336000
24.65820313,-85.50231000
24.68872070,-87.17259000
24.71923828,-90.17995000
24.74975586,-89.80122000
24.78027344,-90.80044000
24.81079102,-96.06325000
24.84130859,-101.43170000
24.87182617,-104.91460000
24.90234375,-104.96820000
24.93286133,-96.49379000
24.96337891,-90.85550000
24.99389648,-89.20991000
25.02441406,-91.33515000
25.05493164,-87.29668000
25.08544922,-82.78731000
25.11596680,-81.84071000
25.14648438,-83.28439000
25.17700195,-86.22403000
25.20751953,-90.80290000
25.23803711,-96.94031000
25.26855469,-91.11622000
25.29907227,-86.66960000
25.32958984,-85.73927000
25.36010742,-87.37529000
25.39062500,-89.48624000
25.42114258,-86.28865000
25.45166016,-84.01252000
25.48217773,-85.61471000
25.51269531,-93.39586000
25.54321289,-98.69556000
25.57373047,-90.47730000
25.60424805,-89.79668000
25.63476563,-91.53466000
25.66528320,-91.75548000
25.69580078,-88.88530000
25.72631836,-86.01243000
25.75683594,-84.57665000
25.78735352,-85.52013000
25.81787109,-90.17819000
25.84838867,-103.67860000
25.87890625,-96.97704000
25.90942383,-90.25560000
25.93994141,-85.59830000
25.97045898,-83.79620000
26.00097656,-84.32228000
26.03149414,-85.60223000
26.06201172,-86.10738000
26.09252930,-86.08382000
26.12304688,-86.46434000
26.15356445,-87.83607000
26.18408203,-89.51290000
26.21459961,-89.86577000
26.24511719,-91.09860000
26.27563477,-91.97610000
26.30615234,-89.35913000
26.33666992,-88.94614000
26.36718750,-90.33767000
26.39770508,-91.71123000
26.42822266,-93.65113000
26.45874023,-90.57950000
26.48925781,-85.46471000
26.51977539,-84.52348000
26.55029297,-86.87911000
26.58081055,-87.00592000
26.61132813,-85.20873000
26.64184570,-85.69378000
26.67236328,-88.30084000
26.70288086,-93.60118000
26.73339844,-103.54340000
26.76391602,-92.71579000
26.79443359,-88.90392000
26.82495117,-88.47644000
26.85546875,-89.81441000
26.88598633,-87.02248000
26.91650391,-83.03757000
26.94702148,-82.46440000
26.97753906,-85.83840000
27.00805664,-92.23449000
27.03857422,-91.74403000
27.06909180,-86.04510000
27.09960938,-83.48152000
27.13012695,-84.14536000
27.16064453,-86.77178000
27.19116211,-89.99512000
27.22167969,-92.55357000
27.25219727,-89.99741000
27.28271484,-86.99477000
27.31323242,-87.08061000
27.34375000,-90.62421000
27.37426758,-95.15458000
27.40478516,-90.11367000
27.43530273,-87.25017000
27.46582031,-88.13997000
27.49633789,-93.99210000
27.52685547,-118.04120000
27.55737305,-97.78441000
27.58789063,-96.95911000
27.61840820,-100.95410000
27.64892578,-110.01880000
27.67944336,-93.06326000
27.70996094,-87.15363000
27.74047852,-84.64613000
27.77099609,-84.56673000
27.80151367,-87.16564000
27.83203125,-93.18107000
27.86254883,-92.14958000
27.89306641,-90.93478000
27.92358398,-95.39388000
27.95410156,-86.07031000
27.98461914,-80.45673000
28.01513672,-78.25306000
28.04565430,-78.27093000
28.07617188,-80.15762000
28.10668945,-83.59605000
28.13720703,-86.88814000
28.16772461,-87.86514000
28.19824219,-88.15034000
28.22875977,-90.07659000
28.25927734,-91.54890000
28.28979492,-85.85644000
28.32031250,-82.36519000
28.35083008,-81.67301000
28.38134766,-83.23653000
28.41186523,-86.09821000
28.44238281,-85.99059000
28.47290039,-83.69461000
28.50341797,-82.94147000
28.53393555,-83.90182000
28.56445313,-85.87772000
28.59497070,-87.36523000
28.62548828,-86.48746000
28.65600586,-84.56544000
28.68652344,-83.40668000
28.71704102,-83.50641000
28.74755859,-84.61086000
28.77807617,-86.20461000
28.80859375,-88.82092000
28.83911133,-94.80966000
28.86962891,-99.12741000
28.90014648,-91.62492000
28.93066406,-88.98037000
28.96118164,-88.36612000
28.99169922,-88.05771000
29.02221680,-86.51408000
29.05273438,-84.96169000
29.08325195,-86.03839000
29.11376953,-94.47704000
29.14428711,-91.99294000
29.17480469,-85.01534000
29.20532227,-83.73383000
29.23583984,-85.40457000
29.26635742,-89.85985000
29.29687500,-95.07920000
29.32739258,-92.53452000
29.35791016,-90.30250000
29.38842773,-90.01773000
29.41894531,-89.59818000
29.44946289,-88.57642000
29.47998047,-89.48439000
29.51049805,-94.10127000
29.54101563,-94.28017000
29.57153320,-86.90549000
29.60205078,-82.26385000
29.63256836,-81.60239000
29.66308594,-85.33645000
29.69360352,-93.30428000
29.72412109,-87.44601000
29.75463867,-85.42548000
29.78515625,-88.26356000
29.81567383,-101.79920000
29.84619141,-91.81262000
29.87670898,-86.85611000
29.90722656,-83.63341000
29.93774414,-80.93784000
29.96826172,-80.06149000
29.99877930,-81.46534000
30.02929688,-85.64996000
30.05981445,-93.29195000
30.09033203,-92.31205000
30.12084961,-90.92709000
30.15136719,-93.56065000
30.18188477,-93.09399000
30.21240234,-91.26472000
30.24291992,-94.11621000
30.27343750,-94.01482000
30.30395508,-89.21582000
30.33447266,-89.17538000
30.36499023,-95.73242000
30.39550781,-99.11073000
30.42602539,-92.77657000
30.45654297,-103.34220000
30.48706055,-90.67322000
30.51757813,-84.98666000
30.54809570,-84.25989000
30.57861328,-85.85133000
30.60913086,-87.80667000
30.63964844,-88.25546000
30.67016602,-87.58867000
30.70068359,-86.93619000
30.73120117,-86.74669000
30.76171875,-86.90256000
30.79223633,-86.70989000
30.82275391,-86.11965000
30.85327148,-85.97073000
30.88378906,-86.91559000
30.91430664,-89.84043000
30.94482422,-96.51105000
30.97534180,-94.30736000
31.00585938,-88.62074000
31.03637695,-85.78769000
31.06689453,-85.08018000
31.09741211,-85.61771000
31.12792969,-86.48563000
31.15844727,-88.13206000
31.18896484,-90.00085000
31.21948242,-89.73909000
31.25000000,-87.90038000
31.28051758,-87.28027000
31.31103516,-89.57429000
31.34155273,-95.64502000
31.37207031,-94.88316000
31.40258789,-90.16440000
31.43310547,-88.37927000
31.46362305,-88.85657000
31.49414063,-90.61959000
31.52465820,-91.29900000
31.55517578,-91.14149000
31.58569336,-95.37755000
31.61621094,-96.74979000
31.64672852,-88.36303000
31.67724609,-87.77260000
31.70776367,-91.59929000
31.73828125,-90.35394000
31.76879883,-87.36986000
31.79931641,-87.14568000
31.82983398,-87.57109000
31.86035156,-85.66613000
31.89086914,-82.35432000
31.92138672,-79.69930000
31.95190430,-78.76946000
31.98242188,-80.52604000
32.01293945,-86.92893000
32.04345703,-90.74070000
32.07397461,-85.23236000
32.10449219,-84.97653000
32.13500977,-87.08203000
32.16552734,-89.43760000
32.19604492,-88.70702000
32.22656250,-87.19094000
32.25708008,-87.22415000
32.28759766,-87.87682000
32.31811523,-88.88124000
32.34863281,-88.30865000
32.37915039,-86.28230000
32.40966797,-86.72196000
32.44018555,-90.47118000
32.47070313,-93.66504000
32.50122070,-91.94365000
32.53173828,-90.62654000
32.56225586,-89.90204000
32.59277344,-90.86201000
32.62329102,-94.84727000
32.65380859,-96.54743000
32.68432617,-93.71543000
32.71484375,-93.39275000
32.74536133,-94.90877000
32.77587891,-98.06876000
32.80639648,-96.06625000
32.83691406,-89.80003000
32.86743164,-88.09158000
32.89794922,-92.93855000
32.92846680,-93.89087000
32.95898438,-88.36300000
32.98950195,-88.23615000
33.02001953,-84.99059000
33.05053711,-82.13942000
33.08105469,-82.30371000
33.11157227,-85.37677000
33.14208984,-91.60895000
33.17260742,-96.18178000
33.20312500,-89.17236000
33.23364258,-84.46418000
33.26416016,-82.60563000
33.29467773,-82.62547000
33.32519531,-83.28297000
33.35571289,-83.76247000
33.38623047,-84.76029000
33.41674805,-86.48793000
33.44726563,-85.76401000
33.47778320,-84.46175000
33.50830078,-85.45265000
33.53881836,-85.85725000
33.56933594,-82.67861000
33.59985352,-80.98398000
33.63037109,-81.00651000
33.66088867,-81.18044000
33.69140625,-80.59592000
33.72192383,-79.86133000
33.75244141,-79.65440000
33.78295898,-80.14615000
33.81347656,-81.91916000
33.84399414,-87.37832000
33.87451172,-96.35253000
33.90502930,-84.06924000
33.93554688,-81.20901000
33.96606445,-81.79665000
33.99658203,-84.42865000
34.02709961,-86.54071000
34.05761719,-87.43614000
34.08813477,-91.47808000
34.11865234,-99.40235000
34.14916992,-94.55700000
34.17968750,-96.17761000
34.21020508,-91.45320000
34.24072266,-87.87164000
34.27124023,-88.37035000
34.30175781,-92.23031000
34.33227539,-100.56450000
34.36279297,-96.55448000
34.39331055,-95.75123000
34.42382813,-89.87016000
34.45434570,-84.86930000
34.48486328,-83.54968000
34.51538086,-84.56657000
34.54589844,-86.49756000
34.57641602,-88.57404000
34.60693359,-90.47229000
34.63745117,-88.75827000
34.66796875,-85.93240000
34.69848633,-85.26340000
34.72900391,-87.21820000
34.75952148,-91.95098000
34.79003906,-98.41669000
34.82055664,-101.98010000
34.85107422,-92.37997000
34.88159180,-87.85725000
34.91210938,-85.67855000
34.94262695,-83.70983000
34.97314453,-81.99767000
35.00366211,-81.42506000
35.03417969,-82.14050000
35.06469727,-83.43701000
35.09521484,-84.33531000
35.12573242,-84.70737000
35.15625000,-85.36861000
35.18676758,-86.95216000
35.21728516,-89.46379000
35.24780273,-91.81198000
35.27832031,-91.86187000
35.30883789,-92.92741000
35.33935547,-98.68271000
35.36987305,-90.28192000
35.40039063,-84.13557000
35.43090820,-80.99872000
35.46142578,-79.62627000
35.49194336,-79.80360000
35.52246094,-81.42608000
35.55297852,-82.96935000
35.58349609,-82.60103000
35.61401367,-82.70023000
35.64453125,-85.70802000
35.67504883,-92.72205000
35.70556641,-90.09018000
35.73608398,-87.95049000
35.76660156,-88.60579000
35.79711914,-89.41090000
35.82763672,-87.62515000
35.85815430,-86.44028000
35.88867188,-89.49974000
35.91918945,-93.88284000
35.94970703,-88.40031000
35.98022461,-86.76102000
36.01074219,-86.53518000
36.04125977,-88.22007000
36.07177734,-90.38406000
36.10229492,-85.47929000
36.13281250,-84.60658000
36.16333008,-89.12448000
36.19384766,-88.30341000
36.22436523,-84.12576000
36.25488281,-83.56610000
36.28540039,-83.67738000
36.31591797,-82.26905000
36.34643555,-80.77630000
36.37695313,-80.42240000
36.40747070,-81.20822000
36.43798828,-82.90867000
36.46850586,-85.61359000
36.49902344,-89.39131000
36.52954102,-91.87524000
36.56005859,-90.71217000
36.59057617,-88.93634000
36.62109375,-86.88865000
36.65161133,-84.33922000
36.68212891,-82.03439000
36.71264648,-80.63844000
36.74316406,-80.29949000
36.77368164,-81.11855000
36.80419922,-83.39023000
36.83471680,-88.27285000
36.86523438,-105.34670000
36.89575195,-86.57729000
36.92626953,-81.38084000
36.95678711,-80.14527000
36.98730469,-81.68301000
37.01782227,-84.97631000
37.04833984,-87.57938000
37.07885742,-89.49940000
37.10937500,-92.53508000
37.13989258,-93.43571000
37.17041016,-89.94649000
37.20092773,-86.70760000
37.23144531,-85.17722000
37.26196289,-85.71563000
37.29248047,-88.37724000
37.32299805,-92.15491000
37.35351563,-94.00050000
37.38403320,-90.80070000
37.41455078,-86.35795000
37.44506836,-83.88111000
37.47558594,-82.78030000
37.50610352,-81.87138000
37.53662109,-80.91487000
37.56713867,-80.85312000
37.59765625,-82.59322000
37.62817383,-86.55638000
37.65869141,-90.74017000
37.68920898,-91.68182000
37.71972656,-94.06060000
37.75024414,-96.33142000
37.78076172,-90.93552000
37.81127930,-86.22707000
37.84179688,-83.75270000
37.87231445,-83.73029000
37.90283203,-85.88248000
37.93334961,-88.67554000
37.96386719,-91.50537000
37.99438477,-98.53226000
38.02490234,-101.83900000
38.05541992,-91.67504000
38.08593750,-88.98502000
38.11645508,-89.07178000
38.14697266,-91.22821000
38.17749023,-96.80350000
38.20800781,-108.05050000
38.23852539,-92.40323000
38.26904297,-87.43523000
38.29956055,-85.07588000
38.33007813,-83.93152000
38.36059570,-83.43628000
38.39111328,-84.20230000
38.42163086,-87.83146000
38.45214844,-92.70256000
38.48266602,-88.14381000
38.51318359,-87.73842000
38.54370117,-94.30225000
38.57421875,-97.25148000
38.60473633,-90.55492000
38.63525391,-90.68903000
38.66577148,-92.29255000
38.69628906,-88.03101000
38.72680664,-84.19777000
38.75732422,-82.64732000
38.78784180,-82.48795000
38.81835938,-82.71453000
38.84887695,-82.79380000
38.87939453,-82.68327000
38.90991211,-82.51965000
38.94042969,-82.42679000
38.97094727,-82.40068000
39.00146484,-83.19138000
39.03198242,-86.50954000
39.06250000,-96.34930000
39.09301758,-97.76348000
39.12353516,-90.85503000
39.15405273,-90.02632000
39.18457031,-90.93559000
39.21508789,-90.63814000
39.24560547,-88.48444000
39.27612305,-86.94576000
39.30664063,-87.15874000
39.33715820,-88.49840000
39.36767578,-89.30566000
39.39819336,-87.33919000
39.42871094,-83.47676000
39.45922852,-80.53319000
39.48974609,-79.64603000
39.52026367,-80.92579000
39.55078125,-83.65150000
39.58129883,-85.35964000
39.61181641,-84.02917000
39.64233398,-82.22276000
39.67285156,-81.94648000
39.70336914,-83.00988000
39.73388672,-84.30367000
39.76440430,-85.39725000
39.79492188,-87.05776000
39.82543945,-86.26381000
39.85595703,-82.08129000
39.88647461,-79.50464000
39.91699219,-79.29131000
39.94750977,-81.41522000
39.97802734,-85.21158000
40.00854492,-87.22337000
40.03906250,-86.80726000
40.06958008,-88.76137000
40.10009766,-99.20485000
40.13061523,-96.95932000
40.16113281,-93.44708000
40.19165039,-94.06997000
40.22216797,-90.47304000
40.25268555,-87.82760000
40.28320313,-87.42141000
40.31372070,-89.79010000
40.34423828,-95.82616000
40.37475586,-101.43140000
40.40527344,-97.97958000
40.43579102,-96.59218000
40.46630859,-97.39236000
40.49682617,-94.33593000
40.52734375,-89.04227000
40.55786133,-86.41048000
40.58837891,-86.02406000
40.61889648,-86.89449000
40.64941406,-87.64098000
40.67993164,-87.60648000
40.71044922,-87.58630000
40.74096680,-88.80202000
40.77148438,-93.31577000
40.80200195,-97.07389000
40.83251953,-89.99541000
40.86303711,-88.10301000
40.89355469,-89.99780000
40.92407227,-92.74032000
40.95458984,-91.54953000
40.98510742,-90.89005000
41.01562500,-90.08437000
41.04614258,-91.52764000
41.07666016,-94.86456000
41.10717773,-89.96146000
41.13769531,-87.88556000
41.16821289,-88.20721000
41.19873047,-89.51264000
41.22924805,-96.60702000
41.25976563,-90.82277000
41.29028320,-83.70351000
41.32080078,-81.91964000
41.35131836,-82.93832000
41.38183594,-85.32870000
41.41235352,-88.06493000
41.44287109,-89.64311000
41.47338867,-86.09662000
41.50390625,-82.16381000
41.53442383,-80.24627000
41.56494141,-80.45124000
41.59545898,-82.68780000
41.62597656,-86.56812000
41.65649414,-91.15251000
41.68701172,-96.34514000
41.71752930,-101.12690000
41.74804688,-100.70610000
41.77856445,-105.34330000
41.80908203,-95.43266000
41.83959961,-90.76278000
41.87011719,-92.60888000
41.90063477,-100.38500000
41.93115234,-94.50649000
41.96166992,-92.74229000
41.99218750,-92.12184000
42.02270508,-92.11723000
42.05322266,-90.51102000
42.08374023,-90.41450000
42.11425781,-94.96657000
42.14477539,-97.89740000
42.17529297,-94.12628000
42.20581055,-92.08641000
42.23632813,-88.86874000
42.26684570,-85.29632000
42.29736328,-83.49507000
42.32788086,-84.10485000
42.35839844,-86.37320000
42.38891602,-87.39471000
42.41943359,-84.38087000
42.44995117,-81.77237000
42.48046875,-82.28270000
42.51098633,-85.78966000
42.54150391,-87.48958000
42.57202148,-85.95976000
42.60253906,-85.24506000
42.63305664,-85.93689000
42.66357422,-88.97253000
42.69409180,-96.74696000
42.72460938,-99.71754000
42.75512695,-96.61793000
42.78564453,-106.49640000
42.81616211,-93.20210000
42.84667969,-88.68617000
42.87719727,-89.13047000
42.90771484,-94.41267000
42.93823242,-96.63942000
42.96875000,-93.21084000
42.99926758,-94.67490000
43.02978516,-90.27457000
43.06030273,-87.09192000
43.09082031,-88.81237000
43.12133789,-96.06470000
43.15185547,-90.94460000
43.18237305,-88.00681000
43.21289063,-90.38876000
43.24340820,-96.34147000
43.27392578,-95.72978000
43.30444336,-100.48030000
43.33496094,-99.29482000
43.36547852,-90.08691000
43.39599609,-86.30171000
43.42651367,-84.98741000
43.45703125,-84.28644000
43.48754883,-83.67715000
43.51806641,-83.88107000
43.54858398,-85.01618000
43.57910156,-87.45415000
43.60961914,-92.98380000
43.64013672,-108.79330000
43.67065430,-95.26381000
43.70117188,-91.94177000
43.73168945,-93.09016000
43.76220703,-102.85240000
43.79272461,-90.51631000
43.82324219,-83.27102000
43.85375977,-80.14365000
43.88427734,-79.45193000
43.91479492,-80.59618000
43.94531250,-83.99300000
43.97583008,-94.05807000
44.00634766,-91.53237000
44.03686523,-86.71185000
44.06738281,-87.43378000
44.09790039,-91.03830000
44.12841797,-93.40450000
44.15893555,-88.47075000
44.18945313,-86.21690000
44.21997070,-85.95458000
44.25048828,-85.77640000
44.28100586,-84.78752000
44.31152344,-83.57452000
44.34204102,-82.69398000
44.37255859,-82.29933000
44.40307617,-82.73553000
44.43359375,-84.51884000
44.46411133,-88.35007000
44.49462891,-92.97073000
44.52514648,-87.77609000
44.55566406,-83.60825000
44.58618164,-82.13744000
44.61669922,-82.55637000
44.64721680,-84.22645000
44.67773438,-85.85571000
44.70825195,-85.75875000
44.73876953,-84.93845000
44.76928711,-85.48690000
44.79980469,-89.44118000
44.83032227,-93.58914000
44.86083984,-87.67537000
44.89135742,-86.64326000
44.92187500,-92.17065000
44.95239258,-94.77965000
44.98291016,-84.35455000
45.01342773,-81.49876000
45.04394531,-81.40710000
45.07446289,-81.98326000
45.10498047,-82.55874000
45.13549805,-83.71833000
45.16601563,-85.41196000
45.19653320,-88.76160000
45.22705078,-95.31059000
45.25756836,-93.03185000
45.28808594,-88.18816000
45.31860352,-85.99704000
45.34912109,-85.91904000
45.37963867,-88.11815000
45.41015625,-90.93311000
45.44067383,-89.20928000
45.47119141,-86.56226000
45.50170898,-85.28384000
45.53222656,-85.35851000
45.56274414,-85.78078000
45.59326172,-85.69173000
45.62377930,-86.30456000
45.65429688,-89.10305000
45.68481445,-93.85207000
45.71533203,-94.57092000
45.74584961,-89.41956000
45.77636719,-85.97688000
45.80688477,-85.75768000
45.83740234,-89.24187000
45.86791992,-94.45377000
45.89843750,-89.34068000
45.92895508,-85.67474000
45.95947266,-84.00218000
45.98999023,-84.84351000
46.02050781,-89.61452000
46.05102539,-92.73697000
46.08154297,-87.69908000
46.11206055,-86.69555000
46.14257813,-89.44485000
46.17309570,-98.29757000
46.20361328,-106.56630000
46.23413086,-102.77140000
46.26464844,-99.24553000
46.29516602,-93.65090000
46.32568359,-87.75428000
46.35620117,-83.96457000
46.38671875,-83.08868000
46.41723633,-84.57358000
46.44775391,-86.90910000
46.47827148,-87.21971000
46.50878906,-85.42432000
46.53930664,-84.17932000
46.56982422,-85.40433000
46.60034180,-91.04424000
46.63085938,-101.16650000
46.66137695,-89.13591000
46.69189453,-86.34703000
46.72241211,-86.94559000
46.75292969,-87.30979000
46.78344727,-86.99542000
46.81396484,-88.24886000
46.84448242,-88.36270000
46.87500000,-87.43686000
46.90551758,-88.19759000
46.93603516,-89.86664000
46.96655273,-89.58363000
46.99707031,-87.85326000
47.02758789,-87.54150000
47.05810547,-88.54893000
47.08862305,-88.37807000
47.11914063,-85.97310000
47.14965820,-83.86055000
47.18017578,-83.86131000
47.21069336,-86.28627000
47.24121094,-89.29169000
47.27172852,-88.50299000
47.30224609,-86.20602000
47.33276367,-84.60830000
47.36328125,-84.57161000
47.39379883,-87.47691000
47.42431641,-93.65226000
47.45483398,-87.07210000
47.48535156,-83.60506000
47.51586914,-84.30443000
47.54638672,-90.43176000
47.57690430,-98.49847000
47.60742188,-90.77390000
47.63793945,-95.44132000
47.66845703,-93.85378000
47.69897461,-88.91507000
47.72949219,-89.47816000
47.76000977,-91.79103000
47.79052734,-91.78476000
47.82104492,-89.56928000
47.85156250,-87.81944000
47.88208008,-88.04803000
47.91259766,-93.68175000
47.94311523,-94.75896000
47.97363281,-84.84073000
48.00415039,-82.01942000
48.03466797,-81.57253000
48.06518555,-81.09600000
48.09570313,-80.14616000
48.12622070,-80.02657000
48.15673828,-81.65259000
48.18725586,-85.81962000
48.21777344,-92.57424000
48.24829102,-90.20992000
48.27880859,-87.35902000
48.30932617,-87.81467000
48.33984375,-91.70551000
48.37036133,-98.64665000
48.40087891,-93.99811000
48.43139648,-90.16746000
48.46191406,-89.95815000
48.49243164,-93.13264000
48.52294922,-96.30032000
48.55346680,-92.84629000
48.58398438,-86.48112000
48.61450195,-83.77750000
48.64501953,-84.42673000
48.67553711,-86.63216000
48.70605469,-86.56844000
48.73657227,-85.37218000
48.76708984,-85.20310000
48.79760742,-86.35967000
48.82812500,-89.23947000
48.85864258,-95.35873000
48.88916016,-91.51155000
48.91967773,-85.51528000
48.95019531,-83.16871000
48.98071289,-82.23301000
49.01123047,-81.68273000
49.04174805,-82.14236000
49.07226563,-84.81976000
49.10278320,-91.28689000
49.13330078,-91.67958000
49.16381836,-89.28532000
49.19433594,-92.04609000
49.22485352,-95.33429000
49.25537109,-96.55708000
49.28588867,-102.71170000
49.31640625,-100.46780000
49.34692383,-95.59363000
49.37744141,-94.06805000
49.40795898,-91.36836000
49.43847656,-89.14745000
49.46899414,-89.04621000
49.49951172,-89.67311000
49.53002930,-88.52122000
49.56054688,-87.74144000
49.59106445,-89.99740000
49.62158203,-98.88061000
49.65209961,-102.37200000
49.68261719,-99.48086000
49.71313477,-96.29752000
49.74365234,-88.25027000
49.77416992,-83.98982000
49.80468750,-81.70877000
49.83520508,-81.08086000
49.86572266,-81.92361000
49.89624023,-83.63518000
49.92675781,-85.27048000
49.95727539,-86.38773000
49.98779297,-87.16163000
50.01831055,-85.71159000
