Frequency,Channel A
(MHz),(dBu)

0.00000000,-35.10058000
0.03051758,-34.88939000
0.06103516,-37.95603000
0.09155273,-42.78061000
0.12207031,-49.61858000
0.15258789,-55.92470000
0.18310547,-55.64297000
0.21362305,-58.29914000
0.24414063,-63.54066000
0.27465820,-61.03681000
0.30517578,-60.35455000
0.33569336,-65.95481000
0.36621094,-71.42353000
0.39672852,-64.33794000
0.42724609,-58.74442000
0.45776367,-54.46088000
0.48828125,-53.52180000
0.51879883,-55.73220000
0.54931641,-60.48973000
0.57983398,-68.55702000
0.61035156,-66.83327000
0.64086914,-62.58169000
0.67138672,-65.95771000
0.70190430,-87.92771000
0.73242188,-65.99989000
0.76293945,-59.79525000
0.79345703,-57.14935000
0.82397461,-57.84195000
0.85449219,-60.91042000
0.88500977,-64.01459000
0.91552734,-66.99147000
0.94604492,-68.75335000
0.97656250,-71.46107000
1.00708008,-79.11904000
1.03759766,-71.40533000
1.06811523,-69.29829000
1.09863281,-68.94882000
1.12915039,-63.20261000
1.15966797,-57.38243000
1.19018555,-54.61421000
1.22070313,-55.12393000
1.25122070,-59.78246000
1.28173828,-69.49182000
1.31225586,-64.76524000
1.34277344,-64.57849000
1.37329102,-67.26683000
1.40380859,-64.78635000
1.43432617,-63.23749000
1.46484375,-66.99644000
1.49536133,-82.79565000
1.52587891,-65.08640000
1.55639648,-62.58942000
1.58691406,-64.44093000
1.61743164,-69.18714000
1.64794922,-70.80637000
1.67846680,-66.70810000
1.70898438,-63.46714000
1.73950195,-62.90080000
1.77001953,-64.72251000
1.80053711,-64.84547000
1.83105469,-63.55807000
1.86157227,-65.18633000
1.89208984,-68.84248000
1.92260742,-66.78841000
1.95312500,-65.22658000
1.98364258,-64.47544000
2.01416016,-61.97709000
2.04467773,-61.01202000
2.07519531,-62.88868000
2.10571289,-64.84026000
2.13623047,-62.97778000
2.16674805,-62.92641000
2.19726563,-66.08589000
2.22778320,-65.77624000
2.25830078,-62.53793000
2.28881836,-60.21023000
2.31933594,-58.70356000
2.34985352,-59.57325000
2.38037109,-64.53385000
2.41088867,-71.29625000
2.44140625,-67.35089000
2.47192383,-68.35331000
2.50244141,-64.11971000
2.53295898,-60.54335000
2.56347656,-61.26935000
2.59399414,-66.50419000
2.62451172,-69.70078000
2.65502930,-66.84721000
2.68554688,-66.55145000
2.71606445,-66.35962000
2.74658203,-66.48721000
2.77709961,-66.52352000
2.80761719,-65.68813000
2.83813477,-65.49920000
2.86865234,-66.03242000
2.89916992,-67.44264000
2.92968750,-70.38768000
2.96020508,-67.88907000
2.99072266,-63.58229000
3.02124023,-62.23755000
3.05175781,-63.32241000
3.08227539,-64.86459000
3.11279297,-64.68669000
3.14331055,-64.96434000
3.17382813,-65.91241000
3.20434570,-65.05104000
3.23486328,-64.12733000
3.26538086,-63.52779000
3.29589844,-62.63612000
3.32641602,-64.12625000
3.35693359,-67.62166000
3.38745117,-64.02342000
3.41796875,-62.63439000
3.44848633,-65.14883000
3.47900391,-70.07880000
3.50952148,-69.22186000
3.54003906,-63.62254000
3.57055664,-60.63551000
3.60107422,-60.12668000
3.63159180,-60.98725000
3.66210938,-61.20452000
3.69262695,-61.30106000
3.72314453,-63.73294000
3.75366211,-66.30270000
3.78417969,-62.59514000
3.81469727,-60.78658000
3.84521484,-61.75453000
3.87573242,-62.98491000
3.90625000,-61.94492000
3.93676758,-61.60621000
3.96728516,-62.18357000
3.99780273,-61.26464000
4.02832031,-60.08532000
4.05883789,-60.63295000
4.08935547,-61.76611000
4.11987305,-60.77689000
4.15039063,-60.37857000
4.18090820,-61.83562000
4.21142578,-62.24975000
4.24194336,-60.79246000
4.27246094,-60.25568000
4.30297852,-61.26170000
4.33349609,-61.85497000
4.36401367,-60.61068000
4.39453125,-60.79258000
4.42504883,-62.30158000
4.45556641,-61.72933000
4.48608398,-61.38150000
4.51660156,-62.11022000
4.54711914,-61.10530000
4.57763672,-60.66551000
4.60815430,-63.11067000
4.63867188,-65.50938000
4.66918945,-63.33109000
4.69970703,-61.63485000
4.73022461,-60.18179000
4.76074219,-59.60834000
4.79125977,-60.59152000
4.82177734,-62.22713000
4.85229492,-63.29353000
4.88281250,-63.87022000
4.91333008,-64.29184000
4.94384766,-63.82195000
4.97436523,-62.24802000
5.00488281,-61.18858000
5.03540039,-61.34947000
5.06591797,-62.71468000
5.09643555,-63.02439000
5.12695313,-61.54671000
5.15747070,-61.63951000
5.18798828,-62.32100000
5.21850586,-61.51290000
5.24902344,-62.18336000
5.27954102,-65.60203000
5.31005859,-64.91682000
5.34057617,-62.46659000
5.37109375,-63.18482000
5.40161133,-63.79425000
5.43212891,-62.20499000
5.46264648,-62.87661000
5.49316406,-67.76405000
5.52368164,-69.80080000
5.55419922,-63.78918000
5.58471680,-61.21952000
5.61523438,-60.54924000
5.64575195,-60.50691000
5.67626953,-60.32226000
5.70678711,-60.61665000
5.73730469,-61.33946000
5.76782227,-59.84139000
5.79833984,-57.62599000
5.82885742,-56.85132000
5.85937500,-57.29325000
5.88989258,-57.72475000
5.92041016,-57.50874000
5.95092773,-57.98210000
5.98144531,-58.91227000
6.01196289,-58.26592000
6.04248047,-57.68982000
6.07299805,-57.81893000
6.10351563,-57.08524000
6.13403320,-56.29923000
6.16455078,-57.14188000
6.19506836,-59.23351000
6.22558594,-59.54346000
6.25610352,-59.57787000
6.28662109,-60.89906000
6.31713867,-60.59237000
6.34765625,-59.99837000
6.37817383,-61.34547000
6.40869141,-63.46413000
6.43920898,-63.23797000
6.46972656,-62.93933000
6.50024414,-64.38903000
6.53076172,-64.97395000
6.56127930,-64.81133000
6.59179688,-66.93671000
6.62231445,-70.77397000
6.65283203,-69.22065000
6.68334961,-66.96782000
6.71386719,-68.75712000
6.74438477,-80.11887000
6.77490234,-74.56772000
6.80541992,-70.64601000
6.83593750,-73.12468000
6.86645508,-77.48394000
6.89697266,-75.92279000
6.92749023,-78.55170000
6.95800781,-87.89534000
6.98852539,-74.85838000
7.01904297,-74.14745000
7.04956055,-80.99086000
7.08007813,-88.60739000
7.11059570,-86.18507000
7.14111328,-80.70252000
7.17163086,-74.19408000
7.20214844,-72.07155000
7.23266602,-73.33463000
7.26318359,-78.32795000
7.29370117,-86.01747000
7.32421875,-103.64100000
7.35473633,-80.36465000
7.38525391,-73.56030000
7.41577148,-71.25521000
7.44628906,-72.66585000
7.47680664,-81.30415000
7.50732422,-79.31177000
7.53784180,-74.60342000
7.56835938,-77.07823000
7.59887695,-75.96287000
7.62939453,-71.97517000
7.65991211,-72.45523000
7.69042969,-79.87007000
7.72094727,-82.69386000
7.75146484,-75.89212000
7.78198242,-76.14667000
7.81250000,-73.72564000
7.84301758,-71.89974000
7.87353516,-73.69264000
7.90405273,-77.95606000
7.93457031,-77.20148000
7.96508789,-77.07065000
7.99560547,-79.29629000
8.02612305,-77.02855000
8.05664063,-79.39810000
8.08715820,-82.91236000
8.11767578,-72.70305000
8.14819336,-70.29913000
8.17871094,-71.71227000
8.20922852,-76.34232000
8.23974609,-79.78640000
8.27026367,-80.54253000
8.30078125,-82.15724000
8.33129883,-73.41080000
8.36181641,-70.09790000
8.39233398,-70.47326000
8.42285156,-73.72906000
8.45336914,-80.78593000
8.48388672,-89.55852000
8.51440430,-80.08298000
8.54492188,-76.84068000
8.57543945,-74.91481000
8.60595703,-74.01018000
8.63647461,-74.60464000
8.66699219,-76.99582000
8.69750977,-81.79382000
8.72802734,-82.37434000
8.75854492,-78.21286000
8.78906250,-77.81973000
8.81958008,-80.48170000
8.85009766,-80.91986000
8.88061523,-82.86983000
8.91113281,-105.04200000
8.94165039,-80.38276000
8.97216797,-76.83350000
9.00268555,-78.03682000
9.03320313,-86.04188000
9.06372070,-87.97388000
9.09423828,-81.49619000
9.12475586,-85.32349000
9.15527344,-86.72940000
9.18579102,-76.11901000
9.21630859,-73.21001000
9.24682617,-73.70973000
9.27734375,-76.62988000
9.30786133,-82.01720000
9.33837891,-86.92065000
9.36889648,-82.18410000
9.39941406,-79.26199000
9.42993164,-78.63680000
9.46044922,-80.73920000
9.49096680,-89.78548000
9.52148438,-91.00203000
9.55200195,-83.50639000
9.58251953,-80.66677000
9.61303711,-79.62311000
9.64355469,-81.52693000
9.67407227,-84.67994000
9.70458984,-79.36049000
9.73510742,-77.81802000
9.76562500,-81.31815000
9.79614258,-86.44272000
9.82666016,-81.22680000
9.85717773,-78.43443000
9.88769531,-78.34099000
9.91821289,-80.72407000
9.94873047,-81.28483000
9.97924805,-76.17902000
10.00976563,-73.30977000
10.04028320,-73.29236000
10.07080078,-76.26385000
10.10131836,-83.26751000
10.13183594,-85.03299000
10.16235352,-83.31467000
10.19287109,-85.43935000
10.22338867,-84.43001000
10.25390625,-81.79775000
10.28442383,-79.62395000
10.31494141,-78.62881000
10.34545898,-80.41188000
10.37597656,-87.58972000
10.40649414,-84.81377000
10.43701172,-80.93930000
10.46752930,-82.43346000
10.49804688,-79.51331000
10.52856445,-76.38804000
10.55908203,-78.99894000
10.58959961,-86.74333000
10.62011719,-78.32446000
10.65063477,-78.67095000
10.68115234,-82.13422000
10.71166992,-73.99329000
10.74218750,-70.60902000
10.77270508,-70.63065000
10.80322266,-73.71335000
10.83374023,-83.12587000
10.86425781,-83.45708000
10.89477539,-78.59895000
10.92529297,-81.44685000
10.95581055,-78.12271000
10.98632813,-73.16582000
11.01684570,-71.74309000
11.04736328,-73.14029000
11.07788086,-78.15970000
11.10839844,-77.66904000
11.13891602,-73.15178000
11.16943359,-73.73882000
11.19995117,-76.99802000
11.23046875,-75.21066000
11.26098633,-73.78569000
11.29150391,-74.87171000
11.32202148,-76.08411000
11.35253906,-75.63320000
11.38305664,-74.76219000
11.41357422,-73.19290000
11.44409180,-71.19312000
11.47460938,-69.89400000
11.50512695,-70.07526000
11.53564453,-72.44972000
11.56616211,-78.72729000
11.59667969,-91.83773000
11.62719727,-83.80029000
11.65771484,-86.54340000
11.68823242,-93.34033000
11.71875000,-86.16576000
11.74926758,-85.41581000
11.77978516,-78.71308000
11.81030273,-74.79770000
11.84082031,-76.19183000
11.87133789,-78.33826000
11.90185547,-73.80161000
11.93237305,-72.98590000
11.96289063,-75.40752000
11.99340820,-79.73202000
12.02392578,-77.23571000
12.05444336,-72.74720000
12.08496094,-72.29356000
12.11547852,-75.62489000
12.14599609,-75.06029000
12.17651367,-72.14985000
12.20703125,-72.26733000
12.23754883,-72.70866000
12.26806641,-71.33222000
12.29858398,-70.97515000
12.32910156,-73.55358000
12.35961914,-80.89500000
12.39013672,-77.68255000
12.42065430,-73.43114000
12.45117188,-72.97882000
12.48168945,-74.80813000
12.51220703,-78.36443000
12.54272461,-80.47499000
12.57324219,-80.31178000
12.60375977,-80.26630000
12.63427734,-77.41492000
12.66479492,-76.15521000
12.69531250,-77.63235000
12.72583008,-80.56622000
12.75634766,-81.42662000
12.78686523,-81.53235000
12.81738281,-85.71461000
12.84790039,-92.58793000
12.87841797,-86.89124000
12.90893555,-89.79054000
12.93945313,-83.84094000
12.96997070,-79.79611000
13.00048828,-80.62745000
13.03100586,-88.08867000
13.06152344,-88.37640000
13.09204102,-79.50885000
13.12255859,-77.97677000
13.15307617,-81.27661000
13.18359375,-92.62528000
13.21411133,-86.97844000
13.24462891,-86.70463000
13.27514648,-84.63463000
13.30566406,-78.96321000
13.33618164,-76.21608000
13.36669922,-75.08665000
13.39721680,-74.68487000
13.42773438,-75.51432000
13.45825195,-80.47810000
13.48876953,-76.60408000
13.51928711,-67.61917000
13.54980469,-64.30827000
13.58032227,-64.97017000
13.61083984,-69.84809000
13.64135742,-82.19322000
13.67187500,-80.76142000
13.70239258,-71.20608000
13.73291016,-66.81679000
13.76342773,-66.50707000
13.79394531,-71.57956000
13.82446289,-80.07201000
13.85498047,-71.81688000
13.88549805,-73.15227000
13.91601563,-83.62993000
13.94653320,-84.97943000
13.97705078,-84.18539000
14.00756836,-92.91767000
14.03808594,-90.58250000
14.06860352,-86.84146000
14.09912109,-84.32544000
14.12963867,-84.75043000
14.16015625,-87.10448000
14.19067383,-88.83009000
14.22119141,-84.80918000
14.25170898,-81.10326000
14.28222656,-80.21460000
14.31274414,-82.10945000
14.34326172,-87.51601000
14.37377930,-91.20030000
14.40429688,-86.26121000
14.43481445,-81.84660000
14.46533203,-78.18256000
14.49584961,-76.77696000
14.52636719,-77.02894000
14.55688477,-78.03445000
14.58740234,-80.45444000
14.61791992,-84.08212000
14.64843750,-83.34010000
14.67895508,-82.16283000
14.70947266,-83.53104000
14.73999023,-86.92485000
14.77050781,-93.06085000
14.80102539,-106.29650000
14.83154297,-95.54965000
14.86206055,-89.30081000
14.89257813,-88.32033000
14.92309570,-89.07154000
14.95361328,-85.72603000
14.98413086,-82.32261000
15.01464844,-81.59875000
15.04516602,-83.13087000
15.07568359,-86.13841000
15.10620117,-89.00666000
15.13671875,-87.69933000
15.16723633,-82.36588000
15.19775391,-75.47746000
15.22827148,-71.44233000
15.25878906,-70.56169000
15.28930664,-72.44031000
15.31982422,-76.69706000
15.35034180,-82.68379000
15.38085938,-84.80675000
15.41137695,-83.04618000
15.44189453,-84.69253000
15.47241211,-95.31161000
15.50292969,-86.11604000
15.53344727,-80.65527000
15.56396484,-80.29848000
15.59448242,-84.19890000
15.62500000,-93.14206000
15.65551758,-97.90155000
15.68603516,-90.60754000
15.71655273,-82.90443000
15.74707031,-79.78740000
15.77758789,-79.42425000
15.80810547,-80.80529000
15.83862305,-83.34652000
15.86914063,-84.66716000
15.89965820,-81.89350000
15.93017578,-80.50706000
15.96069336,-82.15148000
15.99121094,-86.77346000
16.02172852,-91.72894000
16.05224609,-92.43307000
16.08276367,-91.41824000
16.11328125,-83.11014000
16.14379883,-79.06917000
16.17431641,-79.02849000
16.20483398,-83.09755000
16.23535156,-90.53262000
16.26586914,-86.42020000
16.29638672,-86.29933000
16.32690430,-94.69559000
16.35742188,-93.35412000
16.38793945,-88.93943000
16.41845703,-92.85408000
16.44897461,-91.40992000
16.47949219,-85.57118000
16.51000977,-84.67693000
16.54052734,-87.77203000
16.57104492,-95.63018000
16.60156250,-88.24219000
16.63208008,-83.04086000
16.66259766,-81.29550000
16.69311523,-81.93585000
16.72363281,-85.22986000
16.75415039,-90.01872000
16.78466797,-84.66452000
16.81518555,-80.92999000
16.84570313,-80.19437000
16.87622070,-82.15325000
16.90673828,-87.33449000
16.93725586,-90.43275000
16.96777344,-86.99269000
16.99829102,-86.48903000
17.02880859,-88.10295000
17.05932617,-87.34969000
17.08984375,-86.34693000
17.12036133,-89.21551000
17.15087891,-92.71268000
17.18139648,-85.34545000
17.21191406,-81.76247000
17.24243164,-81.59110000
17.27294922,-84.49805000
17.30346680,-89.63767000
17.33398438,-94.17442000
17.36450195,-99.05988000
17.39501953,-89.71957000
17.42553711,-85.66611000
17.45605469,-85.68379000
17.48657227,-87.71331000
17.51708984,-88.72860000
17.54760742,-92.12478000
17.57812500,-96.95287000
17.60864258,-90.86704000
17.63916016,-81.53883000
17.66967773,-72.82041000
17.70019531,-67.51588000
17.73071289,-66.05805000
17.76123047,-69.13580000
17.79174805,-78.66313000
17.82226563,-75.33589000
17.85278320,-75.46844000
17.88330078,-80.70422000
17.91381836,-85.09800000
17.94433594,-83.97552000
17.97485352,-83.71164000
18.00537109,-84.69383000
18.03588867,-84.97962000
18.06640625,-86.07888000
18.09692383,-86.91166000
18.12744141,-85.94580000
18.15795898,-86.16725000
18.18847656,-90.00695000
18.21899414,-97.46522000
18.24951172,-92.14218000
18.28002930,-87.12485000
18.31054688,-84.61643000
18.34106445,-85.70467000
18.37158203,-90.80547000
18.40209961,-93.41343000
18.43261719,-93.99345000
18.46313477,-89.30923000
18.49365234,-87.68063000
18.52416992,-90.49027000
18.55468750,-84.55850000
18.58520508,-81.79206000
18.61572266,-83.66196000
18.64624023,-89.55403000
18.67675781,-88.83574000
18.70727539,-84.06371000
18.73779297,-82.72010000
18.76831055,-84.76550000
18.79882813,-90.88889000
18.82934570,-116.07130000
18.85986328,-90.47791000
18.89038086,-84.37750000
18.92089844,-82.92366000
18.95141602,-85.94524000
18.98193359,-94.25966000
19.01245117,-90.49293000
19.04296875,-88.71794000
19.07348633,-87.22732000
19.10400391,-85.03474000
19.13452148,-84.92515000
19.16503906,-86.85737000
19.19555664,-90.93204000
19.22607422,-101.61860000
19.25659180,-94.59201000
19.28710938,-90.08917000
19.31762695,-86.74422000
19.34814453,-84.51639000
19.37866211,-85.25519000
19.40917969,-90.08263000
19.43969727,-96.65462000
19.47021484,-91.28244000
19.50073242,-85.10933000
19.53125000,-81.93089000
19.56176758,-81.53601000
19.59228516,-83.23317000
19.62280273,-85.64422000
19.65332031,-86.10159000
19.68383789,-84.46559000
19.71435547,-82.81339000
19.74487305,-83.30041000
19.77539063,-87.93873000
19.80590820,-89.23064000
19.83642578,-84.23606000
19.86694336,-83.93462000
19.89746094,-86.62017000
19.92797852,-91.27008000
19.95849609,-95.47719000
19.98901367,-89.52110000
20.01953125,-86.25558000
20.05004883,-84.77963000
20.08056641,-83.54680000
20.11108398,-83.07853000
20.14160156,-83.60583000
20.17211914,-84.05266000
20.20263672,-84.65385000
20.23315430,-85.90958000
20.26367188,-88.90730000
20.29418945,-111.29770000
20.32470703,-84.77357000
20.35522461,-79.40801000
20.38574219,-78.24488000
20.41625977,-80.10906000
20.44677734,-84.43144000
20.47729492,-86.56308000
20.50781250,-84.64677000
20.53833008,-84.55837000
20.56884766,-90.31874000
20.59936523,-91.66216000
20.62988281,-83.25291000
20.66040039,-82.74268000
20.69091797,-86.73579000
20.72143555,-87.54315000
20.75195313,-85.54633000
20.78247070,-88.64063000
20.81298828,-118.32360000
20.84350586,-89.24434000
20.87402344,-86.34273000
20.90454102,-85.97426000
20.93505859,-84.00043000
20.96557617,-84.02644000
20.99609375,-90.24922000
21.02661133,-91.78748000
21.05712891,-85.53232000
21.08764648,-86.82510000
21.11816406,-87.29138000
21.14868164,-84.79752000
21.17919922,-89.52644000
21.20971680,-91.17137000
21.24023438,-82.70923000
21.27075195,-82.30904000
21.30126953,-87.30679000
21.33178711,-104.32120000
21.36230469,-85.27243000
21.39282227,-80.85690000
21.42333984,-79.84171000
21.45385742,-80.83278000
21.48437500,-82.65327000
21.51489258,-84.14310000
21.54541016,-84.89133000
21.57592773,-84.35213000
21.60644531,-83.13763000
21.63696289,-82.72542000
21.66748047,-83.60424000
21.69799805,-86.57706000
21.72851563,-92.21919000
21.75903320,-93.55519000
21.78955078,-86.69897000
21.82006836,-82.04891000
21.85058594,-81.04169000
21.88110352,-82.52020000
21.91162109,-83.72750000
21.94213867,-84.64787000
21.97265625,-87.76541000
22.00317383,-91.66670000
22.03369141,-91.11307000
22.06420898,-91.73985000
22.09472656,-92.89742000
22.12524414,-86.51589000
22.15576172,-84.21326000
22.18627930,-87.30353000
22.21679688,-99.53793000
22.24731445,-90.07599000
22.27783203,-86.98848000
22.30834961,-85.21812000
22.33886719,-83.63519000
22.36938477,-83.70704000
22.39990234,-85.30720000
22.43041992,-86.07034000
22.46093750,-86.44469000
22.49145508,-88.16933000
22.52197266,-86.88751000
22.55249023,-85.38667000
22.58300781,-86.92450000
22.61352539,-91.30258000
22.64404297,-95.57315000
22.67456055,-94.10987000
22.70507813,-90.41008000
22.73559570,-88.44506000
22.76611328,-89.98816000
22.79663086,-97.97820000
22.82714844,-94.58085000
22.85766602,-89.75574000
22.88818359,-87.25502000
22.91870117,-85.88894000
22.94921875,-86.46992000
22.97973633,-87.49199000
23.01025391,-87.33443000
23.04077148,-88.65945000
23.07128906,-94.03856000
23.10180664,-112.41650000
23.13232422,-101.95980000
23.16284180,-96.08855000
23.19335938,-93.64690000
23.22387695,-100.53360000
23.25439453,-92.22451000
23.28491211,-85.26839000
23.31542969,-85.46811000
23.34594727,-95.42006000
23.37646484,-89.26160000
23.40698242,-87.20302000
23.43750000,-94.07990000
23.46801758,-85.10558000
23.49853516,-80.62740000
23.52905273,-79.86042000
23.55957031,-81.56525000
23.59008789,-85.65063000
23.62060547,-89.66122000
23.65112305,-87.67342000
23.68164063,-85.66863000
23.71215820,-84.90477000
23.74267578,-85.02411000
23.77319336,-86.16641000
23.80371094,-88.78107000
23.83422852,-94.24353000
23.86474609,-98.45279000
23.89526367,-88.08494000
23.92578125,-84.84346000
23.95629883,-85.82310000
23.98681641,-89.51266000
24.01733398,-90.27348000
24.04785156,-88.58040000
24.07836914,-87.93619000
24.10888672,-89.16606000
24.13940430,-91.83089000
24.16992188,-95.37198000
24.20043945,-101.92290000
24.23095703,-100.97360000
24.26147461,-90.31425000
24.29199219,-88.09566000
24.32250977,-89.31518000
24.35302734,-90.88077000
24.38354492,-94.32704000
24.41406250,-94.33442000
24.44458008,-91.94403000
24.47509766,-91.52137000
24.50561523,-92.86200000
24.53613281,-92.81503000
24.56665039,-88.02176000
24.59716797,-84.37811000
24.62768555,-82.96826000
24.65820313,-82.40437000
24.68872070,-82.22746000
24.71923828,-83.71311000
24.74975586,-88.98231000
24.78027344,-101.24740000
24.81079102,-89.08890000
24.84130859,-86.23429000
24.87182617,-85.27084000
24.90234375,-84.30210000
24.93286133,-84.00772000
24.96337891,-85.49199000
24.99389648,-90.82116000
25.02441406,-96.21692000
25.05493164,-88.88832000
25.08544922,-87.02575000
25.11596680,-86.49612000
25.14648438,-86.99467000
25.17700195,-87.33475000
25.20751953,-85.20959000
25.23803711,-84.18977000
25.26855469,-85.85516000
25.29907227,-92.04871000
25.32958984,-101.85070000
25.36010742,-89.47563000
25.39062500,-86.81505000
25.42114258,-85.52627000
25.45166016,-82.86758000
25.48217773,-81.22514000
25.51269531,-82.10475000
25.54321289,-84.97308000
25.57373047,-87.32721000
25.60424805,-90.26402000
25.63476563,-95.38181000
25.66528320,-94.54616000
25.69580078,-95.18796000
25.72631836,-92.75055000
25.75683594,-88.12649000
25.78735352,-87.82333000
25.81787109,-92.97983000
25.84838867,-94.28064000
25.87890625,-87.05403000
25.90942383,-82.44743000
25.93994141,-79.46677000
25.97045898,-78.43567000
26.00097656,-79.82846000
26.03149414,-85.14577000
26.06201172,-104.80820000
26.09252930,-89.30993000
26.12304688,-90.16983000
26.15356445,-100.63370000
26.18408203,-96.21817000
26.21459961,-97.37969000
26.24511719,-91.95538000
26.27563477,-89.45558000
26.30615234,-90.62468000
26.33666992,-88.73967000
26.36718750,-87.58045000
26.39770508,-89.74062000
26.42822266,-93.14188000
26.45874023,-93.12470000
26.48925781,-91.37990000
26.51977539,-93.48393000
26.55029297,-102.29240000
26.58081055,-89.29498000
26.61132813,-85.79362000
26.64184570,-86.76378000
26.67236328,-90.23293000
26.70288086,-87.93239000
26.73339844,-85.24557000
26.76391602,-85.69972000
26.79443359,-87.45578000
26.82495117,-86.26941000
26.85546875,-85.67349000
26.88598633,-88.56377000
26.91650391,-90.93060000
26.94702148,-87.31825000
26.97753906,-86.42879000
27.00805664,-86.67702000
27.03857422,-87.34830000
27.06909180,-89.28259000
27.09960938,-89.22218000
27.13012695,-86.54946000
27.16064453,-84.74886000
27.19116211,-85.37204000
27.22167969,-86.92719000
27.25219727,-86.60603000
27.28271484,-87.66060000
27.31323242,-91.36642000
27.34375000,-92.94270000
27.37426758,-95.27378000
27.40478516,-104.71340000
27.43530273,-91.54091000
27.46582031,-87.16292000
27.49633789,-85.76636000
27.52685547,-85.03925000
27.55737305,-84.64728000
27.58789063,-85.39536000
27.61840820,-86.14960000
27.64892578,-86.08510000
27.67944336,-86.38750000
27.70996094,-84.33880000
27.74047852,-82.25418000
27.77099609,-83.06950000
27.80151367,-86.39329000
27.83203125,-88.92709000
27.86254883,-87.92395000
27.89306641,-85.16200000
27.92358398,-83.46755000
27.95410156,-83.54192000
27.98461914,-84.66962000
28.01513672,-85.61916000
28.04565430,-86.25768000
28.07617188,-88.16344000
28.10668945,-94.07586000
28.13720703,-95.19660000
28.16772461,-88.62308000
28.19824219,-86.90927000
28.22875977,-88.56757000
28.25927734,-91.73455000
28.28979492,-86.73843000
28.32031250,-83.83220000
28.35083008,-84.70026000
28.38134766,-89.59001000
28.41186523,-92.77306000
28.44238281,-85.70296000
28.47290039,-83.59901000
28.50341797,-85.30887000
28.53393555,-89.27266000
28.56445313,-92.98868000
28.59497070,-96.58430000
28.62548828,-91.45868000
28.65600586,-91.39246000
28.68652344,-98.30013000
28.71704102,-92.75063000
28.74755859,-87.65301000
28.77807617,-85.99445000
28.80859375,-86.45667000
28.83911133,-88.62666000
28.86962891,-90.92625000
28.90014648,-92.36969000
28.93066406,-88.54231000
28.96118164,-84.06796000
28.99169922,-83.27977000
29.02221680,-85.85567000
29.05273438,-90.49943000
29.08325195,-95.84990000
29.11376953,-106.00500000
29.14428711,-100.76660000
29.17480469,-92.59219000
29.20532227,-87.44099000
29.23583984,-86.53783000
29.26635742,-88.91565000
29.29687500,-90.54734000
29.32739258,-91.54588000
29.35791016,-98.00866000
29.38842773,-90.96896000
29.41894531,-88.05997000
29.44946289,-88.14540000
29.47998047,-86.15926000
29.51049805,-84.26874000
29.54101563,-84.57198000
29.57153320,-86.64112000
29.60205078,-89.00204000
29.63256836,-91.61381000
29.66308594,-95.18780000
29.69360352,-95.04723000
29.72412109,-90.01171000
29.75463867,-88.45956000
29.78515625,-91.41411000
29.81567383,-89.14482000
29.84619141,-82.63986000
29.87670898,-79.97392000
29.90722656,-80.02577000
29.93774414,-82.23225000
29.96826172,-86.35990000
29.99877930,-93.06431000
30.02929688,-101.90300000
30.05981445,-93.05220000
30.09033203,-90.42957000
30.12084961,-91.65392000
30.15136719,-92.83449000
30.18188477,-90.99469000
30.21240234,-91.21952000
30.24291992,-95.53394000
30.27343750,-102.02740000
30.30395508,-96.52115000
30.33447266,-99.60963000
30.36499023,-93.06416000
30.39550781,-89.95993000
30.42602539,-100.04340000
30.45654297,-88.15784000
30.48706055,-82.11469000
30.51757813,-81.19706000
30.54809570,-82.98494000
30.57861328,-85.95378000
30.60913086,-87.79563000
30.63964844,-88.90125000
30.67016602,-92.51944000
30.70068359,-91.35054000
30.73120117,-91.91315000
30.76171875,-95.55602000
30.79223633,-85.17000000
30.82275391,-82.19064000
30.85327148,-81.76900000
30.88378906,-82.15672000
30.91430664,-84.80757000
30.94482422,-93.13941000
30.97534180,-99.08581000
31.00585938,-94.64856000
31.03637695,-96.15563000
31.06689453,-99.46887000
31.09741211,-99.54487000
31.12792969,-93.11916000
31.15844727,-93.28215000
31.18896484,-94.75261000
31.21948242,-92.32568000
31.25000000,-91.66793000
31.28051758,-87.48008000
31.31103516,-82.71220000
31.34155273,-80.40625000
31.37207031,-80.10245000
31.40258789,-81.07171000
31.43310547,-82.40501000
31.46362305,-83.27719000
31.49414063,-83.55196000
31.52465820,-83.74875000
31.55517578,-84.65604000
31.58569336,-86.41599000
31.61621094,-88.52605000
31.64672852,-90.79150000
31.67724609,-89.66902000
31.70776367,-85.86742000
31.73828125,-83.85324000
31.76879883,-84.42450000
31.79931641,-88.27480000
31.82983398,-89.01086000
31.86035156,-85.31803000
31.89086914,-85.23282000
31.92138672,-88.16534000
31.95190430,-93.01644000
31.98242188,-100.50810000
32.01293945,-94.79546000
32.04345703,-90.09347000
32.07397461,-90.87459000
32.10449219,-100.42770000
32.13500977,-93.14697000
32.16552734,-87.00067000
32.19604492,-84.52721000
32.22656250,-83.00592000
32.25708008,-81.72341000
32.28759766,-80.98532000
32.31811523,-81.16596000
32.34863281,-82.34895000
32.37915039,-84.78371000
32.40966797,-89.82353000
32.44018555,-96.05383000
32.47070313,-88.39093000
32.50122070,-85.88297000
32.53173828,-86.63193000
32.56225586,-87.21761000
32.59277344,-86.38109000
32.62329102,-86.58524000
32.65380859,-87.84627000
32.68432617,-88.52646000
32.71484375,-87.53348000
32.74536133,-86.34045000
32.77587891,-86.39382000
32.80639648,-86.92729000
32.83691406,-88.30314000
32.86743164,-89.74743000
32.89794922,-84.64581000
32.92846680,-82.37830000
32.95898438,-84.01048000
32.98950195,-88.32576000
33.02001953,-90.45120000
33.05053711,-93.23396000
33.08105469,-97.49527000
33.11157227,-97.10054000
33.14208984,-97.51029000
33.17260742,-89.71348000
33.20312500,-87.91072000
33.23364258,-92.66066000
33.26416016,-97.58381000
33.29467773,-87.98291000
33.32519531,-84.64550000
33.35571289,-82.97592000
33.38623047,-82.48534000
33.41674805,-83.57138000
33.44726563,-86.00758000
33.47778320,-89.77184000
33.50830078,-96.83651000
33.53881836,-92.92876000
33.56933594,-89.64445000
33.59985352,-90.64072000
33.63037109,-94.90462000
33.66088867,-101.95430000
33.69140625,-100.44430000
33.72192383,-94.12106000
33.75244141,-89.88763000
33.78295898,-86.23611000
33.81347656,-83.46442000
33.84399414,-82.06612000
33.87451172,-82.12124000
33.90502930,-83.29704000
33.93554688,-84.29013000
33.96606445,-84.43862000
33.99658203,-85.17212000
34.02709961,-86.84573000
34.05761719,-88.01727000
34.08813477,-89.27903000
34.11865234,-91.88842000
34.14916992,-93.56772000
34.17968750,-94.35188000
34.21020508,-94.41215000
34.24072266,-91.93852000
34.27124023,-92.31088000
34.30175781,-97.15267000
34.33227539,-96.60976000
34.36279297,-92.07726000
34.39331055,-87.27047000
34.42382813,-84.28258000
34.45434570,-83.73963000
34.48486328,-84.69562000
34.51538086,-86.16057000
34.54589844,-87.37846000
34.57641602,-85.45589000
34.60693359,-82.96043000
34.63745117,-81.88622000
34.66796875,-82.19978000
34.69848633,-83.97320000
34.72900391,-86.32466000
34.75952148,-86.35088000
34.79003906,-84.79058000
34.82055664,-83.99255000
34.85107422,-84.72231000
34.88159180,-85.87059000
34.91210938,-84.38890000
34.94262695,-83.32370000
34.97314453,-84.72507000
35.00366211,-87.93893000
35.03417969,-88.87177000
35.06469727,-88.37472000
35.09521484,-90.14418000
35.12573242,-88.54858000
35.15625000,-83.34766000
35.18676758,-80.11230000
35.21728516,-78.74802000
35.24780273,-79.44307000
35.27832031,-83.10869000
35.30883789,-89.67952000
35.33935547,-86.38955000
35.36987305,-84.45468000
35.40039063,-86.78920000
35.43090820,-92.12166000
35.46142578,-90.50163000
35.49194336,-87.85689000
35.52246094,-85.95325000
35.55297852,-86.08615000
35.58349609,-90.77760000
35.61401367,-89.56573000
35.64453125,-83.29587000
35.67504883,-81.10894000
35.70556641,-81.50342000
35.73608398,-84.23334000
35.76660156,-89.48067000
35.79711914,-95.33562000
35.82763672,-95.06448000
35.85815430,-90.90163000
35.88867188,-88.20679000
35.91918945,-86.21021000
35.94970703,-84.89434000
35.98022461,-86.17023000
36.01074219,-92.05971000
36.04125977,-96.59627000
36.07177734,-95.79040000
36.10229492,-101.90680000
36.13281250,-93.04787000
36.16333008,-92.33341000
36.19384766,-100.19510000
36.22436523,-97.54731000
36.25488281,-89.85400000
36.28540039,-87.21142000
36.31591797,-87.50077000
36.34643555,-90.88273000
36.37695313,-92.12997000
36.40747070,-87.82372000
36.43798828,-86.15799000
36.46850586,-86.70434000
36.49902344,-87.85156000
36.52954102,-87.24028000
36.56005859,-85.91216000
36.59057617,-87.28955000
36.62109375,-97.34409000
36.65161133,-92.34451000
36.68212891,-86.35460000
36.71264648,-85.79269000
36.74316406,-86.96246000
36.77368164,-87.90588000
36.80419922,-89.66510000
36.83471680,-95.98978000
36.86523438,-104.33940000
36.89575195,-92.64874000
36.92626953,-89.29927000
36.95678711,-87.55563000
36.98730469,-87.17424000
37.01782227,-88.92101000
37.04833984,-92.99982000
37.07885742,-95.46936000
37.10937500,-89.88483000
37.13989258,-87.27119000
37.17041016,-88.35548000
37.20092773,-90.51370000
37.23144531,-90.85529000
37.26196289,-92.45387000
37.29248047,-92.86102000
37.32299805,-93.57288000
37.35351563,-96.76704000
37.38403320,-95.64545000
37.41455078,-97.10643000
37.44506836,-93.54298000
37.47558594,-86.13139000
37.50610352,-83.27229000
37.53662109,-82.67216000
37.56713867,-82.86752000
37.59765625,-84.57204000
37.62817383,-89.18915000
37.65869141,-89.91692000
37.68920898,-86.55698000
37.71972656,-86.91762000
37.75024414,-91.56137000
37.78076172,-95.40614000
37.81127930,-90.96652000
37.84179688,-91.21507000
37.87231445,-98.06400000
37.90283203,-105.02870000
37.93334961,-96.84628000
37.96386719,-95.21619000
37.99438477,-90.12740000
38.02490234,-86.97511000
38.05541992,-85.66140000
38.08593750,-85.37719000
38.11645508,-86.28394000
38.14697266,-87.51266000
38.17749023,-86.88858000
38.20800781,-84.65430000
38.23852539,-83.17485000
38.26904297,-83.69482000
38.29956055,-86.48006000
38.33007813,-91.63784000
38.36059570,-98.97424000
38.39111328,-96.86238000
38.42163086,-95.62083000
38.45214844,-96.75060000
38.48266602,-98.03524000
38.51318359,-100.63090000
38.54370117,-109.30420000
38.57421875,-91.85253000
38.60473633,-86.37757000
38.63525391,-83.91788000
38.66577148,-82.69679000
38.69628906,-81.63361000
38.72680664,-81.10078000
38.75732422,-82.86362000
38.78784180,-90.11435000
38.81835938,-97.50325000
38.84887695,-87.97569000
38.87939453,-86.18750000
38.90991211,-84.94545000
38.94042969,-83.03770000
38.97094727,-81.31874000
39.00146484,-80.52414000
39.03198242,-81.26054000
39.06250000,-84.55014000
39.09301758,-92.06723000
39.12353516,-91.82807000
39.15405273,-89.31802000
39.18457031,-92.11430000
39.21508789,-105.59470000
39.24560547,-94.56162000
39.27612305,-88.21288000
39.30664063,-87.18146000
39.33715820,-89.27319000
39.36767578,-88.87846000
39.39819336,-86.13779000
39.42871094,-85.25670000
39.45922852,-85.35697000
39.48974609,-85.40580000
39.52026367,-86.96239000
39.55078125,-91.41142000
39.58129883,-96.51169000
39.61181641,-97.85051000
39.64233398,-98.04130000
39.67285156,-96.41599000
39.70336914,-93.50659000
39.73388672,-90.52426000
39.76440430,-88.00721000
39.79492188,-86.50925000
39.82543945,-86.07174000
39.85595703,-86.42426000
39.88647461,-86.97564000
39.91699219,-87.12288000
39.94750977,-87.31122000
39.97802734,-89.11192000
40.00854492,-99.28344000
40.03906250,-89.37756000
40.06958008,-83.27163000
40.10009766,-82.69847000
40.13061523,-86.45970000
40.16113281,-94.61640000
40.19165039,-96.48158000
40.22216797,-94.20242000
40.25268555,-88.58945000
40.28320313,-86.07469000
40.31372070,-86.35670000
40.34423828,-89.97338000
40.37475586,-96.06856000
40.40527344,-96.20683000
40.43579102,-99.37244000
40.46630859,-95.80806000
40.49682617,-90.40282000
40.52734375,-88.59521000
40.55786133,-90.09902000
40.58837891,-92.51225000
40.61889648,-93.13121000
40.64941406,-92.72050000
40.67993164,-93.89412000
40.71044922,-92.94098000
40.74096680,-88.05030000
40.77148438,-85.40758000
40.80200195,-84.58231000
40.83251953,-85.63042000
40.86303711,-89.46313000
40.89355469,-88.36256000
40.92407227,-84.00315000
40.95458984,-82.80386000
40.98510742,-83.45748000
41.01562500,-83.53918000
41.04614258,-82.28149000
41.07666016,-81.72330000
41.10717773,-83.43667000
41.13769531,-89.40359000
41.16821289,-94.09444000
41.19873047,-89.01598000
41.22924805,-86.05228000
41.25976563,-82.49997000
41.29028320,-81.03789000
41.32080078,-81.40169000
41.35131836,-81.66737000
41.38183594,-81.21515000
41.41235352,-80.91633000
41.44287109,-80.90203000
41.47338867,-81.24486000
41.50390625,-82.24702000
41.53442383,-84.03065000
41.56494141,-86.54053000
41.59545898,-89.81696000
41.62597656,-90.33195000
41.65649414,-85.56260000
41.68701172,-82.29127000
41.71752930,-81.03986000
41.74804688,-81.54517000
41.77856445,-84.33920000
41.80908203,-91.38202000
41.83959961,-91.96832000
41.87011719,-87.24969000
41.90063477,-86.79581000
41.93115234,-88.01614000
41.96166992,-87.53717000
41.99218750,-84.78440000
42.02270508,-82.52335000
42.05322266,-81.41817000
42.08374023,-82.00018000
42.11425781,-85.93675000
42.14477539,-98.30287000
42.17529297,-90.37505000
42.20581055,-89.60609000
42.23632813,-94.06088000
42.26684570,-94.20999000
42.29736328,-91.53706000
42.32788086,-84.77097000
42.35839844,-80.88046000
42.38891602,-80.18825000
42.41943359,-82.14835000
42.44995117,-86.18095000
42.48046875,-90.39645000
42.51098633,-90.94365000
42.54150391,-88.14635000
42.57202148,-84.94772000
42.60253906,-82.40471000
42.63305664,-80.92630000
42.66357422,-80.58701000
42.69409180,-81.06034000
42.72460938,-82.15578000
42.75512695,-83.76652000
42.78564453,-84.95838000
42.81616211,-84.86046000
42.84667969,-84.61264000
42.87719727,-85.81161000
42.90771484,-88.28876000
42.93823242,-92.16248000
42.96875000,-89.63139000
42.99926758,-83.55907000
43.02978516,-83.18163000
43.06030273,-90.33344000
43.09082031,-90.46284000
43.12133789,-84.53181000
43.15185547,-84.64492000
43.18237305,-87.09327000
43.21289063,-89.37625000
43.24340820,-88.36653000
43.27392578,-88.21557000
43.30444336,-92.92145000
43.33496094,-97.11569000
43.36547852,-87.77882000
43.39599609,-83.83804000
43.42651367,-82.61121000
43.45703125,-83.41392000
43.48754883,-87.06761000
43.51806641,-97.71152000
43.54858398,-104.09610000
43.57910156,-112.38410000
43.60961914,-95.39786000
43.64013672,-89.39973000
43.67065430,-87.01741000
43.70117188,-86.70731000
43.73168945,-88.61961000
43.76220703,-90.53379000
43.79272461,-88.58125000
43.82324219,-87.90282000
43.85375977,-88.97613000
43.88427734,-89.08647000
43.91479492,-87.95341000
43.94531250,-87.93949000
43.97583008,-89.33762000
44.00634766,-89.68143000
44.03686523,-89.42326000
44.06738281,-89.87251000
44.09790039,-85.50829000
44.12841797,-82.14468000
44.15893555,-82.14507000
44.18945313,-85.52408000
44.21997070,-93.99646000
44.25048828,-94.60606000
44.28100586,-88.90990000
44.31152344,-90.94952000
44.34204102,-101.74370000
44.37255859,-87.54260000
44.40307617,-84.77287000
44.43359375,-86.19603000
44.46411133,-89.38219000
44.49462891,-89.78699000
44.52514648,-88.39019000
44.55566406,-87.70642000
44.58618164,-89.93025000
44.61669922,-105.91440000
44.64721680,-90.29259000
44.67773438,-86.04165000
44.70825195,-87.25013000
44.73876953,-93.46964000
44.76928711,-92.56602000
44.79980469,-86.09473000
44.83032227,-83.01128000
44.86083984,-82.09328000
44.89135742,-83.70835000
44.92187500,-89.56135000
44.95239258,-94.49268000
44.98291016,-86.68064000
45.01342773,-86.25060000
45.04394531,-92.27705000
45.07446289,-105.92300000
45.10498047,-94.75371000
45.13549805,-94.18718000
45.16601563,-91.71150000
45.19653320,-88.02995000
45.22705078,-85.36513000
45.25756836,-83.26697000
45.28808594,-81.89465000
45.31860352,-82.32056000
45.34912109,-85.74550000
45.37963867,-89.66045000
45.41015625,-86.15112000
45.44067383,-85.32284000
45.47119141,-88.42129000
45.50170898,-93.22555000
45.53222656,-88.66096000
45.56274414,-84.71661000
45.59326172,-82.80518000
45.62377930,-82.86440000
45.65429688,-85.38245000
45.68481445,-88.55865000
45.71533203,-88.42807000
45.74584961,-92.54467000
45.77636719,-99.27469000
45.80688477,-87.46584000
45.83740234,-84.95015000
45.86791992,-84.92738000
45.89843750,-86.04890000
45.92895508,-89.19154000
45.95947266,-95.51408000
45.98999023,-98.37006000
46.02050781,-90.98187000
46.05102539,-86.42806000
46.08154297,-85.13564000
46.11206055,-86.17674000
46.14257813,-88.46394000
46.17309570,-90.64334000
46.20361328,-91.42696000
46.23413086,-88.78605000
46.26464844,-85.02364000
46.29516602,-83.45257000
46.32568359,-84.35550000
46.35620117,-86.15490000
46.38671875,-86.40160000
46.41723633,-85.69994000
46.44775391,-84.39752000
46.47827148,-82.49520000
46.50878906,-81.04781000
46.53930664,-80.48071000
46.56982422,-80.69724000
46.60034180,-82.08293000
46.63085938,-85.08659000
46.66137695,-88.49171000
46.69189453,-89.77375000
46.72241211,-93.36493000
46.75292969,-110.68980000
46.78344727,-92.66148000
46.81396484,-91.71036000
46.84448242,-94.54881000
46.87500000,-95.65346000
46.90551758,-90.58682000
46.93603516,-85.40501000
46.96655273,-83.92829000
46.99707031,-85.77515000
47.02758789,-90.93863000
47.05810547,-94.08443000
47.08862305,-91.33005000
47.11914063,-89.49471000
47.14965820,-87.00843000
47.18017578,-85.54712000
47.21069336,-86.43676000
47.24121094,-89.88971000
47.27172852,-94.49084000
47.30224609,-95.61447000
47.33276367,-92.54601000
47.36328125,-86.40956000
47.39379883,-82.21694000
47.42431641,-81.08672000
47.45483398,-82.94948000
47.48535156,-86.24464000
47.51586914,-86.34271000
47.54638672,-85.18155000
47.57690430,-84.85856000
47.60742188,-85.23935000
47.63793945,-87.22963000
47.66845703,-93.03425000
47.69897461,-96.54259000
47.72949219,-93.44022000
47.76000977,-93.59900000
47.79052734,-93.29597000
47.82104492,-92.40710000
47.85156250,-93.18117000
47.88208008,-96.91200000
47.91259766,-103.44150000
47.94311523,-106.12160000
47.97363281,-96.10081000
48.00415039,-91.34759000
48.03466797,-89.76387000
48.06518555,-90.19394000
48.09570313,-93.19328000
48.12622070,-98.88592000
48.15673828,-93.44336000
48.18725586,-87.31638000
48.21777344,-83.01056000
48.24829102,-80.78984000
48.27880859,-80.94527000
48.30932617,-83.46094000
48.33984375,-87.86127000
48.37036133,-90.09766000
48.40087891,-90.18113000
48.43139648,-93.66496000
48.46191406,-91.59138000
48.49243164,-87.08543000
48.52294922,-85.86753000
48.55346680,-86.32988000
48.58398438,-87.19135000
48.61450195,-87.07749000
48.64501953,-85.59048000
48.67553711,-84.39711000
48.70605469,-85.19290000
48.73657227,-89.57944000
48.76708984,-113.13630000
48.79760742,-90.49760000
48.82812500,-85.57140000
48.85864258,-84.18594000
48.88916016,-84.60281000
48.91967773,-85.66978000
48.95019531,-85.55235000
48.98071289,-83.58614000
49.01123047,-82.11814000
49.04174805,-83.74989000
49.07226563,-92.54471000
49.10278320,-95.08179000
49.13330078,-89.37006000
49.16381836,-89.67171000
49.19433594,-90.55376000
49.22485352,-92.40823000
49.25537109,-97.83472000
49.28588867,-104.95640000
49.31640625,-92.38942000
49.34692383,-85.99305000
49.37744141,-81.89854000
49.40795898,-80.33954000
49.43847656,-81.37803000
49.46899414,-85.31516000
49.49951172,-92.60297000
49.53002930,-96.96310000
49.56054688,-91.55959000
49.59106445,-87.33189000
49.62158203,-86.64246000
49.65209961,-89.08846000
49.68261719,-91.42604000
49.71313477,-89.76610000
49.74365234,-89.63358000
49.77416992,-93.15601000
49.80468750,-96.77209000
49.83520508,-93.18613000
49.86572266,-90.07527000
49.89624023,-89.19885000
49.92675781,-91.28544000
49.95727539,-89.39426000
49.98779297,-85.24303000
50.01831055,-85.07111000
