Frequency,Channel A
(MHz),(dBu)

0.00000000,-10.53811000
0.03051758,-10.88201000
0.06103516,-15.98142000
0.09155273,-25.50270000
0.12207031,-42.44506000
0.15258789,-55.11915000
0.18310547,-65.02001000
0.21362305,-61.75307000
0.24414063,-62.24039000
0.27465820,-61.43407000
0.30517578,-70.90379000
0.33569336,-56.66031000
0.36621094,-53.36516000
0.39672852,-52.94447000
0.42724609,-56.18823000
0.45776367,-65.78638000
0.48828125,-72.87654000
0.51879883,-57.52024000
0.54931641,-48.90103000
0.57983398,-44.58210000
0.61035156,-43.34440000
0.64086914,-44.83510000
0.67138672,-48.43387000
0.70190430,-50.17545000
0.73242188,-51.29377000
0.76293945,-56.87264000
0.79345703,-60.62446000
0.82397461,-54.85726000
0.85449219,-53.36832000
0.88500977,-54.94511000
0.91552734,-58.62346000
0.94604492,-59.60958000
0.97656250,-55.72181000
1.00708008,-52.97785000
1.03759766,-52.96558000
1.06811523,-56.52209000
1.09863281,-67.21742000
1.12915039,-64.18400000
1.15966797,-61.64475000
1.19018555,-66.84465000
1.22070313,-72.29185000
1.25122070,-62.76414000
1.28173828,-62.08491000
1.31225586,-67.35381000
1.34277344,-75.86203000
1.37329102,-66.91872000
1.40380859,-64.89018000
1.43432617,-64.98895000
1.46484375,-69.32496000
1.49536133,-77.83621000
1.52587891,-64.67748000
1.55639648,-62.97784000
1.58691406,-68.14619000
1.61743164,-68.62719000
1.64794922,-62.97304000
1.67846680,-64.44160000
1.70898438,-76.11535000
1.73950195,-68.42763000
1.77001953,-64.46078000
1.80053711,-65.09920000
1.83105469,-67.97093000
1.86157227,-67.98802000
1.89208984,-65.13610000
1.92260742,-63.95975000
1.95312500,-64.87212000
1.98364258,-69.21740000
2.01416016,-86.90152000
2.04467773,-67.77718000
2.07519531,-63.73252000
2.10571289,-63.95075000
2.13623047,-68.80129000
2.16674805,-83.54203000
2.19726563,-68.55315000
2.22778320,-65.67199000
2.25830078,-63.39835000
2.28881836,-61.70693000
2.31933594,-62.72221000
2.34985352,-67.17017000
2.38037109,-74.49977000
2.41088867,-80.52481000
2.44140625,-81.03699000
2.47192383,-70.01975000
2.50244141,-66.00163000
2.53295898,-64.95853000
2.56347656,-67.57552000
2.59399414,-81.87175000
2.62451172,-68.54660000
2.65502930,-65.04717000
2.68554688,-67.02888000
2.71606445,-74.83667000
2.74658203,-81.36993000
2.77709961,-72.02698000
2.80761719,-68.27111000
2.83813477,-65.95380000
2.86865234,-65.38298000
2.89916992,-67.19292000
2.92968750,-69.59835000
2.96020508,-70.46228000
2.99072266,-74.10712000
3.02124023,-87.96017000
3.05175781,-72.06439000
3.08227539,-66.73896000
3.11279297,-66.33080000
3.14331055,-69.03461000
3.17382813,-67.42403000
3.20434570,-65.78535000
3.23486328,-67.39133000
3.26538086,-70.13855000
3.29589844,-72.57696000
3.32641602,-77.42715000
3.35693359,-72.33928000
3.38745117,-66.09229000
3.41796875,-63.17997000
3.44848633,-63.01188000
3.47900391,-66.21638000
3.50952148,-79.31653000
3.54003906,-69.42419000
3.57055664,-64.73445000
3.60107422,-66.12496000
3.63159180,-76.88412000
3.66210938,-72.71272000
3.69262695,-71.09447000
3.72314453,-73.62086000
3.75366211,-65.67738000
3.78417969,-64.45908000
3.81469727,-69.17117000
3.84521484,-74.74413000
3.87573242,-75.61411000
3.90625000,-72.87646000
3.93676758,-66.39864000
3.96728516,-65.90196000
3.99780273,-67.38759000
4.02832031,-66.76383000
4.05883789,-66.44741000
4.08935547,-67.77751000
4.11987305,-74.38258000
4.15039063,-76.28291000
4.18090820,-68.63972000
4.21142578,-71.97099000
4.24194336,-71.89978000
4.27246094,-63.70444000
4.30297852,-61.96706000
4.33349609,-63.54227000
4.36401367,-67.46317000
4.39453125,-76.76765000
4.42504883,-72.90257000
4.45556641,-68.42368000
4.48608398,-71.01465000
4.51660156,-69.23120000
4.54711914,-65.56200000
4.57763672,-65.92896000
4.60815430,-67.60511000
4.63867188,-68.87009000
4.66918945,-73.12942000
4.69970703,-90.71998000
4.73022461,-73.76768000
4.76074219,-68.73446000
4.79125977,-66.48746000
4.82177734,-66.25348000
4.85229492,-67.00215000
4.88281250,-66.48464000
4.91333008,-66.18030000
4.94384766,-68.47974000
4.97436523,-74.07475000
5.00488281,-77.65639000
5.03540039,-72.97351000
5.06591797,-67.40283000
5.09643555,-64.51804000
5.12695313,-63.72223000
5.15747070,-64.03928000
5.18798828,-65.28843000
5.21850586,-68.09297000
5.24902344,-73.57166000
5.27954102,-84.62951000
5.31005859,-80.60100000
5.34057617,-73.73779000
5.37109375,-69.99665000
5.40161133,-69.13558000
5.43212891,-68.15295000
5.46264648,-64.54501000
5.49316406,-62.35347000
5.52368164,-62.39362000
5.55419922,-64.25966000
5.58471680,-67.52982000
5.61523438,-71.95901000
5.64575195,-83.10313000
5.67626953,-71.30382000
5.70678711,-65.06775000
5.73730469,-62.96503000
5.76782227,-62.50303000
5.79833984,-62.60655000
5.82885742,-63.59828000
5.85937500,-66.50506000
5.88989258,-72.75300000
5.92041016,-76.79980000
5.95092773,-74.95124000
5.98144531,-72.48280000
6.01196289,-67.81979000
6.04248047,-64.48074000
6.07299805,-63.41788000
6.10351563,-64.53510000
6.13403320,-67.09380000
6.16455078,-71.41174000
6.19506836,-76.93322000
6.22558594,-75.22529000
6.25610352,-70.13963000
6.28662109,-66.44859000
6.31713867,-65.81109000
6.34765625,-67.20078000
6.37817383,-68.71950000
6.40869141,-69.66204000
6.43920898,-70.56113000
6.46972656,-71.03955000
6.50024414,-70.46552000
6.53076172,-69.42995000
6.56127930,-68.20078000
6.59179688,-67.62652000
6.62231445,-68.94160000
6.65283203,-72.31376000
6.68334961,-76.23660000
6.71386719,-80.01492000
6.74438477,-79.74412000
6.77490234,-76.44471000
6.80541992,-73.46666000
6.83593750,-71.73809000
6.86645508,-72.85231000
6.89697266,-77.35323000
6.92749023,-78.50507000
6.95800781,-77.46218000
6.98852539,-81.28442000
7.01904297,-89.37241000
7.04956055,-91.19991000
7.08007813,-77.59912000
7.11059570,-73.88301000
7.14111328,-74.53146000
7.17163086,-75.36572000
7.20214844,-74.48795000
7.23266602,-76.36116000
7.26318359,-80.92503000
7.29370117,-84.79132000
7.32421875,-95.00656000
7.35473633,-84.62370000
7.38525391,-79.57549000
7.41577148,-75.74338000
7.44628906,-74.30333000
7.47680664,-76.73003000
7.50732422,-84.05356000
7.53784180,-82.05688000
7.56835938,-77.75970000
7.59887695,-77.16758000
7.62939453,-80.24860000
7.65991211,-82.18712000
7.69042969,-79.71320000
7.72094727,-75.20919000
7.75146484,-72.14880000
7.78198242,-71.78352000
7.81250000,-72.23492000
7.84301758,-72.00440000
7.87353516,-73.21952000
7.90405273,-77.64376000
7.93457031,-87.24152000
7.96508789,-92.70064000
7.99560547,-80.77383000
8.02612305,-76.47514000
8.05664063,-75.50759000
8.08715820,-77.41483000
8.11767578,-81.07072000
8.14819336,-80.43305000
8.17871094,-79.65199000
8.20922852,-80.75011000
8.23974609,-80.89714000
8.27026367,-79.99515000
8.30078125,-78.62370000
8.33129883,-76.87982000
8.36181641,-75.55442000
8.39233398,-75.18075000
8.42285156,-75.57705000
8.45336914,-76.26328000
8.48388672,-77.32285000
8.51440430,-78.51205000
8.54492188,-78.63883000
8.57543945,-79.80276000
8.60595703,-86.13402000
8.63647461,-83.50471000
8.66699219,-77.96493000
8.69750977,-77.45394000
8.72802734,-79.34219000
8.75854492,-80.08440000
8.78906250,-78.23197000
8.81958008,-76.97910000
8.85009766,-78.66367000
8.88061523,-86.86265000
8.91113281,-88.51807000
8.94165039,-80.53475000
8.97216797,-79.54616000
9.00268555,-82.41935000
9.03320313,-86.95839000
9.06372070,-84.51646000
9.09423828,-79.73158000
9.12475586,-76.51608000
9.15527344,-75.70293000
9.18579102,-76.77486000
9.21630859,-78.16537000
9.24682617,-79.04678000
9.27734375,-81.34376000
9.30786133,-86.61598000
9.33837891,-89.62543000
9.36889648,-88.10100000
9.39941406,-88.06079000
9.42993164,-85.59241000
9.46044922,-81.74277000
9.49096680,-79.39489000
9.52148438,-78.14887000
9.55200195,-76.41373000
9.58251953,-74.79669000
9.61303711,-74.75209000
9.64355469,-76.47726000
9.67407227,-79.89320000
9.70458984,-86.69446000
9.73510742,-82.14555000
9.76562500,-77.75378000
9.79614258,-77.93449000
9.82666016,-79.04772000
9.85717773,-77.83163000
9.88769531,-78.11272000
9.91821289,-80.47279000
9.94873047,-81.91670000
9.97924805,-79.56166000
10.00976563,-78.54843000
10.04028320,-85.32853000
10.07080078,-82.19238000
10.10131836,-75.14980000
10.13183594,-74.83781000
10.16235352,-77.45106000
10.19287109,-78.64632000
10.22338867,-78.00070000
10.25390625,-77.19551000
10.28442383,-77.29033000
10.31494141,-76.92913000
10.34545898,-76.14950000
10.37597656,-78.26131000
10.40649414,-87.69875000
10.43701172,-84.09018000
10.46752930,-77.96680000
10.49804688,-76.20721000
10.52856445,-76.41789000
10.55908203,-77.96591000
10.58959961,-80.19700000
10.62011719,-82.32932000
10.65063477,-83.62762000
10.68115234,-85.97999000
10.71166992,-97.00682000
10.74218750,-91.60046000
10.77270508,-85.53844000
10.80322266,-81.16921000
10.83374023,-76.89971000
10.86425781,-74.33020000
10.89477539,-73.66883000
10.92529297,-75.29889000
10.95581055,-80.49511000
10.98632813,-91.57607000
11.01684570,-84.00214000
11.04736328,-81.82194000
11.07788086,-86.01623000
11.10839844,-94.85366000
11.13891602,-81.06202000
11.16943359,-76.65181000
11.19995117,-74.92181000
11.23046875,-75.61469000
11.26098633,-77.71254000
11.29150391,-78.45403000
11.32202148,-77.64728000
11.35253906,-76.26296000
11.38305664,-74.94231000
11.41357422,-74.72189000
11.44409180,-76.88010000
11.47460938,-84.26513000
11.50512695,-79.37691000
11.53564453,-73.69441000
11.56616211,-72.73789000
11.59667969,-75.37820000
11.62719727,-81.87581000
11.65771484,-86.62660000
11.68823242,-87.34836000
11.71875000,-94.11851000
11.74926758,-88.79859000
11.77978516,-91.56107000
11.81030273,-87.35580000
11.84082031,-78.06031000
11.87133789,-74.32590000
11.90185547,-73.61648000
11.93237305,-75.80324000
11.96289063,-81.50941000
11.99340820,-84.59247000
12.02392578,-80.46165000
12.05444336,-77.61600000
12.08496094,-75.53048000
12.11547852,-74.79439000
12.14599609,-76.35051000
12.17651367,-82.26472000
12.20703125,-92.77241000
12.23754883,-81.81572000
12.26806641,-79.36169000
12.29858398,-78.59561000
12.32910156,-77.92631000
12.35961914,-77.62808000
12.39013672,-77.87449000
12.42065430,-78.56943000
12.45117188,-80.49199000
12.48168945,-83.81875000
12.51220703,-83.40485000
12.54272461,-82.06140000
12.57324219,-84.00559000
12.60375977,-87.11559000
12.63427734,-85.50394000
12.66479492,-84.92645000
12.69531250,-86.45494000
12.72583008,-86.83064000
12.75634766,-83.72070000
12.78686523,-81.33675000
12.81738281,-81.34737000
12.84790039,-80.84747000
12.87841797,-79.40356000
12.90893555,-81.00323000
12.93945313,-89.23688000
12.96997070,-84.60216000
13.00048828,-79.88142000
13.03100586,-81.02240000
13.06152344,-83.29495000
13.09204102,-79.18132000
13.12255859,-77.35052000
13.15307617,-77.42255000
13.18359375,-78.17064000
13.21411133,-80.35157000
13.24462891,-82.99776000
13.27514648,-81.86678000
13.30566406,-81.94076000
13.33618164,-86.54280000
13.36669922,-99.05119000
13.39721680,-99.31847000
13.42773438,-93.84025000
13.45825195,-83.30406000
13.48876953,-74.14545000
13.51928711,-67.64333000
13.54980469,-64.33539000
13.58032227,-64.03123000
13.61083984,-66.51266000
13.64135742,-71.98601000
13.67187500,-89.73038000
13.70239258,-74.73909000
13.73291016,-69.34640000
13.76342773,-68.55305000
13.79394531,-70.25480000
13.82446289,-72.62473000
13.85498047,-74.40927000
13.88549805,-76.92262000
13.91601563,-82.14131000
13.94653320,-85.47500000
13.97705078,-81.37251000
14.00756836,-80.64087000
14.03808594,-82.58046000
14.06860352,-82.20296000
14.09912109,-78.36615000
14.12963867,-75.89768000
14.16015625,-75.47248000
14.19067383,-77.06157000
14.22119141,-80.66412000
14.25170898,-82.46606000
14.28222656,-78.82327000
14.31274414,-76.65520000
14.34326172,-76.92578000
14.37377930,-78.98537000
14.40429688,-80.80034000
14.43481445,-80.96450000
14.46533203,-81.09639000
14.49584961,-82.63652000
14.52636719,-85.25624000
14.55688477,-85.99816000
14.58740234,-84.10931000
14.61791992,-82.80540000
14.64843750,-83.34416000
14.67895508,-85.00004000
14.70947266,-86.63556000
14.73999023,-88.24329000
14.77050781,-88.46088000
14.80102539,-85.54984000
14.83154297,-83.93581000
14.86206055,-85.67125000
14.89257813,-86.68906000
14.92309570,-83.35085000
14.95361328,-82.42032000
14.98413086,-85.21310000
15.01464844,-92.43297000
15.04516602,-102.98970000
15.07568359,-96.22629000
15.10620117,-91.83582000
15.13671875,-93.35423000
15.16723633,-95.11121000
15.19775391,-88.19443000
15.22827148,-83.92882000
15.25878906,-83.06903000
15.28930664,-85.66745000
15.31982422,-91.86253000
15.35034180,-90.62100000
15.38085938,-86.11151000
15.41137695,-84.95135000
15.44189453,-85.80949000
15.47241211,-85.47832000
15.50292969,-84.99545000
15.53344727,-84.55512000
15.56396484,-83.89233000
15.59448242,-85.27317000
15.62500000,-87.76842000
15.65551758,-89.52949000
15.68603516,-88.63816000
15.71655273,-84.91185000
15.74707031,-81.55643000
15.77758789,-80.68916000
15.80810547,-82.33680000
15.83862305,-85.56090000
15.86914063,-88.83784000
15.89965820,-93.65463000
15.93017578,-99.36249000
15.96069336,-94.35867000
15.99121094,-87.65498000
16.02172852,-85.37523000
16.05224609,-87.58521000
16.08276367,-84.42680000
16.11328125,-80.89696000
16.14379883,-81.70875000
16.17431641,-86.42940000
16.20483398,-91.84763000
16.23535156,-90.85014000
16.26586914,-88.44617000
16.29638672,-88.30437000
16.32690430,-90.86226000
16.35742188,-92.76756000
16.38793945,-90.41846000
16.41845703,-85.24019000
16.44897461,-84.39429000
16.47949219,-92.14490000
16.51000977,-85.45045000
16.54052734,-79.46417000
16.57104492,-78.98949000
16.60156250,-82.60055000
16.63208008,-91.37168000
16.66259766,-93.59163000
16.69311523,-90.62035000
16.72363281,-90.75941000
16.75415039,-87.15610000
16.78466797,-83.69431000
16.81518555,-83.64436000
16.84570313,-87.47784000
16.87622070,-96.67896000
16.90673828,-89.00641000
16.93725586,-84.50990000
16.96777344,-83.28854000
16.99829102,-83.80379000
17.02880859,-86.10526000
17.05932617,-87.13545000
17.08984375,-83.58496000
17.12036133,-81.97896000
17.15087891,-82.31781000
17.18139648,-83.53566000
17.21191406,-85.59269000
17.24243164,-88.44011000
17.27294922,-89.47842000
17.30346680,-86.09116000
17.33398438,-82.04514000
17.36450195,-80.35274000
17.39501953,-82.11520000
17.42553711,-88.90869000
17.45605469,-93.21873000
17.48657227,-88.73170000
17.51708984,-87.16695000
17.54760742,-86.70609000
17.57812500,-88.33089000
17.60864258,-90.91180000
17.63916016,-85.12367000
17.66967773,-75.11760000
17.70019531,-69.46124000
17.73071289,-68.18945000
17.76123047,-72.40759000
17.79174805,-76.78229000
17.82226563,-70.43794000
17.85278320,-70.76966000
17.88330078,-75.82928000
17.91381836,-84.27525000
17.94433594,-85.80573000
17.97485352,-86.15121000
18.00537109,-90.56670000
18.03588867,-96.63093000
18.06640625,-88.70419000
18.09692383,-85.85564000
18.12744141,-85.85316000
18.15795898,-87.34130000
18.18847656,-88.57578000
18.21899414,-87.81296000
18.24951172,-86.51982000
18.28002930,-86.26337000
18.31054688,-87.72305000
18.34106445,-91.72184000
18.37158203,-91.50188000
18.40209961,-87.80737000
18.43261719,-86.88773000
18.46313477,-86.65250000
18.49365234,-86.89014000
18.52416992,-87.47110000
18.55468750,-88.55745000
18.58520508,-93.86365000
18.61572266,-92.16096000
18.64624023,-86.84788000
18.67675781,-87.15607000
18.70727539,-88.42591000
18.73779297,-84.90948000
18.76831055,-83.50786000
18.79882813,-85.11646000
18.82934570,-87.58778000
18.85986328,-86.60969000
18.89038086,-85.14443000
18.92089844,-86.41579000
18.95141602,-93.05734000
18.98193359,-101.30150000
19.01245117,-92.90843000
19.04296875,-94.79250000
19.07348633,-111.28040000
19.10400391,-96.49139000
19.13452148,-90.57227000
19.16503906,-88.66608000
19.19555664,-89.30019000
19.22607422,-90.57066000
19.25659180,-90.50904000
19.28710938,-90.81422000
19.31762695,-94.09918000
19.34814453,-94.93529000
19.37866211,-86.45428000
19.40917969,-84.42039000
19.43969727,-87.08691000
19.47021484,-93.42885000
19.50073242,-95.96609000
19.53125000,-88.66338000
19.56176758,-83.40763000
19.59228516,-81.21187000
19.62280273,-80.90987000
19.65332031,-80.97747000
19.68383789,-81.06732000
19.71435547,-83.32458000
19.74487305,-93.35973000
19.77539063,-88.92478000
19.80590820,-82.70766000
19.83642578,-81.61197000
19.86694336,-82.31160000
19.89746094,-83.36444000
19.92797852,-83.97790000
19.95849609,-83.88422000
19.98901367,-83.92941000
20.01953125,-83.64593000
20.05004883,-82.33160000
20.08056641,-81.56253000
20.11108398,-83.11830000
20.14160156,-88.41399000
20.17211914,-94.58902000
20.20263672,-91.20166000
20.23315430,-93.91200000
20.26367188,-105.42820000
20.29418945,-93.52429000
20.32470703,-92.01668000
20.35522461,-89.04870000
20.38574219,-86.33250000
20.41625977,-87.02872000
20.44677734,-92.42786000
20.47729492,-101.30670000
20.50781250,-94.01234000
20.53833008,-96.43971000
20.56884766,-105.09010000
20.59936523,-94.82375000
20.62988281,-93.65710000
20.66040039,-90.71427000
20.69091797,-86.61063000
20.72143555,-85.19357000
20.75195313,-87.40179000
20.78247070,-98.08689000
20.81298828,-92.63576000
20.84350586,-88.03793000
20.87402344,-85.71385000
20.90454102,-84.27020000
20.93505859,-86.83270000
20.96557617,-92.68024000
20.99609375,-89.32210000
21.02661133,-91.08575000
21.05712891,-105.30790000
21.08764648,-91.86002000
21.11816406,-86.68899000
21.14868164,-83.26392000
21.17919922,-81.35251000
21.20971680,-80.78958000
21.24023438,-81.19063000
21.27075195,-82.85915000
21.30126953,-86.25114000
21.33178711,-91.12736000
21.36230469,-96.04839000
21.39282227,-94.30650000
21.42333984,-91.00830000
21.45385742,-91.64000000
21.48437500,-95.17754000
21.51489258,-94.04794000
21.54541016,-96.00507000
21.57592773,-108.39520000
21.60644531,-95.14677000
21.63696289,-97.24931000
21.66748047,-103.95560000
21.69799805,-92.86324000
21.72851563,-91.34169000
21.75903320,-89.01696000
21.78955078,-84.92092000
21.82006836,-82.51160000
21.85058594,-82.39051000
21.88110352,-84.70870000
21.91162109,-90.16190000
21.94213867,-101.88140000
21.97265625,-103.99700000
22.00317383,-97.18227000
22.03369141,-94.17934000
22.06420898,-94.73744000
22.09472656,-104.19400000
22.12524414,-96.51783000
22.15576172,-90.92815000
22.18627930,-94.02786000
22.21679688,-89.56506000
22.24731445,-82.77997000
22.27783203,-81.01991000
22.30834961,-82.58125000
22.33886719,-87.21879000
22.36938477,-95.96002000
22.39990234,-99.34877000
22.43041992,-97.54012000
22.46093750,-91.96092000
22.49145508,-86.82573000
22.52197266,-85.32185000
22.55249023,-86.14307000
22.58300781,-88.22953000
22.61352539,-90.86166000
22.64404297,-91.72675000
22.67456055,-89.94317000
22.70507813,-88.89205000
22.73559570,-89.15810000
22.76611328,-88.87250000
22.79663086,-88.25444000
22.82714844,-89.61433000
22.85766602,-90.53844000
22.88818359,-87.10845000
22.91870117,-86.04512000
22.94921875,-88.83412000
22.97973633,-98.11618000
23.01025391,-94.11926000
23.04077148,-91.64291000
23.07128906,-99.21104000
23.10180664,-96.16436000
23.13232422,-89.54385000
23.16284180,-89.11094000
23.19335938,-90.26410000
23.22387695,-89.33631000
23.25439453,-88.59033000
23.28491211,-89.04955000
23.31542969,-90.59700000
23.34594727,-92.36336000
23.37646484,-89.73866000
23.40698242,-87.45277000
23.43750000,-88.14828000
23.46801758,-92.03355000
23.49853516,-90.80354000
23.52905273,-88.73131000
23.55957031,-89.13166000
23.59008789,-91.18598000
23.62060547,-90.50132000
23.65112305,-86.24490000
23.68164063,-83.78082000
23.71215820,-82.95195000
23.74267578,-83.96487000
23.77319336,-88.02079000
23.80371094,-100.48360000
23.83422852,-88.01669000
23.86474609,-82.52219000
23.89526367,-80.98099000
23.92578125,-82.16039000
23.95629883,-86.41432000
23.98681641,-97.69405000
24.01733398,-89.88179000
24.04785156,-86.02059000
24.07836914,-86.64410000
24.10888672,-88.49356000
24.13940430,-85.66936000
24.16992188,-82.99094000
24.20043945,-83.51688000
24.23095703,-88.34321000
24.26147461,-92.43384000
24.29199219,-85.25610000
24.32250977,-82.67624000
24.35302734,-83.14754000
24.38354492,-86.35300000
24.41406250,-90.56628000
24.44458008,-88.60844000
24.47509766,-85.54903000
24.50561523,-83.53275000
24.53613281,-83.53784000
24.56665039,-86.33418000
24.59716797,-91.70216000
24.62768555,-89.93135000
24.65820313,-86.73590000
24.68872070,-86.79927000
24.71923828,-89.42238000
24.74975586,-92.26552000
24.78027344,-93.30781000
24.81079102,-95.13147000
24.84130859,-100.18760000
24.87182617,-94.72498000
24.90234375,-89.46255000
24.93286133,-87.59961000
24.96337891,-88.35886000
24.99389648,-95.70985000
25.02441406,-93.61012000
25.05493164,-85.97285000
25.08544922,-86.27857000
25.11596680,-90.12181000
25.14648438,-86.09435000
25.17700195,-83.64691000
25.20751953,-83.50978000
25.23803711,-84.15031000
25.26855469,-86.70973000
25.29907227,-95.07774000
25.32958984,-96.78148000
25.36010742,-90.22720000
25.39062500,-88.85253000
25.42114258,-88.16980000
25.45166016,-87.22522000
25.48217773,-87.40478000
25.51269531,-88.16481000
25.54321289,-88.06326000
25.57373047,-89.35483000
25.60424805,-95.67788000
25.63476563,-90.51587000
25.66528320,-87.53427000
25.69580078,-90.53893000
25.72631836,-97.98730000
25.75683594,-97.81068000
25.78735352,-97.09230000
25.81787109,-95.71545000
25.84838867,-93.33989000
25.87890625,-92.62695000
25.90942383,-94.26207000
25.93994141,-94.92395000
25.97045898,-95.75235000
26.00097656,-95.43564000
26.03149414,-89.30527000
26.06201172,-86.25162000
26.09252930,-86.90048000
26.12304688,-92.54151000
26.15356445,-96.03189000
26.18408203,-91.27734000
26.21459961,-92.55789000
26.24511719,-89.07979000
26.27563477,-85.16150000
26.30615234,-84.09933000
26.33666992,-84.24957000
26.36718750,-84.55484000
26.39770508,-85.51839000
26.42822266,-88.77514000
26.45874023,-96.45692000
26.48925781,-96.34698000
26.51977539,-92.97950000
26.55029297,-92.66765000
26.58081055,-92.92095000
26.61132813,-93.12835000
26.64184570,-95.06076000
26.67236328,-92.79647000
26.70288086,-87.15480000
26.73339844,-84.49215000
26.76391602,-83.51418000
26.79443359,-82.65254000
26.82495117,-82.79182000
26.85546875,-84.45747000
26.88598633,-84.49881000
26.91650391,-83.82430000
26.94702148,-84.52363000
26.97753906,-85.36218000
27.00805664,-85.24092000
27.03857422,-84.63690000
27.06909180,-84.47880000
27.09960938,-86.09731000
27.13012695,-91.36166000
27.16064453,-95.84413000
27.19116211,-90.82290000
27.22167969,-89.27278000
27.25219727,-89.66008000
27.28271484,-90.16273000
27.31323242,-90.94064000
27.34375000,-93.05974000
27.37426758,-93.80205000
27.40478516,-99.76523000
27.43530273,-92.76138000
27.46582031,-83.83633000
27.49633789,-80.99728000
27.52685547,-81.44235000
27.55737305,-84.76163000
27.58789063,-92.85201000
27.61840820,-98.00163000
27.64892578,-91.14178000
27.67944336,-90.74344000
27.70996094,-93.18910000
27.74047852,-97.12081000
27.77099609,-95.12469000
27.80151367,-92.80711000
27.83203125,-91.51805000
27.86254883,-90.96589000
27.89306641,-88.44871000
27.92358398,-84.96792000
27.95410156,-83.15738000
27.98461914,-83.74733000
28.01513672,-87.43584000
28.04565430,-92.37621000
28.07617188,-88.96056000
28.10668945,-86.14654000
28.13720703,-85.29430000
28.16772461,-86.63850000
28.19824219,-90.33392000
28.22875977,-94.04147000
28.25927734,-91.75831000
28.28979492,-89.65213000
28.32031250,-90.44368000
28.35083008,-93.07918000
28.38134766,-96.01344000
28.41186523,-103.08030000
28.44238281,-95.85384000
28.47290039,-86.22537000
28.50341797,-82.43958000
28.53393555,-81.80385000
28.56445313,-83.40915000
28.59497070,-86.12449000
28.62548828,-87.69122000
28.65600586,-87.48895000
28.68652344,-88.95763000
28.71704102,-97.22816000
28.74755859,-91.86374000
28.77807617,-88.81539000
28.80859375,-92.45137000
28.83911133,-101.23350000
28.86962891,-89.94931000
28.90014648,-87.14722000
28.93066406,-89.85436000
28.96118164,-94.21304000
28.99169922,-91.04305000
29.02221680,-92.86786000
29.05273438,-93.58879000
29.08325195,-87.11758000
29.11376953,-84.53975000
29.14428711,-86.23782000
29.17480469,-94.43692000
29.20532227,-99.36475000
29.23583984,-99.26614000
29.26635742,-101.40170000
29.29687500,-100.56020000
29.32739258,-97.03197000
29.35791016,-89.75252000
29.38842773,-87.76782000
29.41894531,-89.78523000
29.44946289,-93.69295000
29.47998047,-91.94818000
29.51049805,-90.48361000
29.54101563,-91.07069000
29.57153320,-95.70435000
29.60205078,-110.65920000
29.63256836,-92.29665000
29.66308594,-87.54517000
29.69360352,-86.92459000
29.72412109,-90.06427000
29.75463867,-91.60437000
29.78515625,-88.04917000
29.81567383,-85.93860000
29.84619141,-84.78448000
29.87670898,-85.02841000
29.90722656,-87.37758000
29.93774414,-93.10861000
29.96826172,-107.98460000
29.99877930,-90.57824000
30.02929688,-85.70026000
30.05981445,-83.76304000
30.09033203,-84.00206000
30.12084961,-86.46529000
30.15136719,-89.45731000
30.18188477,-86.64300000
30.21240234,-83.28141000
30.24291992,-82.61326000
30.27343750,-85.73465000
30.30395508,-100.75980000
30.33447266,-90.86395000
30.36499023,-88.76398000
30.39550781,-99.01428000
30.42602539,-90.25063000
30.45654297,-84.80612000
30.48706055,-84.76012000
30.51757813,-88.27522000
30.54809570,-96.08879000
30.57861328,-102.60880000
30.60913086,-97.18050000
30.63964844,-99.66643000
30.67016602,-108.88890000
30.70068359,-92.06961000
30.73120117,-85.95050000
30.76171875,-82.97713000
30.79223633,-82.71813000
30.82275391,-85.65131000
30.85327148,-93.39462000
30.88378906,-97.64484000
30.91430664,-92.12978000
30.94482422,-91.06506000
30.97534180,-90.62515000
31.00585938,-90.29400000
31.03637695,-91.75154000
31.06689453,-92.22934000
31.09741211,-91.05949000
31.12792969,-90.03793000
31.15844727,-89.49588000
31.18896484,-91.10480000
31.21948242,-94.23798000
31.25000000,-93.73824000
31.28051758,-92.00537000
31.31103516,-92.02750000
31.34155273,-96.38558000
31.37207031,-100.69420000
31.40258789,-87.96143000
31.43310547,-84.14506000
31.46362305,-83.06940000
31.49414063,-82.76025000
31.52465820,-82.82314000
31.55517578,-84.35725000
31.58569336,-89.78531000
31.61621094,-93.08097000
31.64672852,-85.17738000
31.67724609,-83.64396000
31.70776367,-86.43317000
31.73828125,-94.36848000
31.76879883,-95.03413000
31.79931641,-92.56679000
31.82983398,-93.90912000
31.86035156,-94.85104000
31.89086914,-95.67509000
31.92138672,-104.45770000
31.95190430,-96.78574000
31.98242188,-90.13015000
32.01293945,-88.64877000
32.04345703,-90.07043000
32.07397461,-94.38302000
32.10449219,-102.01030000
32.13500977,-100.04170000
32.16552734,-90.93887000
32.19604492,-86.55788000
32.22656250,-86.14157000
32.25708008,-89.15928000
32.28759766,-95.98375000
32.31811523,-125.84410000
32.34863281,-96.47575000
32.37915039,-88.41750000
32.40966797,-84.04951000
32.44018555,-82.45477000
32.47070313,-83.09056000
32.50122070,-85.71169000
32.53173828,-91.20586000
32.56225586,-95.03458000
32.59277344,-87.41462000
32.62329102,-82.98238000
32.65380859,-80.74181000
32.68432617,-80.30479000
32.71484375,-81.21976000
32.74536133,-82.95945000
32.77587891,-84.94472000
32.80639648,-85.90843000
32.83691406,-85.35844000
32.86743164,-85.24979000
32.89794922,-86.28410000
32.92846680,-87.52544000
32.95898438,-89.37970000
32.98950195,-90.32948000
33.02001953,-90.16830000
33.05053711,-94.56117000
33.08105469,-105.71570000
33.11157227,-93.62609000
33.14208984,-91.78590000
33.17260742,-91.19896000
33.20312500,-92.07528000
33.23364258,-94.09171000
33.26416016,-95.23053000
33.29467773,-99.02713000
33.32519531,-104.48070000
33.35571289,-99.89415000
33.38623047,-91.95329000
33.41674805,-88.32875000
33.44726563,-86.72243000
33.47778320,-85.48604000
33.50830078,-84.64497000
33.53881836,-86.15062000
33.56933594,-93.04292000
33.59985352,-98.93207000
33.63037109,-89.55918000
33.66088867,-85.64323000
33.69140625,-83.52095000
33.72192383,-82.97894000
33.75244141,-83.55254000
33.78295898,-84.58701000
33.81347656,-85.35790000
33.84399414,-85.87010000
33.87451172,-87.10847000
33.90502930,-89.40114000
33.93554688,-92.57335000
33.96606445,-99.61834000
33.99658203,-100.29830000
34.02709961,-94.15686000
34.05761719,-93.07980000
34.08813477,-93.44524000
34.11865234,-89.82996000
34.14916992,-86.39156000
34.17968750,-86.04936000
34.21020508,-88.30923000
34.24072266,-90.24023000
34.27124023,-89.43150000
34.30175781,-89.19290000
34.33227539,-91.56424000
34.36279297,-99.23911000
34.39331055,-93.62980000
34.42382813,-88.15869000
34.45434570,-86.65466000
34.48486328,-86.27260000
34.51538086,-84.95251000
34.54589844,-83.91110000
34.57641602,-84.27141000
34.60693359,-86.13158000
34.63745117,-91.20506000
34.66796875,-106.84750000
34.69848633,-88.79727000
34.72900391,-85.49104000
34.75952148,-85.26688000
34.79003906,-84.67273000
34.82055664,-83.51881000
34.85107422,-83.87267000
34.88159180,-86.22166000
34.91210938,-89.66729000
34.94262695,-92.05647000
34.97314453,-92.09263000
35.00366211,-91.62711000
35.03417969,-89.02805000
35.06469727,-87.99617000
35.09521484,-91.79369000
35.12573242,-95.71557000
35.15625000,-88.41592000
35.18676758,-86.54759000
35.21728516,-87.60686000
35.24780273,-90.43525000
35.27832031,-98.48851000
35.30883789,-93.53629000
35.33935547,-84.97130000
35.36987305,-82.63138000
35.40039063,-83.67509000
35.43090820,-86.25250000
35.46142578,-87.76451000
35.49194336,-88.30600000
35.52246094,-90.98901000
35.55297852,-99.32168000
35.58349609,-93.45287000
35.61401367,-90.40882000
35.64453125,-93.61510000
35.67504883,-104.65730000
35.70556641,-94.09290000
35.73608398,-92.31734000
35.76660156,-91.83659000
35.79711914,-91.80222000
35.82763672,-92.06039000
35.85815430,-89.48360000
35.88867188,-89.31828000
35.91918945,-94.37778000
35.94970703,-91.81731000
35.98022461,-86.78142000
36.01074219,-85.59996000
36.04125977,-86.16486000
36.07177734,-87.88430000
36.10229492,-89.68006000
36.13281250,-89.20322000
36.16333008,-87.11282000
36.19384766,-85.76270000
36.22436523,-85.44179000
36.25488281,-85.02161000
36.28540039,-83.89151000
36.31591797,-82.70226000
36.34643555,-81.86942000
36.37695313,-81.66115000
36.40747070,-83.18704000
36.43798828,-87.97097000
36.46850586,-93.74628000
36.49902344,-88.82545000
36.52954102,-86.33308000
36.56005859,-85.50205000
36.59057617,-85.73856000
36.62109375,-87.86043000
36.65161133,-93.06157000
36.68212891,-95.22585000
36.71264648,-91.26834000
36.74316406,-89.71281000
36.77368164,-89.65183000
36.80419922,-89.08516000
36.83471680,-84.83466000
36.86523438,-81.49987000
36.89575195,-80.36409000
36.92626953,-80.70451000
36.95678711,-82.06908000
36.98730469,-84.22086000
37.01782227,-85.28072000
37.04833984,-84.23721000
37.07885742,-84.66099000
37.10937500,-87.92965000
37.13989258,-89.17982000
37.17041016,-86.40126000
37.20092773,-84.57813000
37.23144531,-83.57841000
37.26196289,-83.65943000
37.29248047,-86.12096000
37.32299805,-92.56297000
37.35351563,-88.78937000
37.38403320,-85.70030000
37.41455078,-87.36100000
37.44506836,-92.01226000
37.47558594,-93.79350000
37.50610352,-90.99979000
37.53662109,-88.84326000
37.56713867,-88.80753000
37.59765625,-89.88717000
37.62817383,-90.18060000
37.65869141,-89.31741000
37.68920898,-88.86895000
37.71972656,-90.51447000
37.75024414,-96.58868000
37.78076172,-95.15273000
37.81127930,-88.89648000
37.84179688,-87.47253000
37.87231445,-89.04369000
37.90283203,-91.98269000
37.93334961,-94.60877000
37.96386719,-92.27440000
37.99438477,-87.36200000
38.02490234,-84.95282000
38.05541992,-85.08770000
38.08593750,-87.44389000
38.11645508,-89.43671000
38.14697266,-87.21063000
38.17749023,-85.96260000
38.20800781,-87.10021000
38.23852539,-89.51285000
38.26904297,-91.79668000
38.29956055,-91.90179000
38.33007813,-88.42175000
38.36059570,-85.86120000
38.39111328,-85.15354000
38.42163086,-84.26304000
38.45214844,-82.79308000
38.48266602,-82.58403000
38.51318359,-84.34727000
38.54370117,-86.47193000
38.57421875,-85.41556000
38.60473633,-83.17612000
38.63525391,-82.13111000
38.66577148,-82.92426000
38.69628906,-85.24993000
38.72680664,-87.79169000
38.75732422,-89.01419000
38.78784180,-89.42693000
38.81835938,-88.66917000
38.84887695,-86.98546000
38.87939453,-88.66088000
38.90991211,-96.48921000
38.94042969,-89.53360000
38.97094727,-88.07616000
39.00146484,-93.17661000
39.03198242,-104.75910000
39.06250000,-101.54770000
39.09301758,-117.99890000
39.12353516,-93.58394000
39.15405273,-86.11169000
39.18457031,-82.75394000
39.21508789,-82.47773000
39.24560547,-85.29643000
39.27612305,-91.94709000
39.30664063,-94.75880000
39.33715820,-88.65201000
39.36767578,-85.27599000
39.39819336,-84.14155000
39.42871094,-84.74118000
39.45922852,-86.22211000
39.48974609,-87.34448000
39.52026367,-88.06884000
39.55078125,-89.98971000
39.58129883,-94.29178000
39.61181641,-98.33431000
39.64233398,-94.65160000
39.67285156,-90.92452000
39.70336914,-89.53378000
39.73388672,-91.22224000
39.76440430,-96.33992000
39.79492188,-97.35768000
39.82543945,-93.10185000
39.85595703,-89.89783000
39.88647461,-86.84598000
39.91699219,-84.83777000
39.94750977,-85.53852000
39.97802734,-89.94644000
40.00854492,-94.67142000
40.03906250,-90.67812000
40.06958008,-86.71252000
40.10009766,-84.63769000
40.13061523,-84.68362000
40.16113281,-86.32816000
40.19165039,-88.48533000
40.22216797,-89.30365000
40.25268555,-87.49237000
40.28320313,-84.46523000
40.31372070,-82.56743000
40.34423828,-82.88783000
40.37475586,-84.17049000
40.40527344,-82.76730000
40.43579102,-81.62776000
40.46630859,-83.55492000
40.49682617,-91.41509000
40.52734375,-94.84978000
40.55786133,-88.20901000
40.58837891,-88.74673000
40.61889648,-90.72792000
40.64941406,-89.93742000
40.67993164,-87.85699000
40.71044922,-87.13784000
40.74096680,-87.17854000
40.77148438,-86.76514000
40.80200195,-87.51198000
40.83251953,-91.19769000
40.86303711,-99.44503000
40.89355469,-92.57167000
40.92407227,-89.87834000
40.95458984,-91.25771000
40.98510742,-92.16506000
41.01562500,-88.86757000
41.04614258,-85.64174000
41.07666016,-84.03802000
41.10717773,-84.14245000
41.13769531,-86.16821000
41.16821289,-89.77520000
41.19873047,-88.66461000
41.22924805,-83.85288000
41.25976563,-80.87392000
41.29028320,-79.89126000
41.32080078,-80.43616000
41.35131836,-82.47390000
41.38183594,-87.21394000
41.41235352,-101.44980000
41.44287109,-91.27504000
41.47338867,-86.30706000
41.50390625,-85.62416000
41.53442383,-87.54210000
41.56494141,-89.83267000
41.59545898,-88.32133000
41.62597656,-86.73882000
41.65649414,-86.80771000
41.68701172,-86.50668000
41.71752930,-85.41574000
41.74804688,-84.95732000
41.77856445,-85.94985000
41.80908203,-87.70583000
41.83959961,-86.37463000
41.87011719,-85.67399000
41.90063477,-86.54839000
41.93115234,-84.81242000
41.96166992,-83.64379000
41.99218750,-84.90573000
42.02270508,-86.55877000
42.05322266,-87.12104000
42.08374023,-88.97098000
42.11425781,-92.48141000
42.14477539,-93.25683000
42.17529297,-95.44655000
42.20581055,-116.52970000
42.23632813,-98.76313000
42.26684570,-97.75377000
42.29736328,-91.75431000
42.32788086,-87.40403000
42.35839844,-86.57340000
42.38891602,-87.46658000
42.41943359,-87.87561000
42.44995117,-88.93203000
42.48046875,-94.38476000
42.51098633,-104.92100000
42.54150391,-92.24841000
42.57202148,-87.49747000
42.60253906,-85.65128000
42.63305664,-85.87883000
42.66357422,-87.31392000
42.69409180,-88.80428000
42.72460938,-87.94994000
42.75512695,-84.79857000
42.78564453,-82.67052000
42.81616211,-83.04193000
42.84667969,-86.78679000
42.87719727,-92.06999000
42.90771484,-84.82001000
42.93823242,-80.81839000
42.96875000,-80.16512000
42.99926758,-81.69465000
43.02978516,-83.64801000
43.06030273,-84.38086000
43.09082031,-85.06916000
43.12133789,-88.30754000
43.15185547,-97.77500000
43.18237305,-102.10600000
43.21289063,-98.93489000
43.24340820,-92.79290000
43.27392578,-88.00107000
43.30444336,-86.37305000
43.33496094,-86.45355000
43.36547852,-86.88908000
43.39599609,-86.87178000
43.42651367,-87.47086000
43.45703125,-90.51871000
43.48754883,-98.85173000
43.51806641,-94.32632000
43.54858398,-88.28895000
43.57910156,-87.05865000
43.60961914,-87.78123000
43.64013672,-88.45224000
43.67065430,-88.75217000
43.70117188,-88.57564000
43.73168945,-89.40681000
43.76220703,-91.75180000
43.79272461,-94.73073000
43.82324219,-105.76160000
43.85375977,-91.18742000
43.88427734,-85.06207000
43.91479492,-83.44141000
43.94531250,-84.39691000
43.97583008,-86.57881000
44.00634766,-87.70782000
44.03686523,-87.81403000
44.06738281,-89.57854000
44.09790039,-90.97110000
44.12841797,-89.58594000
44.15893555,-90.29789000
44.18945313,-92.98680000
44.21997070,-95.82791000
44.25048828,-97.68356000
44.28100586,-90.53452000
44.31152344,-83.79869000
44.34204102,-81.31771000
44.37255859,-82.96869000
44.40307617,-89.53203000
44.43359375,-93.17970000
44.46411133,-94.10371000
44.49462891,-96.90845000
44.52514648,-89.43824000
44.55566406,-86.10121000
44.58618164,-84.60441000
44.61669922,-85.05423000
44.64721680,-87.01125000
44.67773438,-88.78014000
44.70825195,-89.72871000
44.73876953,-89.23461000
44.76928711,-88.57428000
44.79980469,-89.33774000
44.83032227,-91.02677000
44.86083984,-90.11595000
44.89135742,-88.20250000
44.92187500,-88.80836000
44.95239258,-92.20664000
44.98291016,-92.56161000
45.01342773,-88.72995000
45.04394531,-86.21391000
45.07446289,-84.60437000
45.10498047,-83.34219000
45.13549805,-82.88476000
45.16601563,-82.77194000
45.19653320,-82.49962000
45.22705078,-82.72237000
45.25756836,-83.68617000
45.28808594,-85.69229000
45.31860352,-89.08317000
45.34912109,-92.27469000
45.37963867,-91.04173000
45.41015625,-88.28098000
45.44067383,-87.09205000
45.47119141,-87.08172000
45.50170898,-87.05980000
45.53222656,-86.87466000
45.56274414,-87.80872000
45.59326172,-90.88258000
45.62377930,-96.13550000
45.65429688,-110.61210000
45.68481445,-97.53922000
45.71533203,-95.81744000
45.74584961,-86.93002000
45.77636719,-82.99878000
45.80688477,-83.61932000
45.83740234,-86.70432000
45.86791992,-87.30699000
45.89843750,-85.78030000
45.92895508,-84.27361000
45.95947266,-83.31578000
45.98999023,-83.36801000
46.02050781,-84.35212000
46.05102539,-85.52372000
46.08154297,-85.18342000
46.11206055,-83.39123000
46.14257813,-82.09827000
46.17309570,-82.49626000
46.20361328,-85.26131000
46.23413086,-91.72901000
46.26464844,-99.79111000
46.29516602,-91.61164000
46.32568359,-89.43401000
46.35620117,-89.40010000
46.38671875,-88.50467000
46.41723633,-87.04887000
46.44775391,-89.32781000
46.47827148,-97.65416000
46.50878906,-89.35855000
46.53930664,-88.94714000
46.56982422,-101.89730000
46.60034180,-88.83727000
46.63085938,-84.11073000
46.66137695,-83.54652000
46.69189453,-85.11211000
46.72241211,-88.09063000
46.75292969,-91.62550000
46.78344727,-94.93666000
46.81396484,-97.91393000
46.84448242,-99.44930000
46.87500000,-95.64886000
46.90551758,-89.93832000
46.93603516,-86.10628000
46.96655273,-83.78686000
46.99707031,-82.92189000
47.02758789,-83.81010000
47.05810547,-86.51512000
47.08862305,-89.36029000
47.11914063,-88.98360000
47.14965820,-88.67671000
47.18017578,-91.28373000
47.21069336,-91.45599000
47.24121094,-85.19579000
47.27172852,-81.99062000
47.30224609,-81.74927000
47.33276367,-84.07933000
47.36328125,-87.86750000
47.39379883,-89.68041000
47.42431641,-88.16023000
47.45483398,-88.18523000
47.48535156,-90.96627000
47.51586914,-90.75853000
47.54638672,-89.35304000
47.57690430,-88.05717000
47.60742188,-88.11395000
47.63793945,-92.48605000
47.66845703,-95.31317000
47.69897461,-92.13696000
47.72949219,-95.15430000
47.76000977,-90.79254000
47.79052734,-83.91327000
47.82104492,-80.65622000
47.85156250,-79.86391000
47.88208008,-81.11333000
47.91259766,-83.99815000
47.94311523,-87.95332000
47.97363281,-92.15768000
48.00415039,-93.79201000
48.03466797,-90.20259000
48.06518555,-86.66317000
48.09570313,-85.26663000
48.12622070,-85.19604000
48.15673828,-85.04333000
48.18725586,-85.91442000
48.21777344,-90.31834000
48.24829102,-98.62840000
48.27880859,-88.04485000
48.30932617,-84.21559000
48.33984375,-83.95354000
48.37036133,-85.28181000
48.40087891,-85.26891000
48.43139648,-83.42320000
48.46191406,-82.09016000
48.49243164,-82.19857000
48.52294922,-83.16223000
48.55346680,-83.98750000
48.58398438,-84.56788000
48.61450195,-85.39687000
48.64501953,-86.44524000
48.67553711,-85.61006000
48.70605469,-83.51830000
48.73657227,-82.64265000
48.76708984,-82.69940000
48.79760742,-82.44559000
48.82812500,-82.20887000
48.85864258,-82.75582000
48.88916016,-83.86032000
48.91967773,-85.37246000
48.95019531,-86.76437000
48.98071289,-86.79931000
49.01123047,-86.99447000
49.04174805,-88.02087000
49.07226563,-89.56323000
49.10278320,-92.54119000
49.13330078,-97.64263000
49.16381836,-107.29770000
49.19433594,-95.37344000
49.22485352,-87.18011000
49.25537109,-84.05528000
49.28588867,-84.16154000
49.31640625,-86.61872000
49.34692383,-88.17569000
49.37744141,-86.00867000
49.40795898,-84.40829000
49.43847656,-84.06564000
49.46899414,-84.61156000
49.49951172,-87.17072000
49.53002930,-95.10893000
49.56054688,-89.11044000
49.59106445,-83.47167000
49.62158203,-81.93931000
49.65209961,-82.80663000
49.68261719,-85.40218000
49.71313477,-89.45451000
49.74365234,-93.56404000
49.77416992,-90.97928000
49.80468750,-87.89139000
49.83520508,-88.14774000
49.86572266,-88.72739000
49.89624023,-86.84789000
49.92675781,-87.21775000
49.95727539,-88.79859000
49.98779297,-86.65104000
50.01831055,-85.39148000
