Frequency,Channel A
(MHz),(dBu)

0.00000000,-49.66605000
0.03051758,-46.90634000
0.06103516,-47.48309000
0.09155273,-53.04509000
0.12207031,-52.66212000
0.15258789,-50.10096000
0.18310547,-51.88226000
0.21362305,-56.05965000
0.24414063,-60.26451000
0.27465820,-62.29026000
0.30517578,-59.15165000
0.33569336,-54.20864000
0.36621094,-51.52774000
0.39672852,-51.51481000
0.42724609,-54.14188000
0.45776367,-59.81680000
0.48828125,-66.59194000
0.51879883,-61.27509000
0.54931641,-58.21374000
0.57983398,-59.27807000
0.61035156,-65.78749000
0.64086914,-59.97488000
0.67138672,-55.55787000
0.70190430,-55.74850000
0.73242188,-60.29356000
0.76293945,-76.57217000
0.79345703,-61.43016000
0.82397461,-56.97842000
0.85449219,-56.58371000
0.88500977,-59.26164000
0.91552734,-65.71265000
0.94604492,-72.99797000
0.97656250,-64.81066000
1.00708008,-60.93873000
1.03759766,-58.30291000
1.06811523,-57.42422000
1.09863281,-60.09041000
1.12915039,-66.28096000
1.15966797,-61.13613000
1.19018555,-59.81512000
1.22070313,-62.59982000
1.25122070,-61.84843000
1.28173828,-59.69164000
1.31225586,-60.79036000
1.34277344,-63.48736000
1.37329102,-63.55880000
1.40380859,-63.96123000
1.43432617,-67.43211000
1.46484375,-71.25944000
1.49536133,-66.42683000
1.52587891,-62.99577000
1.55639648,-61.63468000
1.58691406,-60.84888000
1.61743164,-60.92179000
1.64794922,-62.93253000
1.67846680,-64.01235000
1.70898438,-62.72784000
1.73950195,-63.86065000
1.77001953,-66.96249000
1.80053711,-66.30528000
1.83105469,-63.66923000
1.86157227,-60.65365000
1.89208984,-58.81529000
1.92260742,-59.14870000
1.95312500,-62.14295000
1.98364258,-69.91645000
2.01416016,-76.60518000
2.04467773,-66.97220000
2.07519531,-64.88361000
2.10571289,-65.76881000
2.13623047,-67.87009000
2.16674805,-65.63312000
2.19726563,-62.04164000
2.22778320,-61.18449000
2.25830078,-63.74806000
2.28881836,-66.51238000
2.31933594,-64.51870000
2.34985352,-66.84293000
2.38037109,-84.62987000
2.41088867,-67.30341000
2.44140625,-63.73672000
2.47192383,-63.72153000
2.50244141,-65.73102000
2.53295898,-67.04008000
2.56347656,-64.84962000
2.59399414,-64.11246000
2.62451172,-66.66068000
2.65502930,-74.47427000
2.68554688,-69.79140000
2.71606445,-64.39299000
2.74658203,-63.72295000
2.77709961,-65.27207000
2.80761719,-63.23965000
2.83813477,-60.73097000
2.86865234,-60.76649000
2.89916992,-63.52647000
2.92968750,-71.40863000
2.96020508,-74.23380000
2.99072266,-64.71888000
3.02124023,-62.00712000
3.05175781,-61.88503000
3.08227539,-63.78999000
3.11279297,-66.68301000
3.14331055,-66.28098000
3.17382813,-65.24524000
3.20434570,-64.96558000
3.23486328,-64.24509000
3.26538086,-64.34514000
3.29589844,-64.30748000
3.32641602,-62.01434000
3.35693359,-60.41850000
3.38745117,-61.39169000
3.41796875,-65.22012000
3.44848633,-67.16289000
3.47900391,-66.01656000
3.50952148,-66.21779000
3.54003906,-63.33114000
3.57055664,-60.95629000
3.60107422,-61.26074000
3.63159180,-63.57779000
3.66210938,-65.35706000
3.69262695,-64.39983000
3.72314453,-63.65152000
3.75366211,-65.79009000
3.78417969,-70.44516000
3.81469727,-65.59489000
3.84521484,-62.27497000
3.87573242,-61.94633000
3.90625000,-64.07510000
3.93676758,-68.08158000
3.96728516,-67.16625000
3.99780273,-65.28102000
4.02832031,-66.55634000
4.05883789,-68.68240000
4.08935547,-66.86363000
4.11987305,-63.57575000
4.15039063,-61.30885000
4.18090820,-60.86032000
4.21142578,-62.32612000
4.24194336,-64.44012000
4.27246094,-65.16320000
4.30297852,-66.73974000
4.33349609,-69.23898000
4.36401367,-66.28050000
4.39453125,-64.32792000
4.42504883,-64.91054000
4.45556641,-64.61485000
4.48608398,-63.72023000
4.51660156,-66.20067000
4.54711914,-73.04585000
4.57763672,-70.74970000
4.60815430,-68.55185000
4.63867188,-64.80658000
4.66918945,-62.22798000
4.69970703,-62.01527000
4.73022461,-63.36854000
4.76074219,-65.91613000
4.79125977,-69.00748000
4.82177734,-72.59461000
4.85229492,-81.33216000
4.88281250,-67.31429000
4.91333008,-62.11555000
4.94384766,-60.56572000
4.97436523,-61.55742000
5.00488281,-65.33586000
5.03540039,-71.57111000
5.06591797,-70.86781000
5.09643555,-71.49238000
5.12695313,-71.18700000
5.15747070,-66.20969000
5.18798828,-64.42205000
5.21850586,-65.12183000
5.24902344,-66.99151000
5.27954102,-68.87318000
5.31005859,-70.95287000
5.34057617,-74.14336000
5.37109375,-74.72218000
5.40161133,-72.28167000
5.43212891,-70.72542000
5.46264648,-69.80920000
5.49316406,-68.14606000
5.52368164,-66.71874000
5.55419922,-66.34712000
5.58471680,-64.66436000
5.61523438,-62.30196000
5.64575195,-61.99632000
5.67626953,-64.59267000
5.70678711,-67.63114000
5.73730469,-65.46422000
5.76782227,-63.19641000
5.79833984,-61.07260000
5.82885742,-59.20196000
5.85937500,-58.19152000
5.88989258,-58.26278000
5.92041016,-59.58384000
5.95092773,-62.07753000
5.98144531,-64.95042000
6.01196289,-66.26344000
6.04248047,-63.56097000
6.07299805,-59.94661000
6.10351563,-58.12963000
6.13403320,-58.31598000
6.16455078,-59.84836000
6.19506836,-61.51448000
6.22558594,-63.71744000
6.25610352,-69.34615000
6.28662109,-90.25272000
6.31713867,-69.60229000
6.34765625,-65.08223000
6.37817383,-62.89550000
6.40869141,-62.30821000
6.43920898,-62.97998000
6.46972656,-64.61009000
6.50024414,-67.79477000
6.53076172,-74.57048000
6.56127930,-77.95786000
6.59179688,-71.13697000
6.62231445,-68.51428000
6.65283203,-67.74686000
6.68334961,-67.24107000
6.71386719,-66.38732000
6.74438477,-66.18432000
6.77490234,-67.32162000
6.80541992,-69.44151000
6.83593750,-70.87364000
6.86645508,-70.43688000
6.89697266,-69.95770000
6.92749023,-71.25468000
6.95800781,-74.04174000
6.98852539,-74.63744000
7.01904297,-73.71526000
7.04956055,-73.83186000
7.08007813,-74.42664000
7.11059570,-74.32648000
7.14111328,-73.21603000
7.17163086,-71.42732000
7.20214844,-70.29895000
7.23266602,-71.04998000
7.26318359,-73.17390000
7.29370117,-73.18594000
7.32421875,-73.16225000
7.35473633,-78.05544000
7.38525391,-81.24454000
7.41577148,-73.52110000
7.44628906,-71.94713000
7.47680664,-72.71150000
7.50732422,-72.91093000
7.53784180,-71.73372000
7.56835938,-71.04897000
7.59887695,-72.17323000
7.62939453,-76.31636000
7.65991211,-89.76894000
7.69042969,-79.03114000
7.72094727,-73.34761000
7.75146484,-71.76060000
7.78198242,-72.25621000
7.81250000,-72.90142000
7.84301758,-73.06939000
7.87353516,-74.21862000
7.90405273,-76.65817000
7.93457031,-77.60890000
7.96508789,-74.86453000
7.99560547,-72.13534000
8.02612305,-70.47943000
8.05664063,-70.20248000
8.08715820,-71.86523000
8.11767578,-74.91816000
8.14819336,-74.90791000
8.17871094,-73.14551000
8.20922852,-72.60185000
8.23974609,-73.08424000
8.27026367,-74.08343000
8.30078125,-75.30844000
8.33129883,-77.19788000
8.36181641,-80.68646000
8.39233398,-85.25388000
8.42285156,-83.67024000
8.45336914,-79.03357000
8.48388672,-75.55804000
8.51440430,-73.30020000
8.54492188,-72.07523000
8.57543945,-72.26627000
8.60595703,-74.59924000
8.63647461,-79.47633000
8.66699219,-84.18144000
8.69750977,-82.17931000
8.72802734,-77.39411000
8.75854492,-73.76832000
8.78906250,-72.07082000
8.81958008,-72.19132000
8.85009766,-74.20116000
8.88061523,-78.88366000
8.91113281,-88.07586000
8.94165039,-85.27329000
8.97216797,-81.82824000
9.00268555,-81.80615000
9.03320313,-83.74744000
9.06372070,-84.71393000
9.09423828,-83.79329000
9.12475586,-86.24249000
9.15527344,-83.53754000
9.18579102,-80.19097000
9.21630859,-81.29301000
9.24682617,-82.80527000
9.27734375,-81.06529000
9.30786133,-80.42942000
9.33837891,-82.31437000
9.36889648,-84.30096000
9.39941406,-81.81282000
9.42993164,-79.42494000
9.46044922,-78.78656000
9.49096680,-79.92606000
9.52148438,-82.56299000
9.55200195,-86.69610000
9.58251953,-99.80073000
9.61303711,-89.88179000
9.64355469,-86.18529000
9.67407227,-90.27502000
9.70458984,-87.44694000
9.73510742,-82.17589000
9.76562500,-79.50422000
9.79614258,-77.03869000
9.82666016,-74.77913000
9.85717773,-73.51457000
9.88769531,-74.09016000
9.91821289,-76.50822000
9.94873047,-77.46538000
9.97924805,-75.83061000
10.00976563,-75.40694000
10.04028320,-77.42368000
10.07080078,-81.74994000
10.10131836,-83.87047000
10.13183594,-82.05428000
10.16235352,-81.73532000
10.19287109,-85.11069000
10.22338867,-92.78464000
10.25390625,-94.58658000
10.28442383,-82.62187000
10.31494141,-74.95183000
10.34545898,-72.29709000
10.37597656,-72.83046000
10.40649414,-75.71111000
10.43701172,-80.53638000
10.46752930,-83.72804000
10.49804688,-78.66660000
10.52856445,-76.33175000
10.55908203,-76.93369000
10.58959961,-78.04073000
10.62011719,-78.72151000
10.65063477,-81.30088000
10.68115234,-85.47472000
10.71166992,-84.02154000
10.74218750,-82.46075000
10.77270508,-85.54019000
10.80322266,-82.85748000
10.83374023,-75.72247000
10.86425781,-72.79206000
10.89477539,-72.30238000
10.92529297,-73.78850000
10.95581055,-77.97944000
10.98632813,-88.51590000
11.01684570,-84.09489000
11.04736328,-78.52168000
11.07788086,-77.25066000
11.10839844,-79.17648000
11.13891602,-84.90364000
11.16943359,-86.67615000
11.19995117,-82.59279000
11.23046875,-80.45010000
11.26098633,-77.49513000
11.29150391,-72.87629000
11.32202148,-69.19670000
11.35253906,-67.75794000
11.38305664,-68.99690000
11.41357422,-72.93339000
11.44409180,-75.30750000
11.47460938,-74.44237000
11.50512695,-75.54471000
11.53564453,-78.67323000
11.56616211,-81.02475000
11.59667969,-79.90862000
11.62719727,-76.86954000
11.65771484,-75.98668000
11.68823242,-80.51353000
11.71875000,-82.17785000
11.74926758,-74.96535000
11.77978516,-72.12744000
11.81030273,-70.60033000
11.84082031,-70.06642000
11.87133789,-70.48901000
11.90185547,-70.44589000
11.93237305,-68.82920000
11.96289063,-67.60737000
11.99340820,-68.40158000
12.02392578,-71.71575000
12.05444336,-78.48824000
12.08496094,-108.73480000
12.11547852,-82.06805000
12.14599609,-79.27481000
12.17651367,-82.26197000
12.20703125,-94.89653000
12.23754883,-93.59346000
12.26806641,-89.75801000
12.29858398,-82.83955000
12.32910156,-78.43343000
12.35961914,-76.62586000
12.39013672,-76.82468000
12.42065430,-77.85690000
12.45117188,-78.46008000
12.48168945,-77.26711000
12.51220703,-75.46500000
12.54272461,-75.99246000
12.57324219,-79.19724000
12.60375977,-83.72375000
12.63427734,-84.81498000
12.66479492,-89.16928000
12.69531250,-84.82730000
12.72583008,-79.06602000
12.75634766,-83.62329000
12.78686523,-82.67021000
12.81738281,-74.05839000
12.84790039,-72.65858000
12.87841797,-75.33298000
12.90893555,-80.35075000
12.93945313,-79.49473000
12.96997070,-78.37572000
13.00048828,-79.60307000
13.03100586,-81.96085000
13.06152344,-82.17526000
13.09204102,-79.81832000
13.12255859,-78.44609000
13.15307617,-77.94043000
13.18359375,-77.97345000
13.21411133,-78.81599000
13.24462891,-81.18163000
13.27514648,-88.59850000
13.30566406,-80.15073000
13.33618164,-74.34045000
13.36669922,-73.23962000
13.39721680,-75.74304000
13.42773438,-82.77838000
13.45825195,-80.46449000
13.48876953,-71.39120000
13.51928711,-66.40839000
13.54980469,-64.34610000
13.58032227,-64.85147000
13.61083984,-67.46973000
13.64135742,-71.28046000
13.67187500,-75.32427000
13.70239258,-78.96112000
13.73291016,-76.96471000
13.76342773,-73.42967000
13.79394531,-72.44562000
13.82446289,-73.42097000
13.85498047,-75.12257000
13.88549805,-76.71996000
13.91601563,-77.94289000
13.94653320,-78.48871000
13.97705078,-78.71609000
14.00756836,-78.44066000
14.03808594,-77.55418000
14.06860352,-77.49920000
14.09912109,-79.38849000
14.12963867,-84.38587000
14.16015625,-98.20725000
14.19067383,-90.60506000
14.22119141,-84.06537000
14.25170898,-80.94399000
14.28222656,-80.34682000
14.31274414,-81.93913000
14.34326172,-84.64046000
14.37377930,-86.15976000
14.40429688,-84.86084000
14.43481445,-82.67360000
14.46533203,-80.75305000
14.49584961,-79.57069000
14.52636719,-79.72060000
14.55688477,-81.22697000
14.58740234,-83.42563000
14.61791992,-84.77799000
14.64843750,-86.10805000
14.67895508,-88.82123000
14.70947266,-88.95216000
14.73999023,-87.79979000
14.77050781,-90.91232000
14.80102539,-107.52370000
14.83154297,-88.89558000
14.86206055,-86.04237000
14.89257813,-84.11381000
14.92309570,-81.62971000
14.95361328,-81.84477000
14.98413086,-85.52967000
15.01464844,-91.36582000
15.04516602,-90.68584000
15.07568359,-85.38760000
15.10620117,-81.05765000
15.13671875,-77.50937000
15.16723633,-74.35060000
15.19775391,-72.09990000
15.22827148,-71.58852000
15.25878906,-73.35559000
15.28930664,-76.41197000
15.31982422,-76.75767000
15.35034180,-76.68497000
15.38085938,-78.53305000
15.41137695,-80.66594000
15.44189453,-81.97250000
15.47241211,-85.21056000
15.50292969,-90.66727000
15.53344727,-85.81925000
15.56396484,-82.32053000
15.59448242,-82.57122000
15.62500000,-88.65612000
15.65551758,-90.75681000
15.68603516,-81.10507000
15.71655273,-77.13949000
15.74707031,-75.05556000
15.77758789,-74.16306000
15.80810547,-73.98480000
15.83862305,-74.16638000
15.86914063,-74.68394000
15.89965820,-75.70646000
15.93017578,-77.74229000
15.96069336,-81.38547000
15.99121094,-86.03873000
16.02172852,-87.18642000
16.05224609,-83.95293000
16.08276367,-81.49477000
16.11328125,-80.26531000
16.14379883,-78.97474000
16.17431641,-78.37840000
16.20483398,-79.23904000
16.23535156,-80.80863000
16.26586914,-81.82702000
16.29638672,-81.92499000
16.32690430,-81.13336000
16.35742188,-80.82154000
16.38793945,-82.60664000
16.41845703,-86.08971000
16.44897461,-88.43840000
16.47949219,-89.18499000
16.51000977,-84.71223000
16.54052734,-81.68900000
16.57104492,-81.16105000
16.60156250,-82.93018000
16.63208008,-86.72471000
16.66259766,-88.83892000
16.69311523,-87.23331000
16.72363281,-86.40446000
16.75415039,-88.72891000
16.78466797,-87.13490000
16.81518555,-83.35789000
16.84570313,-82.20049000
16.87622070,-82.64903000
16.90673828,-84.37229000
16.93725586,-85.36518000
16.96777344,-83.75589000
16.99829102,-81.73476000
17.02880859,-81.80450000
17.05932617,-85.07336000
17.08984375,-91.55601000
17.12036133,-93.61045000
17.15087891,-89.70353000
17.18139648,-88.48299000
17.21191406,-87.24987000
17.24243164,-84.32342000
17.27294922,-82.48647000
17.30346680,-81.39146000
17.33398438,-80.98373000
17.36450195,-82.05386000
17.39501953,-83.66936000
17.42553711,-83.94347000
17.45605469,-84.53400000
17.48657227,-82.75847000
17.51708984,-80.13824000
17.54760742,-79.33601000
17.57812500,-80.63371000
17.60864258,-85.37925000
17.63916016,-89.50218000
17.66967773,-76.70403000
17.70019531,-71.16537000
17.73071289,-69.99288000
17.76123047,-73.32166000
17.79174805,-77.04790000
17.82226563,-72.70918000
17.85278320,-72.32294000
17.88330078,-75.49870000
17.91381836,-81.46839000
17.94433594,-89.50087000
17.97485352,-89.41949000
18.00537109,-83.68163000
18.03588867,-80.25242000
18.06640625,-79.29118000
18.09692383,-81.52388000
18.12744141,-84.57529000
18.15795898,-81.54074000
18.18847656,-80.64110000
18.21899414,-82.09319000
18.24951172,-82.90528000
18.28002930,-82.93076000
18.31054688,-84.50058000
18.34106445,-88.63618000
18.37158203,-95.08643000
18.40209961,-102.14100000
18.43261719,-102.91080000
18.46313477,-109.25790000
18.49365234,-94.29330000
18.52416992,-93.91246000
18.55468750,-92.97578000
18.58520508,-88.19366000
18.61572266,-91.22827000
18.64624023,-95.42770000
18.67675781,-84.95215000
18.70727539,-82.10059000
18.73779297,-81.99837000
18.76831055,-83.56789000
18.79882813,-86.07991000
18.82934570,-85.79697000
18.85986328,-83.54037000
18.89038086,-83.75481000
18.92089844,-86.45683000
18.95141602,-89.14593000
18.98193359,-89.76065000
19.01245117,-92.19967000
19.04296875,-105.60440000
19.07348633,-89.45717000
19.10400391,-85.80742000
19.13452148,-85.92270000
19.16503906,-83.42083000
19.19555664,-80.78362000
19.22607422,-79.77994000
19.25659180,-79.47394000
19.28710938,-80.00609000
19.31762695,-82.55500000
19.34814453,-87.89901000
19.37866211,-89.70235000
19.40917969,-90.30304000
19.43969727,-94.63876000
19.47021484,-92.78983000
19.50073242,-87.37018000
19.53125000,-83.53415000
19.56176758,-81.35886000
19.59228516,-79.79193000
19.62280273,-78.95221000
19.65332031,-78.59785000
19.68383789,-77.96429000
19.71435547,-77.01327000
19.74487305,-76.62082000
19.77539063,-77.35088000
19.80590820,-78.79223000
19.83642578,-79.24390000
19.86694336,-77.82989000
19.89746094,-76.07471000
19.92797852,-74.80054000
19.95849609,-73.84462000
19.98901367,-73.33480000
20.01953125,-73.68650000
20.05004883,-74.94725000
20.08056641,-76.39708000
20.11108398,-77.02152000
20.14160156,-76.48225000
20.17211914,-74.99185000
20.20263672,-73.40494000
20.23315430,-72.52728000
20.26367188,-72.38484000
20.29418945,-72.54871000
20.32470703,-72.82594000
20.35522461,-73.20226000
20.38574219,-73.33520000
20.41625977,-73.26624000
20.44677734,-73.82692000
20.47729492,-75.29597000
20.50781250,-76.89061000
20.53833008,-77.38233000
20.56884766,-75.96088000
20.59936523,-73.48637000
20.62988281,-71.57820000
20.66040039,-70.86363000
20.69091797,-71.10043000
20.72143555,-71.70300000
20.75195313,-72.42953000
20.78247070,-73.60529000
20.81298828,-75.38049000
20.84350586,-76.62593000
20.87402344,-75.64274000
20.90454102,-73.89268000
20.93505859,-73.07267000
20.96557617,-73.39503000
20.99609375,-74.25565000
21.02661133,-74.12737000
21.05712891,-72.24710000
21.08764648,-70.45163000
21.11816406,-69.91906000
21.14868164,-70.59707000
21.17919922,-71.80263000
21.20971680,-72.64223000
21.24023438,-72.77844000
21.27075195,-72.57146000
21.30126953,-72.37663000
21.33178711,-72.41748000
21.36230469,-72.97405000
21.39282227,-74.14664000
21.42333984,-75.40870000
21.45385742,-75.70071000
21.48437500,-74.55782000
21.51489258,-72.92275000
21.54541016,-72.06503000
21.57592773,-72.51311000
21.60644531,-73.91812000
21.63696289,-75.10260000
21.66748047,-74.71583000
21.69799805,-73.60226000
21.72851563,-73.53548000
21.75903320,-74.89282000
21.78955078,-77.06046000
21.82006836,-79.10429000
21.85058594,-80.74127000
21.88110352,-82.44447000
21.91162109,-85.51589000
21.94213867,-90.42274000
21.97265625,-86.08334000
22.00317383,-81.60831000
22.03369141,-79.13255000
22.06420898,-77.64033000
22.09472656,-77.14239000
22.12524414,-78.13068000
22.15576172,-81.25507000
22.18627930,-85.28321000
22.21679688,-82.38148000
22.24731445,-79.72919000
22.27783203,-79.85399000
22.30834961,-82.38869000
22.33886719,-86.73333000
22.36938477,-89.60399000
22.39990234,-88.61655000
22.43041992,-88.51225000
22.46093750,-91.23844000
22.49145508,-95.06512000
22.52197266,-94.20633000
22.55249023,-96.33179000
22.58300781,-105.13050000
22.61352539,-96.04131000
22.64404297,-95.21255000
22.67456055,-100.00410000
22.70507813,-100.31890000
22.73559570,-98.49923000
22.76611328,-99.77293000
22.79663086,-105.55700000
22.82714844,-94.86824000
22.85766602,-90.29259000
22.88818359,-88.57445000
22.91870117,-87.88428000
22.94921875,-87.58231000
22.97973633,-87.20390000
23.01025391,-87.00346000
23.04077148,-88.40000000
23.07128906,-93.40218000
23.10180664,-99.15811000
23.13232422,-92.84108000
23.16284180,-89.78072000
23.19335938,-87.02503000
23.22387695,-85.02563000
23.25439453,-84.17566000
23.28491211,-83.86356000
23.31542969,-83.91198000
23.34594727,-86.09940000
23.37646484,-97.57848000
23.40698242,-85.96442000
23.43750000,-80.15907000
23.46801758,-78.98206000
23.49853516,-80.53452000
23.52905273,-82.25970000
23.55957031,-81.91319000
23.59008789,-82.57494000
23.62060547,-85.27790000
23.65112305,-87.93388000
23.68164063,-87.25761000
23.71215820,-85.21204000
23.74267578,-85.00359000
23.77319336,-88.44464000
23.80371094,-94.88268000
23.83422852,-89.10760000
23.86474609,-87.81207000
23.89526367,-90.64118000
23.92578125,-95.33400000
23.95629883,-91.37849000
23.98681641,-88.16405000
24.01733398,-88.28365000
24.04785156,-87.96526000
24.07836914,-85.44817000
24.10888672,-83.07267000
24.13940430,-82.32555000
24.16992188,-82.62210000
24.20043945,-83.39044000
24.23095703,-86.77818000
24.26147461,-96.23650000
24.29199219,-90.81849000
24.32250977,-88.52876000
24.35302734,-88.72201000
24.38354492,-86.74913000
24.41406250,-84.89848000
24.44458008,-85.24769000
24.47509766,-89.21897000
24.50561523,-100.51510000
24.53613281,-89.88934000
24.56665039,-87.39212000
24.59716797,-89.78925000
24.62768555,-96.54214000
24.65820313,-106.72900000
24.68872070,-97.97547000
24.71923828,-90.43121000
24.74975586,-85.71803000
24.78027344,-83.59065000
24.81079102,-83.71132000
24.84130859,-86.17361000
24.87182617,-91.89059000
24.90234375,-93.24525000
24.93286133,-89.43851000
24.96337891,-90.71420000
24.99389648,-103.28160000
25.02441406,-93.09876000
25.05493164,-88.71983000
25.08544922,-90.28821000
25.11596680,-93.80904000
25.14648438,-93.69885000
25.17700195,-92.78134000
25.20751953,-89.59598000
25.23803711,-86.30523000
25.26855469,-84.16406000
25.29907227,-83.08525000
25.32958984,-83.44753000
25.36010742,-85.61034000
25.39062500,-86.60004000
25.42114258,-86.30084000
25.45166016,-90.29547000
25.48217773,-107.99570000
25.51269531,-88.32745000
25.54321289,-83.05848000
25.57373047,-81.68938000
25.60424805,-84.09393000
25.63476563,-89.53235000
25.66528320,-84.74632000
25.69580078,-81.20845000
25.72631836,-80.68712000
25.75683594,-82.21320000
25.78735352,-85.38115000
25.81787109,-89.72852000
25.84838867,-91.82552000
25.87890625,-89.90517000
25.90942383,-88.53113000
25.93994141,-88.88020000
25.97045898,-91.44596000
26.00097656,-95.41533000
26.03149414,-91.37035000
26.06201172,-88.45580000
26.09252930,-90.72746000
26.12304688,-101.82480000
26.15356445,-89.70498000
26.18408203,-86.82850000
26.21459961,-88.85421000
26.24511719,-95.34287000
26.27563477,-92.25719000
26.30615234,-86.97913000
26.33666992,-85.76118000
26.36718750,-87.67052000
26.39770508,-89.80968000
26.42822266,-90.34207000
26.45874023,-97.30965000
26.48925781,-88.08253000
26.51977539,-82.63360000
26.55029297,-81.44787000
26.58081055,-82.32072000
26.61132813,-82.85039000
26.64184570,-81.77304000
26.67236328,-81.24584000
26.70288086,-82.79315000
26.73339844,-87.56051000
26.76391602,-99.86185000
26.79443359,-89.10107000
26.82495117,-83.62904000
26.85546875,-82.06150000
26.88598633,-83.80193000
26.91650391,-90.21926000
26.94702148,-103.21580000
26.97753906,-96.44499000
27.00805664,-98.44362000
27.03857422,-88.90816000
27.06909180,-84.05326000
27.09960938,-82.22209000
27.13012695,-81.98891000
27.16064453,-82.94926000
27.19116211,-85.26538000
27.22167969,-88.78353000
27.25219727,-92.24757000
27.28271484,-91.79826000
27.31323242,-89.24461000
27.34375000,-88.89377000
27.37426758,-91.16379000
27.40478516,-96.41335000
27.43530273,-95.58177000
27.46582031,-87.15428000
27.49633789,-82.84250000
27.52685547,-80.77756000
27.55737305,-80.33082000
27.58789063,-81.19762000
27.61840820,-82.76289000
27.64892578,-84.12103000
27.67944336,-84.91473000
27.70996094,-85.69257000
27.74047852,-87.44422000
27.77099609,-88.89417000
27.80151367,-86.34344000
27.83203125,-85.51883000
27.86254883,-89.68277000
27.89306641,-96.71834000
27.92358398,-90.35506000
27.95410156,-90.80604000
27.98461914,-95.54832000
28.01513672,-89.41227000
28.04565430,-86.17928000
28.07617188,-88.03526000
28.10668945,-89.50581000
28.13720703,-85.13312000
28.16772461,-84.62868000
28.19824219,-88.71019000
28.22875977,-91.14543000
28.25927734,-85.87807000
28.28979492,-83.25201000
28.32031250,-82.35294000
28.35083008,-82.80292000
28.38134766,-84.44893000
28.41186523,-85.56545000
28.44238281,-84.95154000
28.47290039,-85.37324000
28.50341797,-87.41497000
28.53393555,-87.11037000
28.56445313,-85.76415000
28.59497070,-87.33411000
28.62548828,-94.28463000
28.65600586,-96.32320000
28.68652344,-88.64767000
28.71704102,-86.35231000
28.74755859,-86.44104000
28.77807617,-87.36848000
28.80859375,-88.70161000
28.83911133,-89.60639000
28.86962891,-86.36375000
28.90014648,-84.99429000
28.93066406,-88.60419000
28.96118164,-109.32900000
28.99169922,-88.30642000
29.02221680,-85.00977000
29.05273438,-85.62961000
29.08325195,-88.27478000
29.11376953,-89.30814000
29.14428711,-87.91870000
29.17480469,-87.80076000
29.20532227,-90.98389000
29.23583984,-93.84553000
29.26635742,-86.80556000
29.29687500,-83.33604000
29.32739258,-82.19783000
29.35791016,-82.21076000
29.38842773,-82.70633000
29.41894531,-83.44891000
29.44946289,-84.92056000
29.47998047,-86.96400000
29.51049805,-86.66138000
29.54101563,-84.61504000
29.57153320,-84.05824000
29.60205078,-85.35007000
29.63256836,-87.00645000
29.66308594,-87.11297000
29.69360352,-86.82367000
29.72412109,-89.14037000
29.75463867,-87.17950000
29.78515625,-81.05747000
29.81567383,-79.00900000
29.84619141,-80.51570000
29.87670898,-86.13984000
29.90722656,-99.92587000
29.93774414,-87.39259000
29.96826172,-82.63328000
29.99877930,-81.17700000
30.02929688,-83.23364000
30.05981445,-92.88941000
30.09033203,-86.41853000
30.12084961,-80.94395000
30.15136719,-79.71964000
30.18188477,-80.84885000
30.21240234,-84.33562000
30.24291992,-91.80405000
30.27343750,-95.48866000
30.30395508,-91.10681000
30.33447266,-92.40254000
30.36499023,-97.17848000
30.39550781,-96.25594000
30.42602539,-93.12193000
30.45654297,-90.33490000
30.48706055,-87.61165000
30.51757813,-88.21790000
30.54809570,-88.89091000
30.57861328,-85.30067000
30.60913086,-83.92677000
30.63964844,-84.80519000
30.67016602,-86.11622000
30.70068359,-87.08365000
30.73120117,-89.85017000
30.76171875,-97.35138000
30.79223633,-108.67980000
30.82275391,-97.78651000
30.85327148,-92.39790000
30.88378906,-88.50279000
30.91430664,-86.23985000
30.94482422,-85.70833000
30.97534180,-87.87933000
31.00585938,-93.48233000
31.03637695,-92.11021000
31.06689453,-89.31008000
31.09741211,-91.16126000
31.12792969,-101.51130000
31.15844727,-96.19191000
31.18896484,-89.40858000
31.21948242,-86.40572000
31.25000000,-85.34892000
31.28051758,-84.98283000
31.31103516,-84.07813000
31.34155273,-84.19081000
31.37207031,-86.88946000
31.40258789,-92.22725000
31.43310547,-96.48658000
31.46362305,-97.31296000
31.49414063,-95.66255000
31.52465820,-98.86549000
31.55517578,-93.07061000
31.58569336,-89.91428000
31.61621094,-91.00003000
31.64672852,-90.58432000
31.67724609,-87.49686000
31.70776367,-84.77725000
31.73828125,-83.17275000
31.76879883,-83.51147000
31.79931641,-86.80030000
31.82983398,-94.05882000
31.86035156,-95.58592000
31.89086914,-93.70461000
31.92138672,-89.46183000
31.95190430,-85.51688000
31.98242188,-84.74789000
32.01293945,-86.43540000
32.04345703,-87.74931000
32.07397461,-86.99548000
32.10449219,-86.14635000
32.13500977,-87.13832000
32.16552734,-91.72955000
32.19604492,-104.10870000
32.22656250,-96.39807000
32.25708008,-89.66663000
32.28759766,-86.00932000
32.31811523,-85.84747000
32.34863281,-90.04874000
32.37915039,-93.75607000
32.40966797,-88.88328000
32.44018555,-86.63284000
32.47070313,-86.79111000
32.50122070,-89.40208000
32.53173828,-90.96350000
32.56225586,-86.32603000
32.59277344,-83.70223000
32.62329102,-84.69041000
32.65380859,-87.32646000
32.68432617,-86.51817000
32.71484375,-85.57755000
32.74536133,-84.73749000
32.77587891,-83.14151000
32.80639648,-82.23667000
32.83691406,-83.13679000
32.86743164,-86.92346000
32.89794922,-92.72826000
32.92846680,-87.54910000
32.95898438,-83.01983000
32.98950195,-81.01430000
33.02001953,-81.60039000
33.05053711,-85.57801000
33.08105469,-96.35502000
33.11157227,-101.69320000
33.14208984,-96.37808000
33.17260742,-91.93332000
33.20312500,-87.48305000
33.23364258,-85.61138000
33.26416016,-86.30428000
33.29467773,-86.86275000
33.32519531,-85.32042000
33.35571289,-85.61077000
33.38623047,-88.66037000
33.41674805,-91.34861000
33.44726563,-88.76987000
33.47778320,-84.17542000
33.50830078,-81.00038000
33.53881836,-79.91813000
33.56933594,-80.55695000
33.59985352,-82.42680000
33.63037109,-84.95250000
33.66088867,-87.47799000
33.69140625,-87.80199000
33.72192383,-83.71582000
33.75244141,-81.04247000
33.78295898,-81.69483000
33.81347656,-86.36012000
33.84399414,-96.97292000
33.87451172,-99.22679000
33.90502930,-89.37450000
33.93554688,-85.97537000
33.96606445,-85.82580000
33.99658203,-86.08998000
34.02709961,-85.84972000
34.05761719,-85.38581000
34.08813477,-84.30317000
34.11865234,-84.22638000
34.14916992,-86.88704000
34.17968750,-94.98401000
34.21020508,-97.55934000
34.24072266,-89.27519000
34.27124023,-85.99396000
34.30175781,-84.69708000
34.33227539,-84.33495000
34.36279297,-84.47903000
34.39331055,-86.01533000
34.42382813,-91.01447000
34.45434570,-90.99873000
34.48486328,-86.20894000
34.51538086,-85.79063000
34.54589844,-87.29016000
34.57641602,-86.99387000
34.60693359,-86.08945000
34.63745117,-85.70268000
34.66796875,-86.02750000
34.69848633,-87.98997000
34.72900391,-90.56540000
34.75952148,-93.44802000
34.79003906,-93.79309000
34.82055664,-87.40200000
34.85107422,-85.90594000
34.88159180,-86.80785000
34.91210938,-87.47341000
34.94262695,-89.04767000
34.97314453,-90.81807000
35.00366211,-94.59494000
35.03417969,-95.53840000
35.06469727,-87.84341000
35.09521484,-87.05409000
35.12573242,-89.95690000
35.15625000,-87.89764000
35.18676758,-83.75673000
35.21728516,-81.89938000
35.24780273,-81.35802000
35.27832031,-81.13396000
35.30883789,-82.14179000
35.33935547,-85.41955000
35.36987305,-91.06118000
35.40039063,-96.15771000
35.43090820,-93.76912000
35.46142578,-91.30508000
35.49194336,-89.36900000
35.52246094,-87.65293000
35.55297852,-86.66473000
35.58349609,-86.67101000
35.61401367,-86.68812000
35.64453125,-85.69859000
35.67504883,-84.54292000
35.70556641,-83.80031000
35.73608398,-82.97334000
35.76660156,-81.74240000
35.79711914,-80.90397000
35.82763672,-81.45924000
35.85815430,-84.22881000
35.88867188,-89.76700000
35.91918945,-94.04060000
35.94970703,-90.97006000
35.98022461,-89.61136000
36.01074219,-94.08401000
36.04125977,-95.18533000
36.07177734,-86.10867000
36.10229492,-83.36908000
36.13281250,-84.06994000
36.16333008,-88.36857000
36.19384766,-93.84969000
36.22436523,-88.17375000
36.25488281,-85.15999000
36.28540039,-84.50758000
36.31591797,-84.83015000
36.34643555,-85.38129000
36.37695313,-87.79762000
36.40747070,-96.81657000
36.43798828,-86.19423000
36.46850586,-81.35135000
36.49902344,-81.69966000
36.52954102,-86.49532000
36.56005859,-87.75655000
36.59057617,-85.75843000
36.62109375,-86.75144000
36.65161133,-91.45123000
36.68212891,-92.76122000
36.71264648,-86.37852000
36.74316406,-85.20860000
36.77368164,-85.63165000
36.80419922,-85.02774000
36.83471680,-84.79376000
36.86523438,-86.40835000
36.89575195,-91.03661000
36.92626953,-92.44172000
36.95678711,-85.75633000
36.98730469,-83.03613000
37.01782227,-83.77225000
37.04833984,-88.80069000
37.07885742,-92.77699000
37.10937500,-88.02631000
37.13989258,-89.70805000
37.17041016,-96.84972000
37.20092773,-91.18829000
37.23144531,-86.66775000
37.26196289,-83.04793000
37.29248047,-81.36616000
37.32299805,-81.90039000
37.35351563,-84.53361000
37.38403320,-90.44330000
37.41455078,-113.93860000
37.44506836,-92.06856000
37.47558594,-90.07809000
37.50610352,-93.40388000
37.53662109,-90.36345000
37.56713867,-86.58768000
37.59765625,-87.76509000
37.62817383,-96.54816000
37.65869141,-102.03410000
37.68920898,-106.24020000
37.71972656,-94.42817000
37.75024414,-89.32633000
37.78076172,-91.62294000
37.81127930,-96.27328000
37.84179688,-91.01475000
37.87231445,-85.54044000
37.90283203,-83.77625000
37.93334961,-86.80813000
37.96386719,-101.37460000
37.99438477,-92.88478000
38.02490234,-90.49279000
38.05541992,-93.72792000
38.08593750,-94.62918000
38.11645508,-90.92213000
38.14697266,-90.11146000
38.17749023,-90.83621000
38.20800781,-91.35787000
38.23852539,-93.27328000
38.26904297,-98.94965000
38.29956055,-94.75337000
38.33007813,-91.37920000
38.36059570,-93.38161000
38.39111328,-93.75263000
38.42163086,-89.08822000
38.45214844,-86.50731000
38.48266602,-86.04671000
38.51318359,-87.05519000
38.54370117,-86.24603000
38.57421875,-85.35699000
38.60473633,-86.46796000
38.63525391,-88.35739000
38.66577148,-88.99242000
38.69628906,-88.89499000
38.72680664,-89.69543000
38.75732422,-89.73903000
38.78784180,-87.43721000
38.81835938,-85.85585000
38.84887695,-85.73360000
38.87939453,-86.19523000
38.90991211,-86.46068000
38.94042969,-87.34212000
38.97094727,-91.14777000
39.00146484,-98.11565000
39.03198242,-94.38340000
39.06250000,-86.78349000
39.09301758,-82.24931000
39.12353516,-81.02260000
39.15405273,-82.32373000
39.18457031,-85.22598000
39.21508789,-89.27361000
39.24560547,-95.93064000
39.27612305,-96.73443000
39.30664063,-92.25982000
39.33715820,-90.35125000
39.36767578,-89.05392000
39.39819336,-89.41360000
39.42871094,-92.21031000
39.45922852,-93.84007000
39.48974609,-96.45455000
39.52026367,-96.70718000
39.55078125,-90.64162000
39.58129883,-90.45625000
39.61181641,-93.75821000
39.64233398,-89.91607000
39.67285156,-87.02455000
39.70336914,-87.55286000
39.73388672,-91.45737000
39.76440430,-100.54200000
39.79492188,-95.27614000
39.82543945,-91.07846000
39.85595703,-88.74665000
39.88647461,-86.64427000
39.91699219,-85.84508000
39.94750977,-87.62405000
39.97802734,-92.35223000
40.00854492,-97.51682000
40.03906250,-100.18670000
40.06958008,-96.33260000
40.10009766,-89.48648000
40.13061523,-84.90184000
40.16113281,-82.26101000
40.19165039,-81.26540000
40.22216797,-81.21906000
40.25268555,-81.31422000
40.28320313,-81.46179000
40.31372070,-82.46522000
40.34423828,-85.74104000
40.37475586,-94.30408000
40.40527344,-91.63489000
40.43579102,-85.03749000
40.46630859,-82.49118000
40.49682617,-82.33029000
40.52734375,-85.08110000
40.55786133,-94.73983000
40.58837891,-93.77521000
40.61889648,-86.71724000
40.64941406,-84.69674000
40.67993164,-84.68979000
40.71044922,-86.17929000
40.74096680,-88.74656000
40.77148438,-93.14513000
40.80200195,-106.02080000
40.83251953,-92.75069000
40.86303711,-88.31670000
40.89355469,-88.93549000
40.92407227,-92.22427000
40.95458984,-88.91985000
40.98510742,-84.56778000
41.01562500,-82.19995000
41.04614258,-81.75624000
41.07666016,-83.42740000
41.10717773,-87.50022000
41.13769531,-89.91962000
41.16821289,-85.76247000
41.19873047,-83.14468000
41.22924805,-82.40765000
41.25976563,-83.36338000
41.29028320,-87.25330000
41.32080078,-99.15694000
41.35131836,-86.93895000
41.38183594,-82.81281000
41.41235352,-83.21474000
41.44287109,-86.61153000
41.47338867,-87.48804000
41.50390625,-85.61413000
41.53442383,-84.60062000
41.56494141,-84.58865000
41.59545898,-85.41827000
41.62597656,-84.80652000
41.65649414,-82.42985000
41.68701172,-80.82618000
41.71752930,-80.61789000
41.74804688,-81.23531000
41.77856445,-81.98099000
41.80908203,-82.50881000
41.83959961,-82.64215000
41.87011719,-83.11894000
41.90063477,-84.22401000
41.93115234,-84.54810000
41.96166992,-83.10139000
41.99218750,-81.08333000
42.02270508,-79.72487000
42.05322266,-79.69646000
42.08374023,-81.42453000
42.11425781,-84.51497000
42.14477539,-87.29225000
42.17529297,-89.43768000
42.20581055,-92.74983000
42.23632813,-98.64223000
42.26684570,-96.45687000
42.29736328,-92.02560000
42.32788086,-89.43436000
42.35839844,-88.94632000
42.38891602,-91.17451000
42.41943359,-96.63750000
42.44995117,-104.91440000
42.48046875,-99.42500000
42.51098633,-89.42511000
42.54150391,-83.57115000
42.57202148,-80.47622000
42.60253906,-79.59586000
42.63305664,-80.59226000
42.66357422,-82.79399000
42.69409180,-84.84447000
42.72460938,-85.95622000
42.75512695,-88.22158000
42.78564453,-95.89387000
42.81616211,-91.03346000
42.84667969,-84.01475000
42.87719727,-81.58585000
42.90771484,-81.59831000
42.93823242,-82.80873000
42.96875000,-83.91206000
42.99926758,-83.78308000
43.02978516,-83.64518000
43.06030273,-84.92528000
43.09082031,-87.62767000
43.12133789,-92.16512000
43.15185547,-90.16084000
43.18237305,-86.17093000
43.21289063,-86.53851000
43.24340820,-90.03562000
43.27392578,-91.98802000
43.30444336,-94.58731000
43.33496094,-107.65790000
43.36547852,-102.90850000
43.39599609,-103.25050000
43.42651367,-106.69070000
43.45703125,-92.59479000
43.48754883,-87.73907000
43.51806641,-86.83984000
43.54858398,-88.61327000
43.57910156,-89.06557000
43.60961914,-89.22523000
43.64013672,-91.86967000
43.67065430,-96.49751000
43.70117188,-106.25630000
43.73168945,-100.34770000
43.76220703,-94.61377000
43.79272461,-88.97041000
43.82324219,-87.28439000
43.85375977,-85.21392000
43.88427734,-81.20912000
43.91479492,-79.13448000
43.94531250,-79.31770000
43.97583008,-81.14911000
44.00634766,-84.43389000
44.03686523,-91.94588000
44.06738281,-90.70754000
44.09790039,-84.93546000
44.12841797,-83.46828000
44.15893555,-83.75480000
44.18945313,-85.10703000
44.21997070,-87.88226000
44.25048828,-92.53635000
44.28100586,-92.68077000
44.31152344,-89.60671000
44.34204102,-88.00884000
44.37255859,-87.23869000
44.40307617,-88.21941000
44.43359375,-93.46100000
44.46411133,-98.43303000
44.49462891,-91.86217000
44.52514648,-93.34194000
44.55566406,-98.34924000
44.58618164,-88.18577000
44.61669922,-83.91666000
44.64721680,-82.66026000
44.67773438,-83.58266000
44.70825195,-85.21562000
44.73876953,-84.63300000
44.76928711,-84.12525000
44.79980469,-85.02251000
44.83032227,-85.53120000
44.86083984,-84.42386000
44.89135742,-84.40285000
44.92187500,-88.25179000
44.95239258,-96.57944000
44.98291016,-91.87828000
45.01342773,-91.36069000
45.04394531,-94.58222000
45.07446289,-99.71497000
45.10498047,-106.57080000
45.13549805,-90.79716000
45.16601563,-83.30239000
45.19653320,-79.42511000
45.22705078,-78.21811000
45.25756836,-79.52113000
45.28808594,-83.47536000
45.31860352,-89.81055000
45.34912109,-93.50598000
45.37963867,-93.16153000
45.41015625,-93.12031000
45.44067383,-92.04480000
45.47119141,-94.16620000
45.50170898,-90.55220000
45.53222656,-82.58263000
45.56274414,-79.01299000
45.59326172,-77.83302000
45.62377930,-78.22676000
45.65429688,-80.23056000
45.68481445,-84.68833000
45.71533203,-94.86962000
45.74584961,-97.51685000
45.77636719,-90.12631000
45.80688477,-89.35672000
45.83740234,-93.68349000
45.86791992,-113.85680000
45.89843750,-93.64952000
45.92895508,-90.13661000
45.95947266,-88.62794000
45.98999023,-87.89879000
46.02050781,-88.86005000
46.05102539,-92.84615000
46.08154297,-94.70879000
46.11206055,-88.21024000
46.14257813,-85.66960000
46.17309570,-86.67922000
46.20361328,-92.55283000
46.23413086,-98.76231000
46.26464844,-88.11700000
46.29516602,-85.60677000
46.32568359,-85.88976000
46.35620117,-85.22893000
46.38671875,-83.67634000
46.41723633,-83.41478000
46.44775391,-84.19557000
46.47827148,-84.18674000
46.50878906,-81.94820000
46.53930664,-79.99573000
46.56982422,-80.19823000
46.60034180,-83.36831000
46.63085938,-90.79259000
46.66137695,-97.50195000
46.69189453,-93.56628000
46.72241211,-91.53481000
46.75292969,-86.25966000
46.78344727,-82.66504000
46.81396484,-81.58186000
46.84448242,-81.12032000
46.87500000,-80.64900000
46.90551758,-81.67457000
46.93603516,-85.51759000
46.96655273,-95.75233000
46.99707031,-97.43346000
47.02758789,-90.97057000
47.05810547,-89.51625000
47.08862305,-88.46951000
47.11914063,-86.61186000
47.14965820,-85.05460000
47.18017578,-85.64126000
47.21069336,-88.70963000
47.24121094,-93.71612000
47.27172852,-94.61972000
47.30224609,-89.77302000
47.33276367,-87.78162000
47.36328125,-88.19556000
47.39379883,-90.76917000
47.42431641,-96.06518000
47.45483398,-98.11180000
47.48535156,-91.98262000
47.51586914,-88.23907000
47.54638672,-87.06992000
47.57690430,-87.09835000
47.60742188,-86.52038000
47.63793945,-85.77934000
47.66845703,-85.95384000
47.69897461,-87.19962000
47.72949219,-90.05462000
47.76000977,-93.65771000
47.79052734,-91.30634000
47.82104492,-90.27266000
47.85156250,-87.35890000
47.88208008,-82.92078000
47.91259766,-81.56696000
47.94311523,-83.99771000
47.97363281,-92.91329000
48.00415039,-88.79228000
48.03466797,-82.80778000
48.06518555,-81.77506000
48.09570313,-83.81512000
48.12622070,-86.18880000
48.15673828,-87.61054000
48.18725586,-92.19712000
48.21777344,-99.46496000
48.24829102,-89.58635000
48.27880859,-85.31088000
48.30932617,-84.33155000
48.33984375,-84.99245000
48.37036133,-85.29262000
48.40087891,-85.53447000
48.43139648,-87.82413000
48.46191406,-97.07033000
48.49243164,-92.19850000
48.52294922,-84.01521000
48.55346680,-81.33477000
48.58398438,-81.52158000
48.61450195,-84.16106000
48.64501953,-89.24858000
48.67553711,-93.44701000
48.70605469,-93.31322000
48.73657227,-89.06709000
48.76708984,-87.80944000
48.79760742,-87.53196000
48.82812500,-84.99812000
48.85864258,-84.58771000
48.88916016,-87.27356000
48.91967773,-92.15283000
48.95019531,-92.94463000
48.98071289,-88.91254000
49.01123047,-86.00763000
49.04174805,-84.74266000
49.07226563,-84.60779000
49.10278320,-84.34760000
49.13330078,-83.15109000
49.16381836,-81.59727000
49.19433594,-80.71719000
49.22485352,-81.55820000
49.25537109,-84.70416000
49.28588867,-87.63071000
49.31640625,-87.70280000
49.34692383,-91.44657000
49.37744141,-116.71840000
49.40795898,-92.02103000
49.43847656,-87.07536000
49.46899414,-83.51923000
49.49951172,-81.03535000
49.53002930,-79.64173000
49.56054688,-79.00488000
49.59106445,-79.08196000
49.62158203,-80.09752000
49.65209961,-81.86562000
49.68261719,-83.16398000
49.71313477,-83.78697000
49.74365234,-85.38139000
49.77416992,-87.66259000
49.80468750,-89.95465000
49.83520508,-95.41022000
49.86572266,-109.41880000
49.89624023,-93.16679000
49.92675781,-87.07939000
49.95727539,-83.80667000
49.98779297,-83.26150000
50.01831055,-87.47871000
