Frequency,Channel A
(MHz),(dBu)

0.00000000,-13.81677000
0.03051758,-14.21885000
0.06103516,-19.51637000
0.09155273,-29.36711000
0.12207031,-44.28811000
0.15258789,-57.15265000
0.18310547,-60.96443000
0.21362305,-58.75938000
0.24414063,-58.40594000
0.27465820,-56.42052000
0.30517578,-55.93512000
0.33569336,-57.01809000
0.36621094,-55.16368000
0.39672852,-55.24319000
0.42724609,-58.18950000
0.45776367,-61.91938000
0.48828125,-62.33196000
0.51879883,-62.65668000
0.54931641,-62.26650000
0.57983398,-54.29978000
0.61035156,-46.72031000
0.64086914,-44.57673000
0.67138672,-47.22916000
0.70190430,-51.52628000
0.73242188,-49.41735000
0.76293945,-49.83022000
0.79345703,-52.50275000
0.82397461,-55.42561000
0.85449219,-60.00130000
0.88500977,-69.21671000
0.91552734,-69.53789000
0.94604492,-71.19428000
0.97656250,-65.53566000
1.00708008,-60.84184000
1.03759766,-59.22533000
1.06811523,-60.39867000
1.09863281,-66.64367000
1.12915039,-57.41817000
1.15966797,-51.44941000
1.19018555,-50.05954000
1.22070313,-52.11918000
1.25122070,-57.13257000
1.28173828,-64.94163000
1.31225586,-77.98988000
1.34277344,-64.79503000
1.37329102,-63.70038000
1.40380859,-63.61682000
1.43432617,-62.24338000
1.46484375,-62.22370000
1.49536133,-62.00663000
1.52587891,-62.18043000
1.55639648,-64.03742000
1.58691406,-65.09040000
1.61743164,-65.60002000
1.64794922,-64.99353000
1.67846680,-62.90405000
1.70898438,-63.75790000
1.73950195,-69.09247000
1.77001953,-67.13210000
1.80053711,-62.88655000
1.83105469,-61.56727000
1.86157227,-61.85667000
1.89208984,-63.12243000
1.92260742,-63.34425000
1.95312500,-62.14308000
1.98364258,-62.45358000
2.01416016,-65.76567000
2.04467773,-68.91579000
2.07519531,-67.19395000
2.10571289,-66.56079000
2.13623047,-66.40393000
2.16674805,-69.71398000
2.19726563,-75.09510000
2.22778320,-64.56894000
2.25830078,-62.13235000
2.28881836,-66.44279000
2.31933594,-67.67348000
2.34985352,-57.16992000
2.38037109,-54.03965000
2.41088867,-53.95428000
2.44140625,-55.14176000
2.47192383,-57.39420000
2.50244141,-63.54719000
2.53295898,-79.71242000
2.56347656,-65.78931000
2.59399414,-65.35925000
2.62451172,-65.85389000
2.65502930,-65.48779000
2.68554688,-66.23219000
2.71606445,-65.54305000
2.74658203,-64.02045000
2.77709961,-63.22042000
2.80761719,-64.42517000
2.83813477,-67.40076000
2.86865234,-64.16595000
2.89916992,-61.55914000
2.92968750,-61.96440000
2.96020508,-65.60956000
2.99072266,-80.49471000
3.02124023,-68.76866000
3.05175781,-63.88989000
3.08227539,-63.19255000
3.11279297,-64.12009000
3.14331055,-65.39671000
3.17382813,-64.81409000
3.20434570,-63.06206000
3.23486328,-62.23001000
3.26538086,-62.36944000
3.29589844,-64.16101000
3.32641602,-66.10389000
3.35693359,-64.50933000
3.38745117,-65.42048000
3.41796875,-68.59036000
3.44848633,-63.94581000
3.47900391,-61.68716000
3.50952148,-63.44272000
3.54003906,-68.28043000
3.57055664,-66.08463000
3.60107422,-62.26139000
3.63159180,-59.13076000
3.66210938,-57.19261000
3.69262695,-57.29335000
3.72314453,-58.25247000
3.75366211,-57.95201000
3.78417969,-58.04144000
3.81469727,-59.45458000
3.84521484,-60.09020000
3.87573242,-59.58344000
3.90625000,-59.48736000
3.93676758,-59.76007000
3.96728516,-58.59636000
3.99780273,-56.61670000
4.02832031,-56.16837000
4.05883789,-57.52357000
4.08935547,-59.18031000
4.11987305,-58.73394000
4.15039063,-57.30617000
4.18090820,-56.90373000
4.21142578,-57.55127000
4.24194336,-58.23040000
4.27246094,-58.48663000
4.30297852,-58.30578000
4.33349609,-58.02311000
4.36401367,-58.17161000
4.39453125,-59.18709000
4.42504883,-62.21752000
4.45556641,-64.17607000
4.48608398,-60.50415000
4.51660156,-59.38731000
4.54711914,-60.86464000
4.57763672,-62.08790000
4.60815430,-61.34080000
4.63867188,-61.48956000
4.66918945,-63.49764000
4.69970703,-63.33260000
4.73022461,-61.23354000
4.76074219,-60.91444000
4.79125977,-60.77686000
4.82177734,-60.47499000
4.85229492,-62.03525000
4.88281250,-64.88807000
4.91333008,-65.71992000
4.94384766,-64.70584000
4.97436523,-62.76182000
5.00488281,-61.41930000
5.03540039,-61.02328000
5.06591797,-61.53021000
5.09643555,-62.33622000
5.12695313,-61.67618000
5.15747070,-60.63846000
5.18798828,-60.49287000
5.21850586,-61.15149000
5.24902344,-62.12759000
5.27954102,-61.86175000
5.31005859,-60.96563000
5.34057617,-61.25301000
5.37109375,-63.07071000
5.40161133,-65.55663000
5.43212891,-64.38033000
5.46264648,-62.16697000
5.49316406,-62.05806000
5.52368164,-62.11137000
5.55419922,-60.98782000
5.58471680,-61.07144000
5.61523438,-62.28437000
5.64575195,-61.96587000
5.67626953,-60.77980000
5.70678711,-59.81546000
5.73730469,-58.82767000
5.76782227,-58.13791000
5.79833984,-58.00085000
5.82885742,-58.28889000
5.85937500,-58.47475000
5.88989258,-58.18777000
5.92041016,-58.21416000
5.95092773,-58.13509000
5.98144531,-56.65821000
6.01196289,-55.73656000
6.04248047,-56.34874000
6.07299805,-57.12395000
6.10351563,-56.94244000
6.13403320,-56.58027000
6.16455078,-56.70798000
6.19506836,-57.30745000
6.22558594,-57.47379000
6.25610352,-57.66920000
6.28662109,-58.88768000
6.31713867,-60.09712000
6.34765625,-59.83045000
6.37817383,-58.94542000
6.40869141,-59.35743000
6.43920898,-61.68396000
6.46972656,-62.73085000
6.50024414,-61.63369000
6.53076172,-61.93434000
6.56127930,-63.68545000
6.59179688,-66.33626000
6.62231445,-67.76950000
6.65283203,-67.83344000
6.68334961,-69.14429000
6.71386719,-69.33275000
6.74438477,-67.88346000
6.77490234,-67.88222000
6.80541992,-70.84617000
6.83593750,-73.77778000
6.86645508,-69.83535000
6.89697266,-69.21748000
6.92749023,-71.99126000
6.95800781,-75.78388000
6.98852539,-78.90855000
7.01904297,-80.32233000
7.04956055,-85.85624000
7.08007813,-83.01658000
7.11059570,-75.11189000
7.14111328,-74.14633000
7.17163086,-76.65027000
7.20214844,-80.07037000
7.23266602,-81.70444000
7.26318359,-81.10783000
7.29370117,-73.90517000
7.32421875,-69.47923000
7.35473633,-68.38668000
7.38525391,-70.05370000
7.41577148,-74.00459000
7.44628906,-79.62132000
7.47680664,-84.51804000
7.50732422,-79.00110000
7.53784180,-75.07214000
7.56835938,-73.93324000
7.59887695,-74.38885000
7.62939453,-75.56643000
7.65991211,-77.13872000
7.69042969,-78.82255000
7.72094727,-78.02814000
7.75146484,-76.45381000
7.78198242,-78.58896000
7.81250000,-79.90540000
7.84301758,-74.98821000
7.87353516,-75.27548000
7.90405273,-84.09169000
7.93457031,-79.21389000
7.96508789,-74.87847000
7.99560547,-78.28725000
8.02612305,-82.71811000
8.05664063,-72.67995000
8.08715820,-70.17150000
8.11767578,-70.97681000
8.14819336,-72.14509000
8.17871094,-70.32244000
8.20922852,-68.85075000
8.23974609,-70.15305000
8.27026367,-74.96047000
8.30078125,-76.95981000
8.33129883,-75.53848000
8.36181641,-76.99463000
8.39233398,-76.29154000
8.42285156,-74.11111000
8.45336914,-73.11461000
8.48388672,-73.74230000
8.51440430,-76.01133000
8.54492188,-76.31178000
8.57543945,-74.37909000
8.60595703,-74.06613000
8.63647461,-76.13906000
8.66699219,-82.54054000
8.69750977,-83.66216000
8.72802734,-77.15063000
8.75854492,-74.84496000
8.78906250,-74.03914000
8.81958008,-75.08279000
8.85009766,-78.50333000
8.88061523,-77.65172000
8.91113281,-76.10422000
8.94165039,-78.46925000
8.97216797,-85.63931000
9.00268555,-81.22386000
9.03320313,-74.50346000
9.06372070,-71.69375000
9.09423828,-71.59703000
9.12475586,-73.78462000
9.15527344,-77.88896000
9.18579102,-82.59807000
9.21630859,-84.59549000
9.24682617,-84.25896000
9.27734375,-84.71348000
9.30786133,-83.95855000
9.33837891,-80.76552000
9.36889648,-80.63644000
9.39941406,-83.79475000
9.42993164,-86.24796000
9.46044922,-87.48590000
9.49096680,-85.75380000
9.52148438,-83.57658000
9.55200195,-82.88227000
9.58251953,-84.82983000
9.61303711,-92.13329000
9.64355469,-83.44624000
9.67407227,-77.70436000
9.70458984,-75.32189000
9.73510742,-74.12830000
9.76562500,-73.52930000
9.79614258,-74.31451000
9.82666016,-78.42099000
9.85717773,-89.23531000
9.88769531,-79.53304000
9.91821289,-77.04623000
9.94873047,-80.78754000
9.97924805,-97.33276000
10.00976563,-86.80710000
10.04028320,-78.18327000
10.07080078,-74.27110000
10.10131836,-74.43917000
10.13183594,-76.72912000
10.16235352,-76.07484000
10.19287109,-74.45169000
10.22338867,-74.73318000
10.25390625,-76.56897000
10.28442383,-78.75289000
10.31494141,-79.89502000
10.34545898,-79.68320000
10.37597656,-76.88549000
10.40649414,-74.98531000
10.43701172,-77.62261000
10.46752930,-90.41316000
10.49804688,-81.61140000
10.52856445,-78.84521000
10.55908203,-78.48351000
10.58959961,-76.10602000
10.62011719,-73.21607000
10.65063477,-72.24611000
10.68115234,-74.20996000
10.71166992,-81.76639000
10.74218750,-82.48142000
10.77270508,-75.34835000
10.80322266,-76.40289000
10.83374023,-81.47884000
10.86425781,-70.98461000
10.89477539,-67.05782000
10.92529297,-66.60918000
10.95581055,-68.49106000
10.98632813,-72.53593000
11.01684570,-79.73999000
11.04736328,-86.52063000
11.07788086,-82.73041000
11.10839844,-78.52681000
11.13891602,-75.33924000
11.16943359,-73.01361000
11.19995117,-71.86599000
11.23046875,-72.37338000
11.26098633,-74.31638000
11.29150391,-77.43987000
11.32202148,-80.02914000
11.35253906,-75.07567000
11.38305664,-71.66278000
11.41357422,-72.00938000
11.44409180,-76.07218000
11.47460938,-79.30409000
11.50512695,-76.08878000
11.53564453,-73.88264000
11.56616211,-73.04340000
11.59667969,-74.40177000
11.62719727,-79.11189000
11.65771484,-88.41957000
11.68823242,-90.90196000
11.71875000,-79.68799000
11.74926758,-72.15415000
11.77978516,-67.88282000
11.81030273,-66.03055000
11.84082031,-66.36949000
11.87133789,-69.08392000
11.90185547,-75.08604000
11.93237305,-81.71106000
11.96289063,-77.98493000
11.99340820,-78.98530000
12.02392578,-78.20843000
12.05444336,-72.82050000
12.08496094,-70.95000000
12.11547852,-72.32256000
12.14599609,-75.89819000
12.17651367,-77.89132000
12.20703125,-77.62080000
12.23754883,-74.98293000
12.26806641,-71.74160000
12.29858398,-70.11536000
12.32910156,-69.76704000
12.35961914,-70.12971000
12.39013672,-71.70309000
12.42065430,-75.51283000
12.45117188,-77.51112000
12.48168945,-74.83625000
12.51220703,-74.18777000
12.54272461,-75.28503000
12.57324219,-76.78991000
12.60375977,-77.59685000
12.63427734,-77.34510000
12.66479492,-77.24885000
12.69531250,-77.84616000
12.72583008,-77.77026000
12.75634766,-79.70238000
12.78686523,-86.74280000
12.81738281,-86.86647000
12.84790039,-84.43493000
12.87841797,-83.34589000
12.90893555,-83.36731000
12.93945313,-88.62860000
12.96997070,-80.20042000
13.00048828,-75.09824000
13.03100586,-75.49596000
13.06152344,-83.63972000
13.09204102,-81.38690000
13.12255859,-74.84271000
13.15307617,-74.13702000
13.18359375,-76.96186000
13.21411133,-83.39428000
13.24462891,-81.14407000
13.27514648,-77.18790000
13.30566406,-77.10688000
13.33618164,-80.09391000
13.36669922,-85.77430000
13.39721680,-96.19092000
13.42773438,-90.05199000
13.45825195,-85.34843000
13.48876953,-74.85879000
13.51928711,-67.78978000
13.54980469,-64.91040000
13.58032227,-65.73958000
13.61083984,-70.47052000
13.64135742,-74.50993000
13.67187500,-71.90787000
13.70239258,-70.01212000
13.73291016,-68.44918000
13.76342773,-68.51093000
13.79394531,-71.05825000
13.82446289,-73.96066000
13.85498047,-72.71286000
13.88549805,-72.32336000
13.91601563,-74.45433000
13.94653320,-78.27714000
13.97705078,-81.33839000
14.00756836,-81.11856000
14.03808594,-80.50253000
14.06860352,-83.21658000
14.09912109,-92.67169000
14.12963867,-80.21873000
14.16015625,-76.38277000
14.19067383,-76.84599000
14.22119141,-79.75740000
14.25170898,-80.92618000
14.28222656,-79.94229000
14.31274414,-80.92210000
14.34326172,-85.91606000
14.37377930,-97.74155000
14.40429688,-91.76212000
14.43481445,-88.77847000
14.46533203,-83.54132000
14.49584961,-80.86502000
14.52636719,-81.10823000
14.55688477,-82.97950000
14.58740234,-85.68130000
14.61791992,-89.25475000
14.64843750,-92.98150000
14.67895508,-101.87220000
14.70947266,-92.32492000
14.73999023,-89.13934000
14.77050781,-93.44260000
14.80102539,-82.80602000
14.83154297,-77.77400000
14.86206055,-76.81392000
14.89257813,-78.34041000
14.92309570,-81.42477000
14.95361328,-86.70795000
14.98413086,-107.14390000
15.01464844,-87.04016000
15.04516602,-83.26859000
15.07568359,-84.30705000
15.10620117,-84.36989000
15.13671875,-81.42953000
15.16723633,-83.84098000
15.19775391,-84.36560000
15.22827148,-75.79073000
15.25878906,-72.82899000
15.28930664,-73.07225000
15.31982422,-75.77872000
15.35034180,-80.48352000
15.38085938,-85.08524000
15.41137695,-85.91157000
15.44189453,-84.71408000
15.47241211,-84.41048000
15.50292969,-88.04604000
15.53344727,-90.30550000
15.56396484,-83.88783000
15.59448242,-83.28510000
15.62500000,-86.83276000
15.65551758,-97.99966000
15.68603516,-90.77338000
15.71655273,-83.17847000
15.74707031,-80.45967000
15.77758789,-80.21127000
15.80810547,-81.10264000
15.83862305,-81.90601000
15.86914063,-81.83340000
15.89965820,-81.08737000
15.93017578,-80.95483000
15.96069336,-81.73972000
15.99121094,-83.62962000
16.02172852,-88.71604000
16.05224609,-91.92656000
16.08276367,-88.30466000
16.11328125,-87.93422000
16.14379883,-86.09645000
16.17431641,-83.64654000
16.20483398,-82.91077000
16.23535156,-83.21632000
16.26586914,-82.54057000
16.29638672,-80.85159000
16.32690430,-80.22418000
16.35742188,-81.95499000
16.38793945,-87.58221000
16.41845703,-101.38130000
16.44897461,-84.47578000
16.47949219,-79.90649000
16.51000977,-79.10474000
16.54052734,-80.89244000
16.57104492,-83.88553000
16.60156250,-85.88133000
16.63208008,-86.25405000
16.66259766,-86.03217000
16.69311523,-86.45824000
16.72363281,-87.94058000
16.75415039,-87.85532000
16.78466797,-85.00662000
16.81518555,-82.24618000
16.84570313,-81.14579000
16.87622070,-81.46266000
16.90673828,-82.82593000
16.93725586,-86.24023000
16.96777344,-94.32106000
16.99829102,-87.37520000
17.02880859,-82.37221000
17.05932617,-81.50626000
17.08984375,-83.23689000
17.12036133,-85.47757000
17.15087891,-87.63314000
17.18139648,-100.12930000
17.21191406,-87.42413000
17.24243164,-81.84363000
17.27294922,-80.95200000
17.30346680,-82.87986000
17.33398438,-87.54924000
17.36450195,-90.09892000
17.39501953,-86.97712000
17.42553711,-87.15100000
17.45605469,-89.63531000
17.48657227,-90.08125000
17.51708984,-87.07817000
17.54760742,-84.70104000
17.57812500,-85.28282000
17.60864258,-88.57910000
17.63916016,-83.43578000
17.66967773,-75.34602000
17.70019531,-69.51583000
17.73071289,-66.26659000
17.76123047,-65.25919000
17.79174805,-66.17856000
17.82226563,-68.90866000
17.85278320,-73.53297000
17.88330078,-80.05627000
17.91381836,-85.71938000
17.94433594,-85.94328000
17.97485352,-86.12157000
18.00537109,-86.41991000
18.03588867,-87.91167000
18.06640625,-90.78749000
18.09692383,-87.58862000
18.12744141,-83.14308000
18.15795898,-80.80415000
18.18847656,-80.83754000
18.21899414,-83.60417000
18.24951172,-90.11666000
18.28002930,-100.11020000
18.31054688,-93.23067000
18.34106445,-90.83131000
18.37158203,-89.44012000
18.40209961,-88.05661000
18.43261719,-85.02586000
18.46313477,-82.34231000
18.49365234,-81.72806000
18.52416992,-83.04928000
18.55468750,-86.07270000
18.58520508,-90.90361000
18.61572266,-91.78995000
18.64624023,-87.21140000
18.67675781,-85.94952000
18.70727539,-87.64126000
18.73779297,-90.60668000
18.76831055,-92.11238000
18.79882813,-92.44359000
18.82934570,-96.06231000
18.85986328,-105.04800000
18.89038086,-93.36140000
18.92089844,-91.10023000
18.95141602,-89.72604000
18.98193359,-86.18462000
19.01245117,-84.76924000
19.04296875,-85.32075000
19.07348633,-85.85687000
19.10400391,-86.66333000
19.13452148,-89.60680000
19.16503906,-97.99533000
19.19555664,-97.88745000
19.22607422,-90.75217000
19.25659180,-88.02567000
19.28710938,-85.05349000
19.31762695,-82.51572000
19.34814453,-81.98806000
19.37866211,-84.13622000
19.40917969,-87.74416000
19.43969727,-86.48196000
19.47021484,-84.71532000
19.50073242,-84.44560000
19.53125000,-84.63707000
19.56176758,-86.19724000
19.59228516,-90.67539000
19.62280273,-96.09684000
19.65332031,-92.64980000
19.68383789,-86.92439000
19.71435547,-85.73044000
19.74487305,-89.60632000
19.77539063,-95.07208000
19.80590820,-91.95918000
19.83642578,-94.13669000
19.86694336,-89.90124000
19.89746094,-84.44602000
19.92797852,-82.89163000
19.95849609,-83.19884000
19.98901367,-83.45874000
20.01953125,-84.09058000
20.05004883,-83.68709000
20.08056641,-81.10101000
20.11108398,-79.27934000
20.14160156,-78.73975000
20.17211914,-79.12209000
20.20263672,-80.59676000
20.23315430,-83.43929000
20.26367188,-86.81098000
20.29418945,-90.04138000
20.32470703,-95.05339000
20.35522461,-96.26281000
20.38574219,-89.59360000
20.41625977,-87.07557000
20.44677734,-87.01265000
20.47729492,-88.31062000
20.50781250,-89.15935000
20.53833008,-86.76644000
20.56884766,-84.40543000
20.59936523,-83.91781000
20.62988281,-85.32430000
20.66040039,-88.05269000
20.69091797,-90.23261000
20.72143555,-88.95116000
20.75195313,-87.76407000
20.78247070,-89.29839000
20.81298828,-94.14124000
20.84350586,-95.13982000
20.87402344,-93.52954000
20.90454102,-103.91330000
20.93505859,-88.47359000
20.96557617,-83.37340000
20.99609375,-83.17147000
21.02661133,-84.48517000
21.05712891,-83.03514000
21.08764648,-81.49687000
21.11816406,-82.58503000
21.14868164,-88.46136000
21.17919922,-91.89401000
21.20971680,-87.60233000
21.24023438,-89.30248000
21.27075195,-91.02131000
21.30126953,-91.50583000
21.33178711,-89.19794000
21.36230469,-86.43803000
21.39282227,-87.82349000
21.42333984,-91.58851000
21.45385742,-89.99226000
21.48437500,-89.05040000
21.51489258,-88.63777000
21.54541016,-87.01108000
21.57592773,-86.07178000
21.60644531,-86.67317000
21.63696289,-89.34631000
21.66748047,-96.44110000
21.69799805,-104.68940000
21.72851563,-97.36620000
21.75903320,-98.90614000
21.78955078,-102.11900000
21.82006836,-100.09430000
21.85058594,-97.56313000
21.88110352,-98.32439000
21.91162109,-101.02510000
21.94213867,-92.28703000
21.97265625,-85.32164000
22.00317383,-82.79369000
22.03369141,-83.80822000
22.06420898,-88.20738000
22.09472656,-96.32614000
22.12524414,-103.41210000
22.15576172,-90.02042000
22.18627930,-85.50841000
22.21679688,-84.45775000
22.24731445,-85.52086000
22.27783203,-87.11984000
22.30834961,-86.06673000
22.33886719,-83.05416000
22.36938477,-81.06789000
22.39990234,-81.03893000
22.43041992,-82.95229000
22.46093750,-85.30959000
22.49145508,-86.72028000
22.52197266,-89.08763000
22.55249023,-89.26163000
22.58300781,-86.45539000
22.61352539,-85.31844000
22.64404297,-85.37484000
22.67456055,-85.34657000
22.70507813,-85.06754000
22.73559570,-85.55267000
22.76611328,-87.79167000
22.79663086,-90.06412000
22.82714844,-87.95082000
22.85766602,-86.95502000
22.88818359,-88.22076000
22.91870117,-88.35460000
22.94921875,-89.65791000
22.97973633,-101.31910000
23.01025391,-91.16644000
23.04077148,-87.51847000
23.07128906,-90.03850000
23.10180664,-95.68465000
23.13232422,-89.77608000
23.16284180,-86.96120000
23.19335938,-88.52798000
23.22387695,-96.27624000
23.25439453,-92.41148000
23.28491211,-85.97847000
23.31542969,-83.81674000
23.34594727,-84.68749000
23.37646484,-88.01583000
23.40698242,-88.64452000
23.43750000,-87.40970000
23.46801758,-88.56737000
23.49853516,-91.19566000
23.52905273,-93.72211000
23.55957031,-98.99407000
23.59008789,-106.19980000
23.62060547,-93.00788000
23.65112305,-90.00311000
23.68164063,-91.69473000
23.71215820,-97.65407000
23.74267578,-92.33078000
23.77319336,-89.69455000
23.80371094,-90.79771000
23.83422852,-91.63108000
23.86474609,-88.67036000
23.89526367,-84.75269000
23.92578125,-83.26911000
23.95629883,-86.05499000
23.98681641,-96.37547000
24.01733398,-89.13417000
24.04785156,-87.92220000
24.07836914,-92.76398000
24.10888672,-96.19804000
24.13940430,-94.66173000
24.16992188,-96.68904000
24.20043945,-96.25045000
24.23095703,-89.32572000
24.26147461,-86.57569000
24.29199219,-88.45370000
24.32250977,-97.52564000
24.35302734,-101.32720000
24.38354492,-93.88589000
24.41406250,-88.47211000
24.44458008,-85.80998000
24.47509766,-86.08092000
24.50561523,-86.79822000
24.53613281,-86.51718000
24.56665039,-87.58994000
24.59716797,-90.81996000
24.62768555,-91.08140000
24.65820313,-87.49256000
24.68872070,-85.29387000
24.71923828,-83.72298000
24.74975586,-83.02178000
24.78027344,-84.68114000
24.81079102,-90.79356000
24.84130859,-108.26500000
24.87182617,-91.96300000
24.90234375,-90.33436000
24.93286133,-90.83597000
24.96337891,-90.85828000
24.99389648,-93.35071000
25.02441406,-98.93605000
25.05493164,-96.55801000
25.08544922,-89.27118000
25.11596680,-86.19594000
25.14648438,-87.95653000
25.17700195,-96.04026000
25.20751953,-100.29970000
25.23803711,-92.62752000
25.26855469,-86.45164000
25.29907227,-84.04774000
25.32958984,-84.28197000
25.36010742,-84.92709000
25.39062500,-85.79373000
25.42114258,-88.44525000
25.45166016,-87.81181000
25.48217773,-85.57413000
25.51269531,-86.83564000
25.54321289,-88.80737000
25.57373047,-87.86342000
25.60424805,-89.46603000
25.63476563,-88.65043000
25.66528320,-87.05244000
25.69580078,-89.22868000
25.72631836,-92.28387000
25.75683594,-89.76500000
25.78735352,-85.81199000
25.81787109,-84.80318000
25.84838867,-87.64249000
25.87890625,-95.98711000
25.90942383,-93.44097000
25.93994141,-89.62320000
25.97045898,-88.86179000
26.00097656,-87.41271000
26.03149414,-85.65795000
26.06201172,-85.12318000
26.09252930,-85.63854000
26.12304688,-86.50272000
26.15356445,-87.52221000
26.18408203,-89.40901000
26.21459961,-92.25217000
26.24511719,-93.29570000
26.27563477,-93.29256000
26.30615234,-94.30737000
26.33666992,-94.18060000
26.36718750,-91.41780000
26.39770508,-88.27216000
26.42822266,-86.26273000
26.45874023,-85.61285000
26.48925781,-86.49620000
26.51977539,-90.38036000
26.55029297,-96.31657000
26.58081055,-89.18235000
26.61132813,-86.04515000
26.64184570,-84.69777000
26.67236328,-84.31357000
26.70288086,-85.99899000
26.73339844,-91.38785000
26.76391602,-95.82892000
26.79443359,-90.01620000
26.82495117,-88.40025000
26.85546875,-89.37637000
26.88598633,-92.09624000
26.91650391,-98.00768000
26.94702148,-97.68408000
26.97753906,-92.84725000
27.00805664,-90.36927000
27.03857422,-88.20303000
27.06909180,-86.63528000
27.09960938,-85.94280000
27.13012695,-84.90683000
27.16064453,-83.12859000
27.19116211,-81.63067000
27.22167969,-80.64624000
27.25219727,-80.26065000
27.28271484,-81.17651000
27.31323242,-83.84864000
27.34375000,-87.05888000
27.37426758,-88.02082000
27.40478516,-86.86900000
27.43530273,-86.29877000
27.46582031,-89.00424000
27.49633789,-94.83627000
27.52685547,-96.37985000
27.55737305,-99.08135000
27.58789063,-93.95120000
27.61840820,-90.93636000
27.64892578,-91.32049000
27.67944336,-91.41263000
27.70996094,-86.82873000
27.74047852,-82.32909000
27.77099609,-79.37939000
27.80151367,-77.90260000
27.83203125,-78.03420000
27.86254883,-79.89917000
27.89306641,-82.75125000
27.92358398,-84.03230000
27.95410156,-82.93547000
27.98461914,-81.50990000
28.01513672,-80.90721000
28.04565430,-81.47767000
28.07617188,-83.56776000
28.10668945,-87.71878000
28.13720703,-95.38875000
28.16772461,-98.40134000
28.19824219,-91.93745000
28.22875977,-89.57138000
28.25927734,-90.36665000
28.28979492,-93.65799000
28.32031250,-98.71059000
28.35083008,-97.69901000
28.38134766,-90.10159000
28.41186523,-86.81119000
28.44238281,-85.76359000
28.47290039,-84.91733000
28.50341797,-83.42357000
28.53393555,-82.46749000
28.56445313,-83.44476000
28.59497070,-87.64984000
28.62548828,-101.41970000
28.65600586,-95.00966000
28.68652344,-90.99213000
28.71704102,-92.61479000
28.74755859,-97.59975000
28.77807617,-102.37520000
28.80859375,-97.09854000
28.83911133,-89.16844000
28.86962891,-84.56294000
28.90014648,-82.38072000
28.93066406,-81.69884000
28.96118164,-81.43253000
28.99169922,-81.32427000
29.02221680,-82.24997000
29.05273438,-84.72573000
29.08325195,-88.86852000
29.11376953,-98.30650000
29.14428711,-96.31466000
29.17480469,-89.83794000
29.20532227,-91.12347000
29.23583984,-103.31630000
29.26635742,-94.84199000
29.29687500,-93.83621000
29.32739258,-99.69506000
29.35791016,-92.01192000
29.38842773,-87.80381000
29.41894531,-85.89771000
29.44946289,-85.42350000
29.47998047,-86.98402000
29.51049805,-91.27698000
29.54101563,-95.55290000
29.57153320,-92.49551000
29.60205078,-90.09576000
29.63256836,-89.56398000
29.66308594,-89.18677000
29.69360352,-88.92162000
29.72412109,-92.07895000
29.75463867,-93.34098000
29.78515625,-88.20408000
29.81567383,-87.64359000
29.84619141,-87.95984000
29.87670898,-86.76685000
29.90722656,-87.04797000
29.93774414,-86.50285000
29.96826172,-83.69141000
29.99877930,-81.72391000
30.02929688,-81.32752000
30.05981445,-82.32652000
30.09033203,-83.93670000
30.12084961,-85.98228000
30.15136719,-89.55444000
30.18188477,-94.92532000
30.21240234,-97.44262000
30.24291992,-91.94588000
30.27343750,-87.15957000
30.30395508,-85.34011000
30.33447266,-86.41419000
30.36499023,-89.56947000
30.39550781,-89.73120000
30.42602539,-86.51651000
30.45654297,-84.89068000
30.48706055,-85.30292000
30.51757813,-87.24463000
30.54809570,-90.50973000
30.57861328,-96.08033000
30.60913086,-110.46670000
30.63964844,-97.56853000
30.67016602,-90.16772000
30.70068359,-85.74769000
30.73120117,-83.25787000
30.76171875,-82.41225000
30.79223633,-82.76692000
30.82275391,-83.97504000
30.85327148,-85.73965000
30.88378906,-86.76324000
30.91430664,-87.27660000
30.94482422,-88.35864000
30.97534180,-88.42059000
31.00585938,-87.83675000
31.03637695,-88.98048000
31.06689453,-92.40640000
31.09741211,-95.76369000
31.12792969,-95.63676000
31.15844727,-92.66122000
31.18896484,-88.58788000
31.21948242,-85.91015000
31.25000000,-85.40150000
31.28051758,-87.31011000
31.31103516,-92.08620000
31.34155273,-94.46249000
31.37207031,-89.02276000
31.40258789,-86.05284000
31.43310547,-84.66071000
31.46362305,-84.00882000
31.49414063,-84.17046000
31.52465820,-85.57708000
31.55517578,-87.04690000
31.58569336,-85.28105000
31.61621094,-83.50129000
31.64672852,-84.01673000
31.67724609,-86.71916000
31.70776367,-89.53149000
31.73828125,-90.59404000
31.76879883,-94.59917000
31.79931641,-99.70651000
31.82983398,-88.61416000
31.86035156,-84.02062000
31.89086914,-81.86950000
31.92138672,-81.62254000
31.95190430,-83.92922000
31.98242188,-91.24870000
32.01293945,-89.59148000
32.04345703,-84.55003000
32.07397461,-84.89316000
32.10449219,-89.97363000
32.13500977,-105.27680000
32.16552734,-95.94330000
32.19604492,-91.42574000
32.22656250,-88.61416000
32.25708008,-86.14356000
32.28759766,-85.12778000
32.31811523,-85.91885000
32.34863281,-86.17197000
32.37915039,-87.03770000
32.40966797,-90.88737000
32.44018555,-87.73342000
32.47070313,-85.50912000
32.50122070,-86.29834000
32.53173828,-86.63785000
32.56225586,-85.75511000
32.59277344,-85.41057000
32.62329102,-86.60010000
32.65380859,-89.83547000
32.68432617,-95.15618000
32.71484375,-99.38472000
32.74536133,-99.16782000
32.77587891,-96.29189000
32.80639648,-92.90829000
32.83691406,-91.11417000
32.86743164,-88.12213000
32.89794922,-85.65747000
32.92846680,-85.64279000
32.95898438,-88.04645000
32.98950195,-92.11204000
33.02001953,-96.89369000
33.05053711,-104.57680000
33.08105469,-100.99430000
33.11157227,-96.75002000
33.14208984,-100.27010000
33.17260742,-100.45590000
33.20312500,-97.04659000
33.23364258,-99.47668000
33.26416016,-98.26335000
33.29467773,-93.88399000
33.32519531,-94.04489000
33.35571289,-98.96384000
33.38623047,-92.67464000
33.41674805,-87.04800000
33.44726563,-86.01348000
33.47778320,-89.70601000
33.50830078,-89.83926000
33.53881836,-86.53069000
33.56933594,-87.99571000
33.59985352,-93.16201000
33.63037109,-104.47330000
33.66088867,-103.61660000
33.69140625,-101.98980000
33.72192383,-104.10390000
33.75244141,-98.00462000
33.78295898,-93.35463000
33.81347656,-95.12790000
33.84399414,-94.50444000
33.87451172,-88.04826000
33.90502930,-87.47277000
33.93554688,-90.37495000
33.96606445,-91.64099000
33.99658203,-88.57643000
34.02709961,-85.21288000
34.05761719,-83.95676000
34.08813477,-85.73744000
34.11865234,-92.91296000
34.14916992,-96.11481000
34.17968750,-88.46008000
34.21020508,-87.90245000
34.24072266,-92.55298000
34.27124023,-98.48095000
34.30175781,-91.32267000
34.33227539,-90.03474000
34.36279297,-91.84989000
34.39331055,-94.65160000
34.42382813,-95.73402000
34.45434570,-94.37031000
34.48486328,-93.63470000
34.51538086,-99.09099000
34.54589844,-96.53069000
34.57641602,-88.62326000
34.60693359,-87.73874000
34.63745117,-93.01819000
34.66796875,-104.67590000
34.69848633,-93.11786000
34.72900391,-96.37317000
34.75952148,-95.26260000
34.79003906,-87.14227000
34.82055664,-84.07243000
34.85107422,-83.80647000
34.88159180,-84.81434000
34.91210938,-84.23474000
34.94262695,-83.81531000
34.97314453,-84.92474000
35.00366211,-86.03731000
35.03417969,-86.23353000
35.06469727,-86.07871000
35.09521484,-86.04893000
35.12573242,-87.09190000
35.15625000,-90.44107000
35.18676758,-97.59190000
35.21728516,-109.09970000
35.24780273,-107.37740000
35.27832031,-97.54563000
35.30883789,-93.27026000
35.33935547,-88.49715000
35.36987305,-85.58167000
35.40039063,-84.66432000
35.43090820,-84.87072000
35.46142578,-85.72601000
35.49194336,-86.30120000
35.52246094,-87.12360000
35.55297852,-88.92445000
35.58349609,-89.21648000
35.61401367,-85.99939000
35.64453125,-83.56866000
35.67504883,-83.82779000
35.70556641,-87.12344000
35.73608398,-95.76252000
35.76660156,-97.47005000
35.79711914,-91.61575000
35.82763672,-90.66487000
35.85815430,-89.32446000
35.88867188,-87.50713000
35.91918945,-86.84028000
35.94970703,-87.56829000
35.98022461,-90.08477000
36.01074219,-92.07726000
36.04125977,-89.82101000
36.07177734,-87.68233000
36.10229492,-85.75691000
36.13281250,-83.45941000
36.16333008,-81.44548000
36.19384766,-81.38258000
36.22436523,-84.36539000
36.25488281,-90.37946000
36.28540039,-89.15848000
36.31591797,-84.27837000
36.34643555,-82.33217000
36.37695313,-83.74356000
36.40747070,-89.36459000
36.43798828,-103.08110000
36.46850586,-106.85970000
36.49902344,-104.42430000
36.52954102,-97.14847000
36.56005859,-90.93674000
36.59057617,-89.03510000
36.62109375,-87.68994000
36.65161133,-84.05153000
36.68212891,-81.08549000
36.71264648,-80.26563000
36.74316406,-82.10127000
36.77368164,-87.35959000
36.80419922,-97.29778000
36.83471680,-102.36990000
36.86523438,-95.27580000
36.89575195,-90.25542000
36.92626953,-88.20143000
36.95678711,-88.46547000
36.98730469,-91.49162000
37.01782227,-96.81270000
37.04833984,-94.82898000
37.07885742,-92.68696000
37.10937500,-92.11110000
37.13989258,-95.31395000
37.17041016,-103.76990000
37.20092773,-96.55667000
37.23144531,-97.93135000
37.26196289,-97.05033000
37.29248047,-94.25246000
37.32299805,-96.82571000
37.35351563,-101.06900000
37.38403320,-98.11717000
37.41455078,-95.12036000
37.44506836,-91.09733000
37.47558594,-87.92957000
37.50610352,-86.70390000
37.53662109,-87.55278000
37.56713867,-89.88633000
37.59765625,-92.19061000
37.62817383,-102.65900000
37.65869141,-88.11478000
37.68920898,-82.16159000
37.71972656,-81.67960000
37.75024414,-85.82825000
37.78076172,-94.28582000
37.81127930,-91.34714000
37.84179688,-89.06871000
37.87231445,-88.79039000
37.90283203,-92.32590000
37.93334961,-100.65740000
37.96386719,-88.93083000
37.99438477,-87.36412000
38.02490234,-91.98087000
38.05541992,-100.74030000
38.08593750,-92.22639000
38.11645508,-89.51065000
38.14697266,-88.36115000
38.17749023,-87.93487000
38.20800781,-89.43440000
38.23852539,-95.90004000
38.26904297,-93.85518000
38.29956055,-89.29978000
38.33007813,-94.86839000
38.36059570,-91.27113000
38.39111328,-82.13776000
38.42163086,-79.06896000
38.45214844,-78.56017000
38.48266602,-79.64933000
38.51318359,-81.70082000
38.54370117,-84.20071000
38.57421875,-86.71478000
38.60473633,-87.36256000
38.63525391,-87.94408000
38.66577148,-93.44649000
38.69628906,-90.58117000
38.72680664,-84.76411000
38.75732422,-83.49327000
38.78784180,-85.13100000
38.81835938,-90.28905000
38.84887695,-95.08629000
38.87939453,-90.01237000
38.90991211,-90.09010000
38.94042969,-92.73111000
38.97094727,-96.28320000
39.00146484,-93.24449000
39.03198242,-88.65109000
39.06250000,-88.54762000
39.09301758,-87.87896000
39.12353516,-86.53558000
39.15405273,-88.01556000
39.18457031,-88.92435000
39.21508789,-87.01961000
39.24560547,-86.88293000
39.27612305,-88.88877000
39.30664063,-91.52132000
39.33715820,-96.57189000
39.36767578,-101.61670000
39.39819336,-91.35779000
39.42871094,-92.40288000
39.45922852,-96.94333000
39.48974609,-88.36765000
39.52026367,-85.59463000
39.55078125,-85.95131000
39.58129883,-87.44900000
39.61181641,-88.34079000
39.64233398,-88.08234000
39.67285156,-88.04991000
39.70336914,-89.72722000
39.73388672,-91.50108000
39.76440430,-90.93629000
39.79492188,-90.72480000
39.82543945,-89.96741000
39.85595703,-88.23127000
39.88647461,-88.11159000
39.91699219,-91.19455000
39.94750977,-94.00712000
39.97802734,-93.27475000
40.00854492,-94.51583000
40.03906250,-91.80589000
40.06958008,-92.81198000
40.10009766,-107.49400000
40.13061523,-93.42284000
40.16113281,-89.84224000
40.19165039,-93.05133000
40.22216797,-95.34779000
40.25268555,-88.17267000
40.28320313,-86.29890000
40.31372070,-85.90897000
40.34423828,-85.67601000
40.37475586,-86.25831000
40.40527344,-87.52259000
40.43579102,-89.20027000
40.46630859,-90.53290000
40.49682617,-88.96699000
40.52734375,-87.15208000
40.55786133,-86.98209000
40.58837891,-88.54683000
40.61889648,-91.60933000
40.64941406,-90.45743000
40.67993164,-85.80721000
40.71044922,-83.30308000
40.74096680,-83.96878000
40.77148438,-87.54807000
40.80200195,-89.76922000
40.83251953,-90.83611000
40.86303711,-94.12243000
40.89355469,-94.68427000
40.92407227,-91.04285000
40.95458984,-89.56722000
40.98510742,-92.10840000
41.01562500,-91.81097000
41.04614258,-89.41441000
41.07666016,-91.07056000
41.10717773,-98.26814000
41.13769531,-97.12561000
41.16821289,-91.39172000
41.19873047,-89.15816000
41.22924805,-86.72439000
41.25976563,-84.62445000
41.29028320,-83.70383000
41.32080078,-84.69773000
41.35131836,-87.92850000
41.38183594,-90.21313000
41.41235352,-89.65865000
41.44287109,-90.19187000
41.47338867,-92.84157000
41.50390625,-99.44629000
41.53442383,-92.30588000
41.56494141,-87.15372000
41.59545898,-86.72560000
41.62597656,-91.57227000
41.65649414,-99.73544000
41.68701172,-87.83296000
41.71752930,-84.93302000
41.74804688,-86.08372000
41.77856445,-89.77672000
41.80908203,-90.29510000
41.83959961,-89.50063000
41.87011719,-90.43896000
41.90063477,-92.23982000
41.93115234,-95.97398000
41.96166992,-92.84038000
41.99218750,-88.93846000
42.02270508,-89.28074000
42.05322266,-89.78329000
42.08374023,-88.45046000
42.11425781,-88.46223000
42.14477539,-87.62674000
42.17529297,-85.48479000
42.20581055,-85.86729000
42.23632813,-93.32751000
42.26684570,-91.28747000
42.29736328,-84.67709000
42.32788086,-85.07124000
42.35839844,-88.46243000
42.38891602,-88.62145000
42.41943359,-87.52495000
42.44995117,-88.11353000
42.48046875,-91.00191000
42.51098633,-90.63673000
42.54150391,-86.67830000
42.57202148,-86.23186000
42.60253906,-90.48072000
42.63305664,-90.27170000
42.66357422,-84.97011000
42.69409180,-83.02393000
42.72460938,-83.16315000
42.75512695,-84.50098000
42.78564453,-84.74183000
42.81616211,-82.78640000
42.84667969,-81.26326000
42.87719727,-81.23569000
42.90771484,-83.11500000
42.93823242,-88.25115000
42.96875000,-112.56990000
42.99926758,-90.33967000
43.02978516,-85.68759000
43.06030273,-83.87893000
43.09082031,-83.38310000
43.12133789,-84.37708000
43.15185547,-87.05334000
43.18237305,-88.95913000
43.21289063,-87.89333000
43.24340820,-86.26179000
43.27392578,-85.40858000
43.30444336,-86.09763000
43.33496094,-86.94931000
43.36547852,-86.11683000
43.39599609,-85.21743000
43.42651367,-87.17973000
43.45703125,-89.77558000
43.48754883,-85.11883000
43.51806641,-82.92435000
43.54858398,-83.61890000
43.57910156,-87.03804000
43.60961914,-91.91489000
43.64013672,-89.62857000
43.67065430,-88.29021000
43.70117188,-91.31730000
43.73168945,-94.43341000
43.76220703,-87.63948000
43.79272461,-84.55789000
43.82324219,-84.99162000
43.85375977,-90.31750000
43.88427734,-98.06802000
43.91479492,-88.13707000
43.94531250,-87.13448000
43.97583008,-90.50816000
44.00634766,-93.97533000
44.03686523,-89.77212000
44.06738281,-87.77745000
44.09790039,-88.55084000
44.12841797,-91.53534000
44.15893555,-94.94829000
44.18945313,-89.50757000
44.21997070,-86.05523000
44.25048828,-85.10780000
44.28100586,-84.79987000
44.31152344,-85.25420000
44.34204102,-86.12168000
44.37255859,-86.21777000
44.40307617,-88.03511000
44.43359375,-94.65314000
44.46411133,-106.65970000
44.49462891,-94.88811000
44.52514648,-96.39335000
44.55566406,-98.43929000
44.58618164,-90.03262000
44.61669922,-86.12207000
44.64721680,-84.45977000
44.67773438,-84.65392000
44.70825195,-87.51037000
44.73876953,-92.53021000
44.76928711,-89.34838000
44.79980469,-85.92383000
44.83032227,-85.27573000
44.86083984,-87.90242000
44.89135742,-92.56781000
44.92187500,-90.82697000
44.95239258,-88.89896000
44.98291016,-87.31174000
45.01342773,-84.66417000
45.04394531,-82.50429000
45.07446289,-82.94964000
45.10498047,-87.45161000
45.13549805,-92.89191000
45.16601563,-87.62767000
45.19653320,-84.63616000
45.22705078,-83.33696000
45.25756836,-83.53301000
45.28808594,-85.18497000
45.31860352,-86.86990000
45.34912109,-86.32793000
45.37963867,-85.15416000
45.41015625,-85.44911000
45.44067383,-87.26745000
45.47119141,-89.19384000
45.50170898,-89.65450000
45.53222656,-85.70527000
45.56274414,-82.92609000
45.59326172,-83.80379000
45.62377930,-89.01643000
45.65429688,-90.60799000
45.68481445,-87.31558000
45.71533203,-88.45444000
45.74584961,-94.32027000
45.77636719,-92.34926000
45.80688477,-90.53876000
45.83740234,-96.41893000
45.86791992,-101.07650000
45.89843750,-90.97733000
45.92895508,-87.84669000
45.95947266,-85.95196000
45.98999023,-84.38539000
46.02050781,-83.18079000
46.05102539,-82.90939000
46.08154297,-84.66966000
46.11206055,-90.56275000
46.14257813,-113.50380000
46.17309570,-100.56260000
46.20361328,-91.00590000
46.23413086,-83.34579000
46.26464844,-80.72364000
46.29516602,-81.35596000
46.32568359,-84.65906000
46.35620117,-90.36057000
46.38671875,-90.05687000
46.41723633,-86.40161000
46.44775391,-85.31676000
46.47827148,-85.56662000
46.50878906,-85.42586000
46.53930664,-84.62634000
46.56982422,-84.36044000
46.60034180,-85.87061000
46.63085938,-91.09376000
46.66137695,-98.66093000
46.69189453,-89.76700000
46.72241211,-85.66870000
46.75292969,-84.23685000
46.78344727,-85.72822000
46.81396484,-90.35172000
46.84448242,-90.38065000
46.87500000,-86.95595000
46.90551758,-83.99110000
46.93603516,-82.27142000
46.96655273,-82.92003000
46.99707031,-85.52451000
47.02758789,-88.35876000
47.05810547,-90.75134000
47.08862305,-95.96524000
47.11914063,-88.78868000
47.14965820,-83.14643000
47.18017578,-82.40370000
47.21069336,-86.38564000
47.24121094,-103.31400000
47.27172852,-89.29659000
47.30224609,-84.13396000
47.33276367,-81.88774000
47.36328125,-81.73542000
47.39379883,-84.36547000
47.42431641,-92.05878000
47.45483398,-95.26448000
47.48535156,-89.55044000
47.51586914,-88.36130000
47.54638672,-87.36316000
47.57690430,-85.73689000
47.60742188,-84.58764000
47.63793945,-84.90849000
47.66845703,-87.36871000
47.69897461,-90.09034000
47.72949219,-87.27184000
47.76000977,-85.27773000
47.79052734,-86.64458000
47.82104492,-92.72314000
47.85156250,-112.69340000
47.88208008,-94.17462000
47.91259766,-91.24259000
47.94311523,-89.93901000
47.97363281,-87.66250000
48.00415039,-85.37426000
48.03466797,-85.85811000
48.06518555,-90.91245000
48.09570313,-86.13754000
48.12622070,-81.86820000
48.15673828,-81.69014000
48.18725586,-82.78428000
48.21777344,-82.54868000
48.24829102,-82.60230000
48.27880859,-82.47954000
48.30932617,-81.59079000
48.33984375,-81.34006000
48.37036133,-80.94102000
48.40087891,-80.34183000
48.43139648,-81.12193000
48.46191406,-84.16045000
48.49243164,-89.74005000
48.52294922,-94.17144000
48.55346680,-92.18677000
48.58398438,-88.68636000
48.61450195,-86.76825000
48.64501953,-88.30144000
48.67553711,-94.33966000
48.70605469,-96.66969000
48.73657227,-94.80075000
48.76708984,-95.63988000
48.79760742,-103.71610000
48.82812500,-94.56860000
48.85864258,-89.08413000
48.88916016,-90.51117000
48.91967773,-95.94344000
48.95019531,-90.98273000
48.98071289,-89.32209000
49.01123047,-89.51268000
49.04174805,-88.34167000
49.07226563,-85.89977000
49.10278320,-84.91077000
49.13330078,-86.10828000
49.16381836,-86.72942000
49.19433594,-86.69430000
49.22485352,-89.03068000
49.25537109,-92.30562000
49.28588867,-91.96104000
49.31640625,-93.10406000
49.34692383,-95.27757000
49.37744141,-95.51444000
49.40795898,-92.37288000
49.43847656,-87.34225000
49.46899414,-85.33581000
49.49951172,-86.26909000
49.53002930,-88.34920000
49.56054688,-88.36926000
49.59106445,-87.47963000
49.62158203,-89.22047000
49.65209961,-94.30159000
49.68261719,-97.89258000
49.71313477,-105.28550000
49.74365234,-96.52522000
49.77416992,-94.28463000
49.80468750,-92.15676000
49.83520508,-87.70126000
49.86572266,-85.66696000
49.89624023,-86.28857000
49.92675781,-88.77020000
49.95727539,-89.51264000
49.98779297,-87.08890000
50.01831055,-86.01714000
