Frequency,Channel A
(MHz),(dBu)

0.00000000,-11.49749000
0.03051758,-11.83548000
0.06103516,-16.91648000
0.09155273,-26.40299000
0.12207031,-42.75137000
0.15258789,-51.78768000
0.18310547,-55.27958000
0.21362305,-54.29167000
0.24414063,-58.05506000
0.27465820,-56.19374000
0.30517578,-56.58646000
0.33569336,-59.55254000
0.36621094,-58.80455000
0.39672852,-53.72454000
0.42724609,-53.53204000
0.45776367,-55.12420000
0.48828125,-49.96617000
0.51879883,-46.41323000
0.54931641,-47.43996000
0.57983398,-56.87637000
0.61035156,-44.48613000
0.64086914,-42.00189000
0.67138672,-46.34676000
0.70190430,-89.10641000
0.73242188,-52.59249000
0.76293945,-54.26109000
0.79345703,-60.10471000
0.82397461,-61.35225000
0.85449219,-60.51277000
0.88500977,-58.68702000
0.91552734,-58.55301000
0.94604492,-63.97211000
0.97656250,-71.04718000
1.00708008,-61.34258000
1.03759766,-61.67753000
1.06811523,-62.87395000
1.09863281,-56.69716000
1.12915039,-53.18156000
1.15966797,-52.64415000
1.19018555,-55.17370000
1.22070313,-61.91866000
1.25122070,-61.83415000
1.28173828,-58.28084000
1.31225586,-58.50869000
1.34277344,-60.71841000
1.37329102,-63.11837000
1.40380859,-63.11809000
1.43432617,-61.49021000
1.46484375,-61.37360000
1.49536133,-62.78831000
1.52587891,-62.99047000
1.55639648,-64.01540000
1.58691406,-64.61082000
1.61743164,-59.94129000
1.64794922,-58.40722000
1.67846680,-61.10098000
1.70898438,-62.98581000
1.73950195,-59.72736000
1.77001953,-60.18202000
1.80053711,-64.66692000
1.83105469,-66.82619000
1.86157227,-64.61226000
1.89208984,-63.43094000
1.92260742,-62.00476000
1.95312500,-61.35425000
1.98364258,-62.17867000
2.01416016,-64.07910000
2.04467773,-65.19595000
2.07519531,-64.06821000
2.10571289,-63.36849000
2.13623047,-64.11298000
2.16674805,-65.34457000
2.19726563,-64.98831000
2.22778320,-62.47601000
2.25830078,-61.87129000
2.28881836,-63.82246000
2.31933594,-60.67139000
2.34985352,-57.41992000
2.38037109,-57.71435000
2.41088867,-62.11087000
2.44140625,-79.68433000
2.47192383,-66.29120000
2.50244141,-62.60381000
2.53295898,-63.47191000
2.56347656,-66.99799000
2.59399414,-65.85563000
2.62451172,-62.44398000
2.65502930,-61.56813000
2.68554688,-62.08276000
2.71606445,-61.47915000
2.74658203,-60.46562000
2.77709961,-61.18015000
2.80761719,-63.82866000
2.83813477,-65.29857000
2.86865234,-64.10081000
2.89916992,-63.42487000
2.92968750,-62.79948000
2.96020508,-62.15185000
2.99072266,-62.42659000
3.02124023,-63.10572000
3.05175781,-62.92326000
3.08227539,-62.98269000
3.11279297,-63.62791000
3.14331055,-62.58434000
3.17382813,-61.65425000
3.20434570,-62.38678000
3.23486328,-61.65516000
3.26538086,-59.54551000
3.29589844,-58.84221000
3.32641602,-58.96687000
3.35693359,-58.95308000
3.38745117,-59.77522000
3.41796875,-61.70753000
3.44848633,-62.54906000
3.47900391,-63.88326000
3.50952148,-68.07945000
3.54003906,-64.57798000
3.57055664,-60.21722000
3.60107422,-58.80333000
3.63159180,-59.35276000
3.66210938,-59.78977000
3.69262695,-58.58814000
3.72314453,-58.34180000
3.75366211,-58.94394000
3.78417969,-58.52524000
3.81469727,-58.80287000
3.84521484,-59.72450000
3.87573242,-58.23481000
3.90625000,-56.80370000
3.93676758,-56.63745000
3.96728516,-56.81813000
3.99780273,-57.15980000
4.02832031,-57.25677000
4.05883789,-56.76317000
4.08935547,-56.62172000
4.11987305,-57.14133000
4.15039063,-57.18243000
4.18090820,-56.06367000
4.21142578,-55.24031000
4.24194336,-55.19542000
4.27246094,-55.14721000
4.30297852,-55.26518000
4.33349609,-56.19623000
4.36401367,-57.05389000
4.39453125,-56.79609000
4.42504883,-56.41842000
4.45556641,-56.61619000
4.48608398,-57.50419000
4.51660156,-59.19107000
4.54711914,-61.04916000
4.57763672,-61.07629000
4.60815430,-59.89352000
4.63867188,-59.37001000
4.66918945,-59.10280000
4.69970703,-58.68472000
4.73022461,-59.42068000
4.76074219,-62.47577000
4.79125977,-66.00902000
4.82177734,-63.47833000
4.85229492,-61.15986000
4.88281250,-60.85034000
4.91333008,-61.79888000
4.94384766,-62.48459000
4.97436523,-61.68011000
5.00488281,-60.61818000
5.03540039,-60.47111000
5.06591797,-60.87641000
5.09643555,-60.92728000
5.12695313,-60.91943000
5.15747070,-61.29338000
5.18798828,-61.77284000
5.21850586,-61.95662000
5.24902344,-61.70147000
5.27954102,-61.82161000
5.31005859,-62.50081000
5.34057617,-62.76012000
5.37109375,-63.09126000
5.40161133,-64.10851000
5.43212891,-64.63920000
5.46264648,-65.05273000
5.49316406,-65.94615000
5.52368164,-66.20414000
5.55419922,-66.17650000
5.58471680,-66.26654000
5.61523438,-65.86057000
5.64575195,-64.71664000
5.67626953,-63.24131000
5.70678711,-61.82833000
5.73730469,-60.52017000
5.76782227,-58.78074000
5.79833984,-57.06627000
5.82885742,-56.34245000
5.85937500,-56.34022000
5.88989258,-56.21791000
5.92041016,-56.01476000
5.95092773,-56.06701000
5.98144531,-56.37211000
6.01196289,-56.40093000
6.04248047,-55.78025000
6.07299805,-55.60400000
6.10351563,-56.53625000
6.13403320,-57.64376000
6.16455078,-57.71466000
6.19506836,-57.14122000
6.22558594,-56.77791000
6.25610352,-57.06286000
6.28662109,-57.80153000
6.31713867,-58.51795000
6.34765625,-59.16649000
6.37817383,-59.86306000
6.40869141,-60.47376000
6.43920898,-60.97316000
6.46972656,-61.83207000
6.50024414,-62.98155000
6.53076172,-63.55207000
6.56127930,-64.02831000
6.59179688,-64.96895000
6.62231445,-65.97805000
6.65283203,-67.21717000
6.68334961,-67.99653000
6.71386719,-68.64465000
6.74438477,-71.07964000
6.77490234,-75.27715000
6.80541992,-77.11935000
6.83593750,-80.90390000
6.86645508,-84.17227000
6.89697266,-77.74673000
6.92749023,-74.99823000
6.95800781,-73.32452000
6.98852539,-72.97395000
7.01904297,-73.28169000
7.04956055,-73.19067000
7.08007813,-73.66952000
7.11059570,-77.18764000
7.14111328,-95.86705000
7.17163086,-79.67454000
7.20214844,-75.68081000
7.23266602,-75.73306000
7.26318359,-77.51727000
7.29370117,-80.96075000
7.32421875,-83.50549000
7.35473633,-85.51866000
7.38525391,-95.10472000
7.41577148,-80.89833000
7.44628906,-79.90694000
7.47680664,-82.77324000
7.50732422,-80.87549000
7.53784180,-79.68005000
7.56835938,-80.11707000
7.59887695,-82.72427000
7.62939453,-93.86524000
7.65991211,-86.37372000
7.69042969,-82.51390000
7.72094727,-81.51054000
7.75146484,-81.31377000
7.78198242,-85.16541000
7.81250000,-92.55772000
7.84301758,-89.36758000
7.87353516,-81.77311000
7.90405273,-74.27430000
7.93457031,-70.89166000
7.96508789,-70.74651000
7.99560547,-72.68855000
8.02612305,-74.86066000
8.05664063,-75.84925000
8.08715820,-76.01854000
8.11767578,-75.00298000
8.14819336,-73.41498000
8.17871094,-73.05661000
8.20922852,-73.31535000
8.23974609,-72.16877000
8.27026367,-70.86031000
8.30078125,-71.04592000
8.33129883,-73.24954000
8.36181641,-75.95872000
8.39233398,-74.65074000
8.42285156,-73.07655000
8.45336914,-72.74979000
8.48388672,-73.78540000
8.51440430,-76.41684000
8.54492188,-75.65621000
8.57543945,-73.65914000
8.60595703,-74.16194000
8.63647461,-75.83134000
8.66699219,-76.13998000
8.69750977,-76.32178000
8.72802734,-77.21213000
8.75854492,-77.91131000
8.78906250,-79.70460000
8.81958008,-85.75929000
8.85009766,-98.13644000
8.88061523,-84.39699000
8.91113281,-81.59935000
8.94165039,-79.81095000
8.97216797,-78.49294000
9.00268555,-78.30459000
9.03320313,-78.44506000
9.06372070,-78.71637000
9.09423828,-79.78477000
9.12475586,-81.46216000
9.15527344,-82.02455000
9.18579102,-81.48380000
9.21630859,-81.64006000
9.24682617,-81.27423000
9.27734375,-79.64584000
9.30786133,-78.17493000
9.33837891,-78.41396000
9.36889648,-81.99965000
9.39941406,-85.92146000
9.42993164,-88.64832000
9.46044922,-111.59630000
9.49096680,-87.92050000
9.52148438,-85.46439000
9.55200195,-84.63042000
9.58251953,-84.33374000
9.61303711,-90.26978000
9.64355469,-86.91885000
9.67407227,-79.23959000
9.70458984,-77.08604000
9.73510742,-77.34994000
9.76562500,-78.57965000
9.79614258,-80.42397000
9.82666016,-82.31644000
9.85717773,-82.91077000
9.88769531,-82.56020000
9.91821289,-82.21124000
9.94873047,-81.69509000
9.97924805,-80.44353000
10.00976563,-78.81737000
10.04028320,-76.83466000
10.07080078,-75.14222000
10.10131836,-74.87861000
10.13183594,-76.16518000
10.16235352,-77.47231000
10.19287109,-77.66496000
10.22338867,-78.14444000
10.25390625,-78.98923000
10.28442383,-81.24025000
10.31494141,-89.86501000
10.34545898,-84.30474000
10.37597656,-78.47231000
10.40649414,-75.40179000
10.43701172,-73.37958000
10.46752930,-72.93414000
10.49804688,-75.27034000
10.52856445,-83.21682000
10.55908203,-78.63284000
10.58959961,-74.81556000
10.62011719,-76.97189000
10.65063477,-82.63879000
10.68115234,-77.59186000
10.71166992,-75.79536000
10.74218750,-78.08800000
10.77270508,-80.13501000
10.80322266,-75.24913000
10.83374023,-72.75883000
10.86425781,-73.91776000
10.89477539,-81.59203000
10.92529297,-80.94958000
10.95581055,-72.64941000
10.98632813,-70.52985000
11.01684570,-71.80263000
11.04736328,-76.82639000
11.07788086,-87.72798000
11.10839844,-87.32231000
11.13891602,-85.08560000
11.16943359,-83.39061000
11.19995117,-79.00895000
11.23046875,-75.26235000
11.26098633,-74.02171000
11.29150391,-75.10252000
11.32202148,-77.21066000
11.35253906,-77.26469000
11.38305664,-75.45357000
11.41357422,-75.15003000
11.44409180,-76.18660000
11.47460938,-77.06525000
11.50512695,-76.61529000
11.53564453,-76.23965000
11.56616211,-77.03035000
11.59667969,-77.33235000
11.62719727,-76.79755000
11.65771484,-76.90395000
11.68823242,-77.64959000
11.71875000,-78.43281000
11.74926758,-81.75487000
11.77978516,-88.23655000
11.81030273,-75.86508000
11.84082031,-72.29678000
11.87133789,-72.25795000
11.90185547,-74.92383000
11.93237305,-78.53272000
11.96289063,-74.77234000
11.99340820,-72.70355000
12.02392578,-75.88981000
12.05444336,-83.14892000
12.08496094,-73.62075000
12.11547852,-71.20510000
12.14599609,-72.81249000
12.17651367,-78.42093000
12.20703125,-95.15602000
12.23754883,-83.16280000
12.26806641,-81.65961000
12.29858398,-81.48057000
12.32910156,-76.04905000
12.35961914,-72.76486000
12.39013672,-71.07612000
12.42065430,-70.48651000
12.45117188,-71.88476000
12.48168945,-76.47505000
12.51220703,-86.58950000
12.54272461,-88.51947000
12.57324219,-88.58983000
12.60375977,-88.67934000
12.63427734,-79.73763000
12.66479492,-74.77110000
12.69531250,-72.62424000
12.72583008,-72.64555000
12.75634766,-73.93144000
12.78686523,-75.25558000
12.81738281,-76.15997000
12.84790039,-77.24251000
12.87841797,-78.35120000
12.90893555,-80.25285000
12.93945313,-86.40756000
12.96997070,-105.41130000
13.00048828,-90.57158000
13.03100586,-89.12403000
13.06152344,-89.36275000
13.09204102,-89.74889000
13.12255859,-83.42258000
13.15307617,-80.36565000
13.18359375,-82.06174000
13.21411133,-87.55477000
13.24462891,-86.03020000
13.27514648,-86.22824000
13.30566406,-83.41618000
13.33618164,-78.55280000
13.36669922,-77.26418000
13.39721680,-79.35670000
13.42773438,-84.70483000
13.45825195,-83.23307000
13.48876953,-72.32423000
13.51928711,-66.11967000
13.54980469,-63.58118000
13.58032227,-64.59126000
13.61083984,-70.12259000
13.64135742,-88.88924000
13.67187500,-79.15565000
13.70239258,-78.65958000
13.73291016,-76.67069000
13.76342773,-74.23502000
13.79394531,-74.83359000
13.82446289,-74.82980000
13.85498047,-72.84932000
13.88549805,-73.22888000
13.91601563,-76.78910000
13.94653320,-81.78636000
13.97705078,-82.69347000
14.00756836,-81.35806000
14.03808594,-80.77359000
14.06860352,-82.51352000
14.09912109,-88.60123000
14.12963867,-90.40273000
14.16015625,-83.34366000
14.19067383,-81.16837000
14.22119141,-81.94088000
14.25170898,-83.09882000
14.28222656,-81.75187000
14.31274414,-81.11821000
14.34326172,-80.87627000
14.37377930,-79.59367000
14.40429688,-79.74612000
14.43481445,-81.82095000
14.46533203,-84.81497000
14.49584961,-88.98388000
14.52636719,-80.81055000
14.55688477,-77.52516000
14.58740234,-78.62998000
14.61791992,-82.11665000
14.64843750,-81.98096000
14.67895508,-79.98179000
14.70947266,-78.73831000
14.73999023,-79.52039000
14.77050781,-84.16001000
14.80102539,-87.71414000
14.83154297,-85.91064000
14.86206055,-89.45831000
14.89257813,-91.36646000
14.92309570,-86.14705000
14.95361328,-82.09530000
14.98413086,-79.93680000
15.01464844,-80.24286000
15.04516602,-82.79451000
15.07568359,-84.75913000
15.10620117,-84.18931000
15.13671875,-83.48434000
15.16723633,-82.84370000
15.19775391,-80.27737000
15.22827148,-77.63477000
15.25878906,-77.27528000
15.28930664,-79.56541000
15.31982422,-84.31201000
15.35034180,-89.36596000
15.38085938,-89.53370000
15.41137695,-86.96277000
15.44189453,-84.76259000
15.47241211,-85.87373000
15.50292969,-91.11205000
15.53344727,-94.08710000
15.56396484,-90.22475000
15.59448242,-89.94202000
15.62500000,-96.37664000
15.65551758,-86.59091000
15.68603516,-83.43227000
15.71655273,-84.47212000
15.74707031,-86.03365000
15.77758789,-86.48080000
15.80810547,-88.17863000
15.83862305,-88.94250000
15.86914063,-93.01353000
15.89965820,-94.50856000
15.93017578,-87.33918000
15.96069336,-91.16690000
15.99121094,-90.27485000
16.02172852,-80.79929000
16.05224609,-78.52843000
16.08276367,-79.62256000
16.11328125,-83.50136000
16.14379883,-91.75179000
16.17431641,-94.64458000
16.20483398,-91.98868000
16.23535156,-95.99886000
16.26586914,-90.38658000
16.29638672,-88.72776000
16.32690430,-95.45844000
16.35742188,-96.82633000
16.38793945,-93.91484000
16.41845703,-101.95320000
16.44897461,-95.63221000
16.47949219,-90.11119000
16.51000977,-85.63953000
16.54052734,-82.23446000
16.57104492,-81.19443000
16.60156250,-82.58708000
16.63208008,-85.27958000
16.66259766,-87.52662000
16.69311523,-88.59410000
16.72363281,-87.88642000
16.75415039,-88.01360000
16.78466797,-89.46545000
16.81518555,-87.73645000
16.84570313,-85.59689000
16.87622070,-84.94292000
16.90673828,-86.73816000
16.93725586,-94.23766000
16.96777344,-90.42098000
16.99829102,-84.72366000
17.02880859,-82.01871000
17.05932617,-81.01241000
17.08984375,-81.38437000
17.12036133,-82.63493000
17.15087891,-84.63734000
17.18139648,-86.74190000
17.21191406,-86.97879000
17.24243164,-85.69235000
17.27294922,-85.57329000
17.30346680,-87.92588000
17.33398438,-91.16181000
17.36450195,-90.79375000
17.39501953,-88.28330000
17.42553711,-85.67997000
17.45605469,-84.83369000
17.48657227,-86.23025000
17.51708984,-89.94005000
17.54760742,-95.93551000
17.57812500,-96.86856000
17.60864258,-95.05387000
17.63916016,-87.55542000
17.66967773,-74.45332000
17.70019531,-68.44957000
17.73071289,-66.91026000
17.76123047,-69.16534000
17.79174805,-70.43222000
17.82226563,-69.02432000
17.85278320,-71.41847000
17.88330078,-79.98923000
17.91381836,-91.29787000
17.94433594,-83.47126000
17.97485352,-83.33987000
18.00537109,-84.04861000
18.03588867,-85.22923000
18.06640625,-90.04041000
18.09692383,-98.91711000
18.12744141,-104.55060000
18.15795898,-97.35802000
18.18847656,-90.00145000
18.21899414,-88.64459000
18.24951172,-88.15449000
18.28002930,-86.09087000
18.31054688,-84.94673000
18.34106445,-87.86786000
18.37158203,-90.79293000
18.40209961,-86.16973000
18.43261719,-85.72719000
18.46313477,-85.14497000
18.49365234,-82.85577000
18.52416992,-81.46786000
18.55468750,-81.13510000
18.58520508,-82.01387000
18.61572266,-84.24174000
18.64624023,-86.03355000
18.67675781,-87.15562000
18.70727539,-91.19218000
18.73779297,-96.75301000
18.76831055,-93.33131000
18.79882813,-91.40814000
18.82934570,-92.07088000
18.85986328,-95.77769000
18.89038086,-97.12460000
18.92089844,-98.52628000
18.95141602,-94.15615000
18.98193359,-87.46098000
19.01245117,-85.62562000
19.04296875,-86.33102000
19.07348633,-88.76037000
19.10400391,-96.07307000
19.13452148,-102.29400000
19.16503906,-91.29872000
19.19555664,-86.93509000
19.22607422,-84.50184000
19.25659180,-83.71628000
19.28710938,-84.65636000
19.31762695,-85.81223000
19.34814453,-84.56216000
19.37866211,-83.78661000
19.40917969,-85.25291000
19.43969727,-88.14528000
19.47021484,-89.58495000
19.50073242,-91.53537000
19.53125000,-96.13486000
19.56176758,-99.18259000
19.59228516,-96.71550000
19.62280273,-92.57163000
19.65332031,-88.09204000
19.68383789,-86.03291000
19.71435547,-87.12941000
19.74487305,-90.38689000
19.77539063,-92.14197000
19.80590820,-89.45799000
19.83642578,-84.50965000
19.86694336,-80.98520000
19.89746094,-79.70492000
19.92797852,-80.30504000
19.95849609,-82.07385000
19.98901367,-84.46761000
20.01953125,-86.57279000
20.05004883,-86.66557000
20.08056641,-86.37450000
20.11108398,-86.95397000
20.14160156,-89.17954000
20.17211914,-94.32069000
20.20263672,-91.65651000
20.23315430,-88.05625000
20.26367188,-87.45980000
20.29418945,-87.87189000
20.32470703,-88.25486000
20.35522461,-89.33209000
20.38574219,-92.46696000
20.41625977,-90.17471000
20.44677734,-84.46690000
20.47729492,-82.56569000
20.50781250,-84.13039000
20.53833008,-89.55166000
20.56884766,-104.28990000
20.59936523,-92.75470000
20.62988281,-87.36769000
20.66040039,-85.05411000
20.69091797,-84.34867000
20.72143555,-83.66946000
20.75195313,-81.17888000
20.78247070,-79.36245000
20.81298828,-79.60328000
20.84350586,-81.40871000
20.87402344,-83.56900000
20.90454102,-85.48745000
20.93505859,-85.78507000
20.96557617,-86.44054000
20.99609375,-89.30013000
21.02661133,-84.43353000
21.05712891,-81.23257000
21.08764648,-81.71043000
21.11816406,-85.42326000
21.14868164,-91.69818000
21.17919922,-95.37740000
21.20971680,-102.64830000
21.24023438,-90.06093000
21.27075195,-86.43271000
21.30126953,-87.26846000
21.33178711,-89.78670000
21.36230469,-90.80675000
21.39282227,-90.69971000
21.42333984,-92.30243000
21.45385742,-93.92837000
21.48437500,-88.45746000
21.51489258,-85.66204000
21.54541016,-85.48176000
21.57592773,-86.28073000
21.60644531,-87.50429000
21.63696289,-90.03058000
21.66748047,-91.31165000
21.69799805,-87.70778000
21.72851563,-85.27182000
21.75903320,-85.40328000
21.78955078,-87.32541000
21.82006836,-84.56503000
21.85058594,-81.11119000
21.88110352,-79.94897000
21.91162109,-80.41900000
21.94213867,-81.71663000
21.97265625,-82.85188000
22.00317383,-83.30771000
22.03369141,-84.06899000
22.06420898,-86.56633000
22.09472656,-92.30327000
22.12524414,-102.52370000
22.15576172,-98.72363000
22.18627930,-100.54840000
22.21679688,-99.24304000
22.24731445,-97.56940000
22.27783203,-101.07420000
22.30834961,-92.79115000
22.33886719,-89.41452000
22.36938477,-87.77442000
22.39990234,-87.91702000
22.43041992,-93.41153000
22.46093750,-95.67464000
22.49145508,-84.43447000
22.52197266,-80.71915000
22.55249023,-80.23691000
22.58300781,-82.31732000
22.61352539,-87.77641000
22.64404297,-106.21580000
22.67456055,-90.52231000
22.70507813,-87.55473000
22.73559570,-89.60335000
22.76611328,-91.58113000
22.79663086,-88.29617000
22.82714844,-88.41112000
22.85766602,-87.83347000
22.88818359,-84.59921000
22.91870117,-83.40627000
22.94921875,-83.54546000
22.97973633,-84.10480000
23.01025391,-85.37096000
23.04077148,-86.39886000
23.07128906,-86.12537000
23.10180664,-87.61693000
23.13232422,-93.03783000
23.16284180,-90.62753000
23.19335938,-85.79201000
23.22387695,-84.23682000
23.25439453,-85.03476000
23.28491211,-87.04639000
23.31542969,-89.08089000
23.34594727,-90.40962000
23.37646484,-91.31129000
23.40698242,-93.43965000
23.43750000,-91.44706000
23.46801758,-91.22054000
23.49853516,-95.26122000
23.52905273,-95.54790000
23.55957031,-91.20779000
23.59008789,-89.23913000
23.62060547,-87.79980000
23.65112305,-85.56281000
23.68164063,-85.51483000
23.71215820,-89.44465000
23.74267578,-97.62702000
23.77319336,-100.54210000
23.80371094,-96.09062000
23.83422852,-90.44051000
23.86474609,-90.43728000
23.89526367,-96.24831000
23.92578125,-95.27676000
23.95629883,-88.93506000
23.98681641,-86.51528000
24.01733398,-86.72435000
24.04785156,-88.97187000
24.07836914,-91.39980000
24.10888672,-92.13234000
24.13940430,-94.53796000
24.16992188,-98.81335000
24.20043945,-89.35250000
24.23095703,-84.84036000
24.26147461,-83.61282000
24.29199219,-84.51809000
24.32250977,-86.62408000
24.35302734,-88.43815000
24.38354492,-88.94560000
24.41406250,-88.97279000
24.44458008,-91.00539000
24.47509766,-98.45567000
24.50561523,-90.70866000
24.53613281,-86.68318000
24.56665039,-87.15919000
24.59716797,-90.84589000
24.62768555,-95.79036000
24.65820313,-96.02288000
24.68872070,-91.94930000
24.71923828,-89.81238000
24.74975586,-90.92117000
24.78027344,-92.52567000
24.81079102,-90.05988000
24.84130859,-88.62838000
24.87182617,-89.30083000
24.90234375,-89.28832000
24.93286133,-90.17282000
24.96337891,-92.53136000
24.99389648,-87.38374000
25.02441406,-85.07990000
25.05493164,-86.25858000
25.08544922,-89.87415000
25.11596680,-91.80485000
25.14648438,-88.26846000
25.17700195,-85.26785000
25.20751953,-83.97015000
25.23803711,-84.66302000
25.26855469,-88.42004000
25.29907227,-94.99123000
25.32958984,-90.91935000
25.36010742,-90.07628000
25.39062500,-93.00256000
25.42114258,-96.76717000
25.45166016,-96.82166000
25.48217773,-96.98650000
25.51269531,-93.62894000
25.54321289,-89.68837000
25.57373047,-90.59876000
25.60424805,-97.33872000
25.63476563,-100.42050000
25.66528320,-93.32835000
25.69580078,-90.55534000
25.72631836,-91.26758000
25.75683594,-89.27189000
25.78735352,-87.72028000
25.81787109,-91.80663000
25.84838867,-97.93209000
25.87890625,-87.67693000
25.90942383,-84.54320000
25.93994141,-84.01986000
25.97045898,-85.23993000
26.00097656,-88.86710000
26.03149414,-99.01369000
26.06201172,-95.76206000
26.09252930,-91.69250000
26.12304688,-92.79290000
26.15356445,-95.96191000
26.18408203,-96.54778000
26.21459961,-92.86846000
26.24511719,-90.66222000
26.27563477,-91.74094000
26.30615234,-96.90841000
26.33666992,-90.02816000
26.36718750,-85.38443000
26.39770508,-84.86574000
26.42822266,-88.24400000
26.45874023,-102.83890000
26.48925781,-90.94080000
26.51977539,-84.44264000
26.55029297,-82.42186000
26.58081055,-82.76375000
26.61132813,-83.32817000
26.64184570,-82.82772000
26.67236328,-82.46215000
26.70288086,-83.09653000
26.73339844,-84.45901000
26.76391602,-85.47174000
26.79443359,-86.07101000
26.82495117,-87.71760000
26.85546875,-92.04417000
26.88598633,-97.18651000
26.91650391,-97.80711000
26.94702148,-95.20123000
26.97753906,-95.77450000
27.00805664,-98.56499000
27.03857422,-100.00430000
27.06909180,-99.05672000
27.09960938,-100.37030000
27.13012695,-98.67966000
27.16064453,-98.78032000
27.19116211,-104.84480000
27.22167969,-96.74279000
27.25219727,-92.53651000
27.28271484,-88.46507000
27.31323242,-86.66579000
27.34375000,-86.69292000
27.37426758,-88.34232000
27.40478516,-91.04241000
27.43530273,-83.95298000
27.46582031,-80.41055000
27.49633789,-81.08013000
27.52685547,-86.94279000
27.55737305,-98.93234000
27.58789063,-86.31934000
27.61840820,-85.45882000
27.64892578,-86.36536000
27.67944336,-85.13269000
27.70996094,-85.41342000
27.74047852,-89.48367000
27.77099609,-96.45175000
27.80151367,-91.47171000
27.83203125,-89.48807000
27.86254883,-88.78799000
27.89306641,-88.71185000
27.92358398,-89.58661000
27.95410156,-88.36227000
27.98461914,-86.49513000
28.01513672,-87.21541000
28.04565430,-91.56518000
28.07617188,-102.42870000
28.10668945,-100.86570000
28.13720703,-92.74697000
28.16772461,-88.19656000
28.19824219,-85.05818000
28.22875977,-83.32816000
28.25927734,-82.92834000
28.28979492,-83.69759000
28.32031250,-85.91313000
28.35083008,-87.91701000
28.38134766,-87.95203000
28.41186523,-91.62475000
28.44238281,-107.52170000
28.47290039,-92.57637000
28.50341797,-91.58511000
28.53393555,-100.77470000
28.56445313,-93.28414000
28.59497070,-86.04133000
28.62548828,-84.01750000
28.65600586,-84.66867000
28.68652344,-88.22196000
28.71704102,-101.27720000
28.74755859,-91.13411000
28.77807617,-85.78683000
28.80859375,-85.23677000
28.83911133,-87.96342000
28.86962891,-91.28220000
28.90014648,-91.11373000
28.93066406,-92.42832000
28.96118164,-91.81184000
28.99169922,-89.71429000
29.02221680,-90.37187000
29.05273438,-96.77982000
29.08325195,-94.82514000
29.11376953,-84.93092000
29.14428711,-81.67609000
29.17480469,-81.33800000
29.20532227,-82.94090000
29.23583984,-86.53198000
29.26635742,-93.34924000
29.29687500,-103.40140000
29.32739258,-106.45020000
29.35791016,-91.73177000
29.38842773,-86.87931000
29.41894531,-85.40409000
29.44946289,-85.80665000
29.47998047,-87.60009000
29.51049805,-90.34584000
29.54101563,-91.36802000
29.57153320,-88.24629000
29.60205078,-85.41064000
29.63256836,-84.63616000
29.66308594,-85.86316000
29.69360352,-88.12567000
29.72412109,-89.32044000
29.75463867,-89.36546000
29.78515625,-91.66994000
29.81567383,-101.24700000
29.84619141,-90.04431000
29.87670898,-85.47446000
29.90722656,-84.76363000
29.93774414,-86.71359000
29.96826172,-89.71272000
29.99877930,-88.13659000
30.02929688,-86.32118000
30.05981445,-85.81043000
30.09033203,-84.96181000
30.12084961,-85.34646000
30.15136719,-88.82118000
30.18188477,-96.45950000
30.21240234,-96.61392000
30.24291992,-93.77845000
30.27343750,-98.12593000
30.30395508,-95.87811000
30.33447266,-87.49400000
30.36499023,-83.17890000
30.39550781,-80.69676000
30.42602539,-79.85954000
30.45654297,-80.49775000
30.48706055,-82.07706000
30.51757813,-83.74878000
30.54809570,-85.17142000
30.57861328,-87.07920000
30.60913086,-89.81388000
30.63964844,-90.80009000
30.67016602,-88.32773000
30.70068359,-86.33372000
30.73120117,-86.43501000
30.76171875,-89.16427000
30.79223633,-93.14101000
30.82275391,-91.70490000
30.85327148,-88.19774000
30.88378906,-84.98180000
30.91430664,-83.56094000
30.94482422,-84.41331000
30.97534180,-86.74568000
31.00585938,-88.91486000
31.03637695,-90.07507000
31.06689453,-90.94170000
31.09741211,-91.48415000
31.12792969,-90.33347000
31.15844727,-88.95845000
31.18896484,-88.74133000
31.21948242,-89.06707000
31.25000000,-88.10616000
31.28051758,-86.70615000
31.31103516,-86.04504000
31.34155273,-86.27747000
31.37207031,-87.95716000
31.40258789,-89.60217000
31.43310547,-87.19724000
31.46362305,-85.22343000
31.49414063,-85.00263000
31.52465820,-85.17239000
31.55517578,-85.36916000
31.58569336,-85.78499000
31.61621094,-85.56374000
31.64672852,-84.99591000
31.67724609,-84.57565000
31.70776367,-85.32109000
31.73828125,-88.95766000
31.76879883,-99.81866000
31.79931641,-97.03620000
31.82983398,-88.53371000
31.86035156,-84.48165000
31.89086914,-82.33705000
31.92138672,-81.87508000
31.95190430,-83.28477000
31.98242188,-86.80563000
32.01293945,-93.50887000
32.04345703,-99.38172000
32.07397461,-92.43456000
32.10449219,-87.96562000
32.13500977,-86.81828000
32.16552734,-88.86237000
32.19604492,-92.19156000
32.22656250,-92.90221000
32.25708008,-91.64494000
32.28759766,-91.58051000
32.31811523,-91.56821000
32.34863281,-88.88138000
32.37915039,-85.30461000
32.40966797,-83.39897000
32.44018555,-84.96041000
32.47070313,-92.52275000
32.50122070,-89.04545000
32.53173828,-84.09092000
32.56225586,-82.13398000
32.59277344,-81.49361000
32.62329102,-82.59872000
32.65380859,-86.18699000
32.68432617,-90.14976000
32.71484375,-89.47098000
32.74536133,-89.21548000
32.77587891,-89.63772000
32.80639648,-90.84959000
32.83691406,-91.47200000
32.86743164,-89.14795000
32.89794922,-89.57227000
32.92846680,-98.55820000
32.95898438,-95.49681000
32.98950195,-88.70171000
33.02001953,-86.70726000
33.05053711,-86.42025000
33.08105469,-88.29250000
33.11157227,-94.95422000
33.14208984,-88.67756000
33.17260742,-82.61240000
33.20312500,-81.72092000
33.23364258,-85.34489000
33.26416016,-90.32052000
33.29467773,-88.19650000
33.32519531,-87.57539000
33.35571289,-86.47114000
33.38623047,-85.58320000
33.41674805,-85.26627000
33.44726563,-84.86281000
33.47778320,-84.97278000
33.50830078,-86.21542000
33.53881836,-88.13777000
33.56933594,-89.36794000
33.59985352,-89.93781000
33.63037109,-90.36324000
33.66088867,-89.84863000
33.69140625,-89.60098000
33.72192383,-91.52032000
33.75244141,-95.17284000
33.78295898,-91.42532000
33.81347656,-88.26051000
33.84399414,-88.28721000
33.87451172,-89.02388000
33.90502930,-87.39363000
33.93554688,-85.21388000
33.96606445,-83.72551000
33.99658203,-83.10536000
34.02709961,-84.12083000
34.05761719,-88.54682000
34.08813477,-95.84215000
34.11865234,-88.81311000
34.14916992,-85.72376000
34.17968750,-84.24346000
34.21020508,-83.27813000
34.24072266,-82.99287000
34.27124023,-83.72906000
34.30175781,-85.85201000
34.33227539,-90.27912000
34.36279297,-98.40059000
34.39331055,-95.15593000
34.42382813,-93.69029000
34.45434570,-101.04060000
34.48486328,-100.28230000
34.51538086,-94.19239000
34.54589844,-95.57063000
34.57641602,-98.43227000
34.60693359,-94.09089000
34.63745117,-89.83822000
34.66796875,-88.83020000
34.69848633,-90.94041000
34.72900391,-95.69464000
34.75952148,-101.04890000
34.79003906,-101.48690000
34.82055664,-105.48740000
34.85107422,-97.26399000
34.88159180,-90.17437000
34.91210938,-87.10826000
34.94262695,-84.76470000
34.97314453,-83.74213000
35.00366211,-85.73837000
35.03417969,-93.36365000
35.06469727,-98.41212000
35.09521484,-88.94164000
35.12573242,-86.49747000
35.15625000,-86.24973000
35.18676758,-85.69826000
35.21728516,-83.39032000
35.24780273,-82.11076000
35.27832031,-84.10007000
35.30883789,-93.58925000
35.33935547,-92.53121000
35.36987305,-87.76093000
35.40039063,-91.01369000
35.43090820,-92.32586000
35.46142578,-87.70555000
35.49194336,-86.26314000
35.52246094,-84.08080000
35.55297852,-83.31709000
35.58349609,-87.58369000
35.61401367,-102.90880000
35.64453125,-86.33577000
35.67504883,-84.01360000
35.70556641,-85.38891000
35.73608398,-88.71542000
35.76660156,-90.88791000
35.79711914,-89.04860000
35.82763672,-86.24863000
35.85815430,-85.34245000
35.88867188,-86.29668000
35.91918945,-86.93465000
35.94970703,-87.32414000
35.98022461,-89.45090000
36.01074219,-92.64359000
36.04125977,-90.13355000
36.07177734,-84.75563000
36.10229492,-82.10049000
36.13281250,-81.97059000
36.16333008,-83.86886000
36.19384766,-87.89435000
36.22436523,-91.75355000
36.25488281,-87.42140000
36.28540039,-85.84995000
36.31591797,-87.32074000
36.34643555,-88.31283000
36.37695313,-89.35985000
36.40747070,-92.31620000
36.43798828,-90.63897000
36.46850586,-87.53702000
36.49902344,-85.54275000
36.52954102,-84.37109000
36.56005859,-84.77106000
36.59057617,-85.76695000
36.62109375,-84.33833000
36.65161133,-82.97715000
36.68212891,-83.56726000
36.71264648,-86.50796000
36.74316406,-92.84172000
36.77368164,-102.38990000
36.80419922,-93.93475000
36.83471680,-88.80235000
36.86523438,-86.12752000
36.89575195,-84.63154000
36.92626953,-84.73289000
36.95678711,-86.80249000
36.98730469,-89.15298000
37.01782227,-90.42413000
37.04833984,-92.59093000
37.07885742,-96.07063000
37.10937500,-98.60722000
37.13989258,-93.67384000
37.17041016,-87.80768000
37.20092773,-83.90152000
37.23144531,-81.26357000
37.26196289,-79.78954000
37.29248047,-79.59663000
37.32299805,-80.80814000
37.35351563,-83.56953000
37.38403320,-87.17327000
37.41455078,-89.25071000
37.44506836,-91.03017000
37.47558594,-94.21802000
37.50610352,-96.00564000
37.53662109,-92.53691000
37.56713867,-87.23794000
37.59765625,-83.16971000
37.62817383,-80.90176000
37.65869141,-80.15819000
37.68920898,-80.62687000
37.71972656,-82.61386000
37.75024414,-87.45972000
37.78076172,-94.99409000
37.81127930,-89.43645000
37.84179688,-88.40541000
37.87231445,-90.81754000
37.90283203,-88.02664000
37.93334961,-85.31910000
37.96386719,-85.72865000
37.99438477,-88.18954000
38.02490234,-91.00892000
38.05541992,-93.62605000
38.08593750,-99.13889000
38.11645508,-106.78430000
38.14697266,-95.22768000
38.17749023,-94.68729000
38.20800781,-94.34270000
38.23852539,-92.79731000
38.26904297,-94.32352000
38.29956055,-95.96051000
38.33007813,-95.85625000
38.36059570,-95.71469000
38.39111328,-98.66592000
38.42163086,-106.87170000
38.45214844,-105.48360000
38.48266602,-99.94601000
38.51318359,-97.22556000
38.54370117,-96.26929000
38.57421875,-96.54899000
38.60473633,-94.34830000
38.63525391,-95.20413000
38.66577148,-108.76460000
38.69628906,-98.26474000
38.72680664,-92.83321000
38.75732422,-89.18916000
38.78784180,-85.59288000
38.81835938,-83.75062000
38.84887695,-84.67300000
38.87939453,-89.23804000
38.90991211,-96.61847000
38.94042969,-91.25211000
38.97094727,-86.89581000
39.00146484,-84.83926000
39.03198242,-84.87980000
39.06250000,-87.11646000
39.09301758,-93.14471000
39.12353516,-102.63360000
39.15405273,-91.35556000
39.18457031,-86.92015000
39.21508789,-84.01051000
39.24560547,-82.72014000
39.27612305,-82.98590000
39.30664063,-84.11241000
39.33715820,-85.05301000
39.36767578,-85.25604000
39.39819336,-86.13708000
39.42871094,-88.73893000
39.45922852,-87.41128000
39.48974609,-84.51626000
39.52026367,-84.79333000
39.55078125,-88.47718000
39.58129883,-96.88000000
39.61181641,-100.70840000
39.64233398,-94.75774000
39.67285156,-91.84158000
39.70336914,-87.39617000
39.73388672,-83.82086000
39.76440430,-83.14759000
39.79492188,-86.01116000
39.82543945,-92.48952000
39.85595703,-90.94163000
39.88647461,-88.82743000
39.91699219,-89.86183000
39.94750977,-90.84777000
39.97802734,-89.84898000
40.00854492,-89.67168000
40.03906250,-88.80210000
40.06958008,-89.17603000
40.10009766,-90.84860000
40.13061523,-84.76851000
40.16113281,-81.79906000
40.19165039,-82.62537000
40.22216797,-87.11990000
40.25268555,-92.27209000
40.28320313,-91.33893000
40.31372070,-93.70825000
40.34423828,-97.06242000
40.37475586,-94.48102000
40.40527344,-88.35514000
40.43579102,-85.85730000
40.46630859,-88.22261000
40.49682617,-99.17832000
40.52734375,-89.61542000
40.55786133,-84.63580000
40.58837891,-82.86660000
40.61889648,-83.18565000
40.64941406,-86.25502000
40.67993164,-89.52573000
40.71044922,-88.01001000
40.74096680,-90.16045000
40.77148438,-92.48188000
40.80200195,-87.78043000
40.83251953,-85.79232000
40.86303711,-85.32289000
40.89355469,-85.22600000
40.92407227,-85.31937000
40.95458984,-86.52240000
40.98510742,-89.72206000
41.01562500,-91.60440000
41.04614258,-91.95639000
41.07666016,-94.54492000
41.10717773,-88.09418000
41.13769531,-84.81731000
41.16821289,-85.51166000
41.19873047,-89.02996000
41.22924805,-90.27737000
41.25976563,-89.28021000
41.29028320,-88.05160000
41.32080078,-86.73598000
41.35131836,-88.29083000
41.38183594,-89.70747000
41.41235352,-86.73782000
41.44287109,-84.21993000
41.47338867,-82.74216000
41.50390625,-82.66521000
41.53442383,-84.98230000
41.56494141,-90.55928000
41.59545898,-95.72388000
41.62597656,-97.38202000
41.65649414,-104.98780000
41.68701172,-96.66324000
41.71752930,-89.09317000
41.74804688,-85.57578000
41.77856445,-84.83649000
41.80908203,-86.88068000
41.83959961,-92.55737000
41.87011719,-92.84059000
41.90063477,-89.46184000
41.93115234,-90.84237000
41.96166992,-92.43845000
41.99218750,-91.74512000
42.02270508,-94.89348000
42.05322266,-94.94004000
42.08374023,-88.88597000
42.11425781,-85.89769000
42.14477539,-85.61778000
42.17529297,-87.12709000
42.20581055,-88.11089000
42.23632813,-87.75296000
42.26684570,-86.06989000
42.29736328,-87.52410000
42.32788086,-105.46630000
42.35839844,-89.29452000
42.38891602,-87.63241000
42.41943359,-96.25050000
42.44995117,-90.25323000
42.48046875,-86.19629000
42.51098633,-87.15916000
42.54150391,-89.93599000
42.57202148,-89.55711000
42.60253906,-88.11174000
42.63305664,-88.70282000
42.66357422,-91.88323000
42.69409180,-96.25072000
42.72460938,-95.31333000
42.75512695,-90.48720000
42.78564453,-85.46739000
42.81616211,-82.12775000
42.84667969,-80.93752000
42.87719727,-82.13483000
42.90771484,-86.15948000
42.93823242,-93.49586000
42.96875000,-104.45340000
42.99926758,-97.67987000
43.02978516,-96.36427000
43.06030273,-107.83580000
43.09082031,-92.28736000
43.12133789,-88.58578000
43.15185547,-88.15114000
43.18237305,-86.85071000
43.21289063,-86.58270000
43.24340820,-91.52055000
43.27392578,-96.77200000
43.30444336,-89.17725000
43.33496094,-88.89812000
43.36547852,-92.00942000
43.39599609,-96.69662000
43.42651367,-98.36266000
43.45703125,-95.17857000
43.48754883,-93.79144000
43.51806641,-96.28910000
43.54858398,-93.55547000
43.57910156,-87.09958000
43.60961914,-84.22729000
43.64013672,-83.55958000
43.67065430,-83.50811000
43.70117188,-83.02972000
43.73168945,-83.76804000
43.76220703,-88.24319000
43.79272461,-108.56500000
43.82324219,-90.44382000
43.85375977,-85.30112000
43.88427734,-83.28749000
43.91479492,-82.68713000
43.94531250,-83.07438000
43.97583008,-83.82825000
44.00634766,-84.05296000
44.03686523,-84.74207000
44.06738281,-86.33068000
44.09790039,-88.00536000
44.12841797,-88.58853000
44.15893555,-86.57072000
44.18945313,-84.67346000
44.21997070,-84.62070000
44.25048828,-85.55269000
44.28100586,-85.31414000
44.31152344,-83.33846000
44.34204102,-81.44676000
44.37255859,-80.89888000
44.40307617,-81.87207000
44.43359375,-83.74002000
44.46411133,-84.88029000
44.49462891,-85.83284000
44.52514648,-89.38982000
44.55566406,-99.53613000
44.58618164,-95.27316000
44.61669922,-92.56342000
44.64721680,-94.77830000
44.67773438,-103.11940000
44.70825195,-99.91329000
44.73876953,-91.49370000
44.76928711,-90.00014000
44.79980469,-91.43543000
44.83032227,-91.98917000
44.86083984,-91.74232000
44.89135742,-90.66688000
44.92187500,-87.54684000
44.95239258,-85.45052000
44.98291016,-85.72686000
45.01342773,-88.26363000
45.04394531,-91.25805000
45.07446289,-93.04398000
45.10498047,-92.88174000
45.13549805,-88.82959000
45.16601563,-87.14066000
45.19653320,-87.64215000
45.22705078,-87.53891000
45.25756836,-88.01235000
45.28808594,-90.92258000
45.31860352,-94.75301000
45.34912109,-94.15658000
45.37963867,-90.01611000
45.41015625,-87.96490000
45.44067383,-87.11990000
45.47119141,-86.41969000
45.50170898,-86.98386000
45.53222656,-88.98088000
45.56274414,-89.60892000
45.59326172,-89.10114000
45.62377930,-89.67484000
45.65429688,-90.95277000
45.68481445,-92.88168000
45.71533203,-93.65193000
45.74584961,-92.27388000
45.77636719,-93.31889000
45.80688477,-91.45882000
45.83740234,-87.52560000
45.86791992,-85.58727000
45.89843750,-84.50425000
45.92895508,-83.13832000
45.95947266,-81.74720000
45.98999023,-80.93853000
46.02050781,-80.84632000
46.05102539,-81.57253000
46.08154297,-83.25661000
46.11206055,-86.39153000
46.14257813,-94.86558000
46.17309570,-94.25506000
46.20361328,-86.08292000
46.23413086,-84.71342000
46.26464844,-87.07246000
46.29516602,-92.75407000
46.32568359,-91.06784000
46.35620117,-85.81290000
46.38671875,-83.03040000
46.41723633,-81.99570000
46.44775391,-82.67441000
46.47827148,-85.67250000
46.50878906,-93.10075000
46.53930664,-98.22435000
46.56982422,-90.57161000
46.60034180,-86.74368000
46.63085938,-83.81878000
46.66137695,-81.63208000
46.69189453,-80.00223000
46.72241211,-79.28613000
46.75292969,-79.75211000
46.78344727,-81.16611000
46.81396484,-82.98835000
46.84448242,-84.98374000
46.87500000,-88.37102000
46.90551758,-95.84668000
46.93603516,-95.82902000
46.96655273,-94.56199000
46.99707031,-93.36879000
47.02758789,-87.33824000
47.05810547,-83.21451000
47.08862305,-81.20314000
47.11914063,-81.13220000
47.14965820,-82.36294000
47.18017578,-83.69217000
47.21069336,-84.09601000
47.24121094,-83.66129000
47.27172852,-83.20232000
47.30224609,-83.59959000
47.33276367,-85.32787000
47.36328125,-87.78770000
47.39379883,-91.90528000
47.42431641,-108.04530000
47.45483398,-88.47199000
47.48535156,-84.27592000
47.51586914,-83.09283000
47.54638672,-82.60070000
47.57690430,-82.27882000
47.60742188,-81.95710000
47.63793945,-81.72520000
47.66845703,-82.39826000
47.69897461,-85.38406000
47.72949219,-95.66338000
47.76000977,-92.88701000
47.79052734,-87.31091000
47.82104492,-88.25073000
47.85156250,-92.73273000
47.88208008,-94.08614000
47.91259766,-93.12619000
47.94311523,-90.57555000
47.97363281,-88.65963000
48.00415039,-90.09399000
48.03466797,-95.22900000
48.06518555,-96.91962000
48.09570313,-93.88205000
48.12622070,-92.51962000
48.15673828,-91.55257000
48.18725586,-89.91899000
48.21777344,-89.70381000
48.24829102,-92.89882000
48.27880859,-89.36305000
48.30932617,-84.15234000
48.33984375,-82.06239000
48.37036133,-81.13162000
48.40087891,-80.12496000
48.43139648,-79.42207000
48.46191406,-79.83242000
48.49243164,-81.86813000
48.52294922,-85.22819000
48.55346680,-87.12019000
48.58398438,-86.79802000
48.61450195,-86.38701000
48.64501953,-85.75707000
48.67553711,-84.81464000
48.70605469,-83.47042000
48.73657227,-82.30492000
48.76708984,-82.43496000
48.79760742,-84.45534000
48.82812500,-88.39870000
48.85864258,-95.90584000
48.88916016,-100.78640000
48.91967773,-90.81520000
48.95019531,-87.76236000
48.98071289,-84.60625000
49.01123047,-82.23244000
49.04174805,-81.95343000
49.07226563,-82.99699000
49.10278320,-84.01102000
49.13330078,-85.03394000
49.16381836,-85.69055000
49.19433594,-87.09274000
49.22485352,-90.70372000
49.25537109,-87.78215000
49.28588867,-86.29409000
49.31640625,-88.92938000
49.34692383,-90.05844000
49.37744141,-87.66884000
49.40795898,-86.29782000
49.43847656,-84.90192000
49.46899414,-82.96570000
49.49951172,-81.52627000
49.53002930,-81.70497000
49.56054688,-84.16711000
49.59106445,-88.04816000
49.62158203,-89.40988000
49.65209961,-92.94220000
49.68261719,-106.17000000
49.71313477,-89.55385000
49.74365234,-85.46828000
49.77416992,-83.70966000
49.80468750,-83.02805000
49.83520508,-83.21617000
49.86572266,-84.00997000
49.89624023,-84.99692000
49.92675781,-85.46233000
49.95727539,-84.59161000
49.98779297,-82.71110000
50.01831055,-81.23893000
