Frequency,Channel A
(MHz),(dBu)

0.00000000,-11.56458000
0.03051758,-11.89929000
0.06103516,-16.97435000
0.09155273,-26.50784000
0.12207031,-44.74793000
0.15258789,-55.09836000
0.18310547,-59.72934000
0.21362305,-66.05972000
0.24414063,-62.66210000
0.27465820,-58.15245000
0.30517578,-59.48266000
0.33569336,-56.45264000
0.36621094,-53.50629000
0.39672852,-52.03026000
0.42724609,-54.05102000
0.45776367,-61.14468000
0.48828125,-68.85722000
0.51879883,-57.87384000
0.54931641,-49.83973000
0.57983398,-47.19239000
0.61035156,-49.36555000
0.64086914,-46.63244000
0.67138672,-41.64736000
0.70190430,-40.67461000
0.73242188,-43.13565000
0.76293945,-49.21566000
0.79345703,-58.67163000
0.82397461,-60.13031000
0.85449219,-62.56765000
0.88500977,-63.40255000
0.91552734,-61.78791000
0.94604492,-62.21807000
0.97656250,-58.98533000
1.00708008,-55.85800000
1.03759766,-55.09056000
1.06811523,-57.04475000
1.09863281,-61.08086000
1.12915039,-59.85070000
1.15966797,-57.65175000
1.19018555,-57.10793000
1.22070313,-58.03149000
1.25122070,-58.44408000
1.28173828,-55.34046000
1.31225586,-53.14750000
1.34277344,-52.94987000
1.37329102,-54.81865000
1.40380859,-59.80481000
1.43432617,-71.14339000
1.46484375,-70.45350000
1.49536133,-70.78667000
1.52587891,-76.27244000
1.55639648,-71.77806000
1.58691406,-63.85691000
1.61743164,-58.76204000
1.64794922,-55.95253000
1.67846680,-54.83679000
1.70898438,-55.22821000
1.73950195,-56.66958000
1.77001953,-57.39485000
1.80053711,-56.60034000
1.83105469,-56.17789000
1.86157227,-57.12391000
1.89208984,-59.44530000
1.92260742,-63.19204000
1.95312500,-68.99646000
1.98364258,-68.68410000
2.01416016,-62.86881000
2.04467773,-59.38630000
2.07519531,-57.46791000
2.10571289,-56.81980000
2.13623047,-57.25948000
2.16674805,-58.46666000
2.19726563,-60.44544000
2.22778320,-63.09140000
2.25830078,-65.51196000
2.28881836,-66.46396000
2.31933594,-67.88410000
2.34985352,-72.93303000
2.38037109,-66.65982000
2.41088867,-63.64088000
2.44140625,-65.80363000
2.47192383,-72.51875000
2.50244141,-67.11320000
2.53295898,-64.17401000
2.56347656,-65.90575000
2.59399414,-73.78905000
2.62451172,-76.52215000
2.65502930,-70.00449000
2.68554688,-67.03109000
2.71606445,-66.58614000
2.74658203,-72.05713000
2.77709961,-77.13113000
2.80761719,-67.19859000
2.83813477,-66.42909000
2.86865234,-70.82012000
2.89916992,-82.83779000
2.92968750,-67.75052000
2.96020508,-63.75705000
2.99072266,-63.62135000
3.02124023,-65.67776000
3.05175781,-68.51485000
3.08227539,-73.92120000
3.11279297,-77.09431000
3.14331055,-71.21162000
3.17382813,-71.79721000
3.20434570,-68.87292000
3.23486328,-65.68547000
3.26538086,-68.06843000
3.29589844,-70.32111000
3.32641602,-63.88782000
3.35693359,-62.75938000
3.38745117,-66.64778000
3.41796875,-71.09448000
3.44848633,-60.87281000
3.47900391,-56.66374000
3.50952148,-56.17898000
3.54003906,-59.24140000
3.57055664,-66.90269000
3.60107422,-71.11552000
3.63159180,-66.56394000
3.66210938,-61.48442000
3.69262695,-58.53320000
3.72314453,-58.16701000
3.75366211,-59.69348000
3.78417969,-62.93255000
3.81469727,-68.66699000
3.84521484,-67.29577000
3.87573242,-64.33089000
3.90625000,-67.78901000
3.93676758,-74.31245000
3.96728516,-61.51456000
3.99780273,-58.63045000
4.02832031,-59.70543000
4.05883789,-64.87337000
4.08935547,-70.83807000
4.11987305,-65.14275000
4.15039063,-66.42921000
4.18090820,-75.90500000
4.21142578,-65.40460000
4.24194336,-61.71382000
4.27246094,-60.66830000
4.30297852,-60.53553000
4.33349609,-61.77123000
4.36401367,-65.28856000
4.39453125,-71.84206000
4.42504883,-81.23916000
4.45556641,-69.53897000
4.48608398,-64.27399000
4.51660156,-62.89698000
4.54711914,-63.39893000
4.57763672,-64.67137000
4.60815430,-67.14440000
4.63867188,-69.70589000
4.66918945,-72.10381000
4.69970703,-68.68713000
4.73022461,-63.75908000
4.76074219,-62.77122000
4.79125977,-65.77983000
4.82177734,-75.05228000
4.85229492,-74.62476000
4.88281250,-71.48872000
4.91333008,-73.28250000
4.94384766,-74.12512000
4.97436523,-70.33521000
5.00488281,-67.17874000
5.03540039,-65.40647000
5.06591797,-65.37321000
5.09643555,-67.59763000
5.12695313,-72.75114000
5.15747070,-77.37154000
5.18798828,-72.67815000
5.21850586,-70.43600000
5.24902344,-68.59435000
5.27954102,-67.62006000
5.31005859,-69.33910000
5.34057617,-72.92159000
5.37109375,-76.39816000
5.40161133,-83.97475000
5.43212891,-76.74064000
5.46264648,-73.46170000
5.49316406,-73.31039000
5.52368164,-74.12064000
5.55419922,-75.18808000
5.58471680,-75.86118000
5.61523438,-74.30642000
5.64575195,-69.54939000
5.67626953,-65.35410000
5.70678711,-63.79954000
5.73730469,-65.15134000
5.76782227,-70.30640000
5.79833984,-72.08298000
5.82885742,-66.78229000
5.85937500,-66.22575000
5.88989258,-65.29256000
5.92041016,-62.41392000
5.95092773,-61.87788000
5.98144531,-63.81853000
6.01196289,-67.19911000
6.04248047,-73.72409000
6.07299805,-77.46812000
6.10351563,-66.93607000
6.13403320,-64.18292000
6.16455078,-63.94814000
6.19506836,-63.38295000
6.22558594,-62.35998000
6.25610352,-62.99129000
6.28662109,-66.32716000
6.31713867,-74.03293000
6.34765625,-75.15826000
6.37817383,-67.58002000
6.40869141,-64.68833000
6.43920898,-63.88663000
6.46972656,-64.18824000
6.50024414,-65.70420000
6.53076172,-69.30535000
6.56127930,-75.81715000
6.59179688,-83.55981000
6.62231445,-82.72724000
6.65283203,-73.46354000
6.68334961,-68.93682000
6.71386719,-67.69936000
6.74438477,-69.04075000
6.77490234,-72.93650000
6.80541992,-79.83279000
6.83593750,-85.74970000
6.86645508,-84.64645000
6.89697266,-81.34673000
6.92749023,-78.09145000
6.95800781,-74.28016000
6.98852539,-72.59631000
7.01904297,-74.17261000
7.04956055,-79.79335000
7.08007813,-92.50363000
7.11059570,-101.55800000
7.14111328,-86.45004000
7.17163086,-78.58812000
7.20214844,-76.58121000
7.23266602,-79.16980000
7.26318359,-86.98625000
7.29370117,-82.75438000
7.32421875,-79.92140000
7.35473633,-80.89319000
7.38525391,-83.99641000
7.41577148,-85.42221000
7.44628906,-82.63074000
7.47680664,-79.27399000
7.50732422,-77.45229000
7.53784180,-77.72067000
7.56835938,-80.27093000
7.59887695,-86.24826000
7.62939453,-95.01341000
7.65991211,-86.31561000
7.69042969,-87.04524000
7.72094727,-100.38650000
7.75146484,-97.96047000
7.78198242,-83.84589000
7.81250000,-74.22055000
7.84301758,-70.12363000
7.87353516,-69.58404000
7.90405273,-72.05520000
7.93457031,-76.55076000
7.96508789,-78.68903000
7.99560547,-76.21861000
8.02612305,-73.82253000
8.05664063,-73.74948000
8.08715820,-76.17464000
8.11767578,-81.12457000
8.14819336,-82.01660000
8.17871094,-79.36861000
8.20922852,-80.48688000
8.23974609,-82.86809000
8.27026367,-80.69931000
8.30078125,-79.50502000
8.33129883,-79.53873000
8.36181641,-79.25012000
8.39233398,-80.47959000
8.42285156,-83.80215000
8.45336914,-86.06194000
8.48388672,-90.16273000
8.51440430,-96.40073000
8.54492188,-82.27703000
8.57543945,-77.43816000
8.60595703,-74.72043000
8.63647461,-73.01484000
8.66699219,-72.58760000
8.69750977,-73.62200000
8.72802734,-75.83854000
8.75854492,-78.89310000
8.78906250,-83.68412000
8.81958008,-100.21770000
8.85009766,-85.58244000
8.88061523,-80.18703000
8.91113281,-78.64230000
8.94165039,-78.71303000
8.97216797,-79.81088000
9.00268555,-81.62284000
9.03320313,-82.38837000
9.06372070,-81.26891000
9.09423828,-81.25632000
9.12475586,-83.81423000
9.15527344,-83.58546000
9.18579102,-80.27306000
9.21630859,-79.44014000
9.24682617,-80.20744000
9.27734375,-80.55333000
9.30786133,-80.51871000
9.33837891,-81.51626000
9.36889648,-84.13628000
9.39941406,-85.48599000
9.42993164,-80.31224000
9.46044922,-75.89527000
9.49096680,-73.71164000
9.52148438,-73.65342000
9.55200195,-75.36668000
9.58251953,-77.16586000
9.61303711,-77.22085000
9.64355469,-76.94682000
9.67407227,-77.64768000
9.70458984,-80.34919000
9.73510742,-83.25595000
9.76562500,-78.83376000
9.79614258,-76.81041000
9.82666016,-78.07701000
9.85717773,-79.43299000
9.88769531,-77.95300000
9.91821289,-77.44753000
9.94873047,-79.06173000
9.97924805,-80.35268000
10.00976563,-79.05474000
10.04028320,-79.19952000
10.07080078,-82.41331000
10.10131836,-90.21636000
10.13183594,-97.33177000
10.16235352,-86.36504000
10.19287109,-82.31224000
10.22338867,-79.05200000
10.25390625,-75.60435000
10.28442383,-73.25121000
10.31494141,-72.65979000
10.34545898,-73.88101000
10.37597656,-76.23441000
10.40649414,-77.06920000
10.43701172,-76.18880000
10.46752930,-77.11419000
10.49804688,-82.86263000
10.52856445,-86.34091000
10.55908203,-80.75753000
10.58959961,-81.53957000
10.62011719,-81.73539000
10.65063477,-80.16704000
10.68115234,-81.76671000
10.71166992,-87.29819000
10.74218750,-94.41579000
10.77270508,-81.71761000
10.80322266,-75.34261000
10.83374023,-71.16998000
10.86425781,-69.32507000
10.89477539,-69.96766000
10.92529297,-72.79935000
10.95581055,-76.99172000
10.98632813,-80.91058000
11.01684570,-82.28052000
11.04736328,-83.12350000
11.07788086,-81.98825000
11.10839844,-80.45250000
11.13891602,-81.67023000
11.16943359,-84.40818000
11.19995117,-84.78777000
11.23046875,-82.07458000
11.26098633,-77.70173000
11.29150391,-74.01271000
11.32202148,-71.97497000
11.35253906,-71.80551000
11.38305664,-73.07381000
11.41357422,-74.58206000
11.44409180,-77.83252000
11.47460938,-93.06561000
11.50512695,-78.12003000
11.53564453,-73.86238000
11.56616211,-73.83528000
11.59667969,-75.39012000
11.62719727,-75.59885000
11.65771484,-74.15279000
11.68823242,-73.10323000
11.71875000,-73.71397000
11.74926758,-75.36134000
11.77978516,-73.27913000
11.81030273,-70.20690000
11.84082031,-69.20081000
11.87133789,-69.89832000
11.90185547,-71.33877000
11.93237305,-71.94904000
11.96289063,-71.32677000
11.99340820,-71.35603000
12.02392578,-74.17088000
12.05444336,-86.02425000
12.08496094,-77.22826000
12.11547852,-72.63171000
12.14599609,-72.58604000
12.17651367,-74.96187000
12.20703125,-79.83674000
12.23754883,-86.39522000
12.26806641,-80.29235000
12.29858398,-77.23309000
12.32910156,-76.97521000
12.35961914,-78.18037000
12.39013672,-80.69385000
12.42065430,-83.41156000
12.45117188,-81.24251000
12.48168945,-77.08917000
12.51220703,-75.50192000
12.54272461,-77.37746000
12.57324219,-84.67197000
12.60375977,-83.85116000
12.63427734,-75.27239000
12.66479492,-72.26844000
12.69531250,-72.00496000
12.72583008,-73.49575000
12.75634766,-75.91286000
12.78686523,-77.94979000
12.81738281,-78.79988000
12.84790039,-77.95413000
12.87841797,-74.68746000
12.90893555,-71.94311000
12.93945313,-71.57168000
12.96997070,-73.98175000
13.00048828,-78.56075000
13.03100586,-82.56996000
13.06152344,-90.17068000
13.09204102,-85.17456000
13.12255859,-79.30865000
13.15307617,-77.20323000
13.18359375,-78.20764000
13.21411133,-82.33528000
13.24462891,-80.54893000
13.27514648,-79.61133000
13.30566406,-81.78933000
13.33618164,-79.77269000
13.36669922,-77.39325000
13.39721680,-77.58222000
13.42773438,-79.95385000
13.45825195,-79.15976000
13.48876953,-71.83566000
13.51928711,-66.26965000
13.54980469,-63.72700000
13.58032227,-64.21719000
13.61083984,-67.90009000
13.64135742,-75.06631000
13.67187500,-80.86140000
13.70239258,-81.52348000
13.73291016,-91.03951000
13.76342773,-83.77141000
13.79394531,-76.82143000
13.82446289,-74.94974000
13.85498047,-75.41219000
13.88549805,-76.86597000
13.91601563,-78.47319000
13.94653320,-80.72238000
13.97705078,-82.92296000
14.00756836,-82.44058000
14.03808594,-81.35472000
14.06860352,-81.21243000
14.09912109,-82.89864000
14.12963867,-85.40589000
14.16015625,-83.68564000
14.19067383,-80.90588000
14.22119141,-78.34597000
14.25170898,-76.43420000
14.28222656,-75.54262000
14.31274414,-75.66113000
14.34326172,-76.89574000
14.37377930,-79.95778000
14.40429688,-87.96480000
14.43481445,-86.42265000
14.46533203,-80.92297000
14.49584961,-81.10612000
14.52636719,-85.55648000
14.55688477,-95.31267000
14.58740234,-104.80230000
14.61791992,-108.95410000
14.64843750,-102.08890000
14.67895508,-91.17868000
14.70947266,-84.08737000
14.73999023,-81.69506000
14.77050781,-83.35682000
14.80102539,-91.98467000
14.83154297,-87.88994000
14.86206055,-80.69602000
14.89257813,-78.71297000
14.92309570,-80.06934000
14.95361328,-84.00815000
14.98413086,-86.64249000
15.01464844,-87.37494000
15.04516602,-88.82190000
15.07568359,-87.44053000
15.10620117,-83.09172000
15.13671875,-80.30244000
15.16723633,-79.32628000
15.19775391,-79.15533000
15.22827148,-79.74567000
15.25878906,-82.03015000
15.28930664,-84.95815000
15.31982422,-86.55222000
15.35034180,-90.69809000
15.38085938,-98.39141000
15.41137695,-110.74950000
15.44189453,-96.30642000
15.47241211,-89.17304000
15.50292969,-86.45616000
15.53344727,-85.57782000
15.56396484,-85.40650000
15.59448242,-84.58168000
15.62500000,-82.70168000
15.65551758,-81.08604000
15.68603516,-80.82985000
15.71655273,-81.98590000
15.74707031,-82.98699000
15.77758789,-82.25751000
15.80810547,-81.96176000
15.83862305,-83.77137000
15.86914063,-89.02907000
15.89965820,-107.81430000
15.93017578,-90.69091000
15.96069336,-85.43407000
15.99121094,-82.53075000
16.02172852,-80.99460000
16.05224609,-81.33978000
16.08276367,-83.16084000
16.11328125,-84.10162000
16.14379883,-84.31134000
16.17431641,-85.98885000
16.20483398,-90.02321000
16.23535156,-93.22964000
16.26586914,-90.35198000
16.29638672,-89.30618000
16.32690430,-86.73100000
16.35742188,-83.30119000
16.38793945,-82.12998000
16.41845703,-83.44112000
16.44897461,-86.94527000
16.47949219,-89.84834000
16.51000977,-87.12464000
16.54052734,-83.70818000
16.57104492,-83.18889000
16.60156250,-86.15577000
16.63208008,-92.51744000
16.66259766,-90.73670000
16.69311523,-85.04571000
16.72363281,-82.41611000
16.75415039,-82.62555000
16.78466797,-85.41350000
16.81518555,-88.20016000
16.84570313,-86.48724000
16.87622070,-82.44843000
16.90673828,-80.05589000
16.93725586,-80.73220000
16.96777344,-85.16026000
16.99829102,-93.52904000
17.02880859,-97.07172000
17.05932617,-91.83955000
17.08984375,-84.84943000
17.12036133,-81.97594000
17.15087891,-81.84787000
17.18139648,-82.26849000
17.21191406,-81.97735000
17.24243164,-83.07191000
17.27294922,-84.35640000
17.30346680,-84.19569000
17.33398438,-87.43825000
17.36450195,-104.04100000
17.39501953,-91.33141000
17.42553711,-91.40425000
17.45605469,-95.82417000
17.48657227,-88.20016000
17.51708984,-86.22858000
17.54760742,-88.06992000
17.57812500,-88.82171000
17.60864258,-84.99992000
17.63916016,-81.47484000
17.66967773,-77.02729000
17.70019531,-72.34308000
17.73071289,-69.57155000
17.76123047,-68.79138000
17.79174805,-69.56352000
17.82226563,-71.72507000
17.85278320,-75.68156000
17.88330078,-82.46515000
17.91381836,-95.72743000
17.94433594,-96.95084000
17.97485352,-93.16978000
18.00537109,-91.99265000
18.03588867,-90.68973000
18.06640625,-88.94586000
18.09692383,-85.72854000
18.12744141,-84.18372000
18.15795898,-87.07646000
18.18847656,-103.97700000
18.21899414,-92.29819000
18.24951172,-89.54026000
18.28002930,-87.46995000
18.31054688,-85.17945000
18.34106445,-87.21668000
18.37158203,-106.48870000
18.40209961,-85.42935000
18.43261719,-81.07922000
18.46313477,-81.13054000
18.49365234,-84.29810000
18.52416992,-89.19890000
18.55468750,-89.85381000
18.58520508,-89.17513000
18.61572266,-90.07455000
18.64624023,-91.98859000
18.67675781,-96.55364000
18.70727539,-95.49180000
18.73779297,-86.88442000
18.76831055,-83.08917000
18.79882813,-83.24993000
18.82934570,-87.63470000
18.85986328,-99.24972000
18.89038086,-102.24700000
18.92089844,-95.67941000
18.95141602,-95.32916000
18.98193359,-98.25317000
19.01245117,-96.13252000
19.04296875,-88.21159000
19.07348633,-82.43752000
19.10400391,-79.87884000
19.13452148,-80.58156000
19.16503906,-85.13450000
19.19555664,-91.86459000
19.22607422,-95.04529000
19.25659180,-104.30440000
19.28710938,-91.37276000
19.31762695,-91.02348000
19.34814453,-91.21093000
19.37866211,-88.49808000
19.40917969,-87.42501000
19.43969727,-88.83005000
19.47021484,-95.36984000
19.50073242,-100.57800000
19.53125000,-91.69743000
19.56176758,-90.63986000
19.59228516,-92.21606000
19.62280273,-93.16035000
19.65332031,-90.02641000
19.68383789,-85.40414000
19.71435547,-83.90977000
19.74487305,-86.90727000
19.77539063,-93.50893000
19.80590820,-90.01448000
19.83642578,-91.53214000
19.86694336,-87.31821000
19.89746094,-82.31342000
19.92797852,-81.12112000
19.95849609,-81.51633000
19.98901367,-82.40897000
20.01953125,-83.84263000
20.05004883,-83.44858000
20.08056641,-83.53408000
20.11108398,-87.04331000
20.14160156,-93.31924000
20.17211914,-89.57269000
20.20263672,-87.26402000
20.23315430,-89.33290000
20.26367188,-99.87240000
20.29418945,-95.13115000
20.32470703,-88.13759000
20.35522461,-85.05051000
20.38574219,-82.25032000
20.41625977,-79.92074000
20.44677734,-79.16425000
20.47729492,-80.41088000
20.50781250,-82.81284000
20.53833008,-84.68533000
20.56884766,-84.95506000
20.59936523,-83.98103000
20.62988281,-84.95238000
20.66040039,-88.33568000
20.69091797,-91.72917000
20.72143555,-92.96325000
20.75195313,-90.48604000
20.78247070,-90.49033000
20.81298828,-95.50865000
20.84350586,-107.18750000
20.87402344,-90.93922000
20.90454102,-86.18658000
20.93505859,-84.66102000
20.96557617,-85.57813000
20.99609375,-87.28921000
21.02661133,-87.00970000
21.05712891,-87.09674000
21.08764648,-90.04807000
21.11816406,-104.14510000
21.14868164,-88.80128000
21.17919922,-81.67010000
21.20971680,-78.74316000
21.24023438,-78.53224000
21.27075195,-80.39413000
21.30126953,-82.88010000
21.33178711,-83.30430000
21.36230469,-81.44524000
21.39282227,-79.84389000
21.42333984,-79.88834000
21.45385742,-82.37916000
21.48437500,-87.10577000
21.51489258,-85.02010000
21.54541016,-83.11954000
21.57592773,-86.05307000
21.60644531,-100.06260000
21.63696289,-84.46582000
21.66748047,-79.92814000
21.69799805,-79.41530000
21.72851563,-82.16193000
21.75903320,-89.64146000
21.78955078,-100.95340000
21.82006836,-94.79897000
21.85058594,-100.98550000
21.88110352,-102.58320000
21.91162109,-100.11170000
21.94213867,-102.29080000
21.97265625,-88.67936000
22.00317383,-83.83717000
22.03369141,-81.90899000
22.06420898,-81.82914000
22.09472656,-83.44427000
22.12524414,-86.70425000
22.15576172,-89.41171000
22.18627930,-87.89490000
22.21679688,-86.09376000
22.24731445,-86.17906000
22.27783203,-89.01496000
22.30834961,-97.38510000
22.33886719,-101.26850000
22.36938477,-92.16541000
22.39990234,-89.99978000
22.43041992,-89.24100000
22.46093750,-87.98434000
22.49145508,-88.43644000
22.52197266,-93.52193000
22.55249023,-107.06130000
22.58300781,-93.47223000
22.61352539,-89.33719000
22.64404297,-86.75297000
22.67456055,-86.36985000
22.70507813,-87.10709000
22.73559570,-85.29649000
22.76611328,-84.33392000
22.79663086,-87.81496000
22.82714844,-99.51684000
22.85766602,-92.61052000
22.88818359,-95.42125000
22.91870117,-102.45660000
22.94921875,-91.27026000
22.97973633,-89.29775000
23.01025391,-87.95296000
23.04077148,-86.61511000
23.07128906,-86.76379000
23.10180664,-88.89041000
23.13232422,-95.02008000
23.16284180,-96.33766000
23.19335938,-93.58800000
23.22387695,-94.39381000
23.25439453,-92.48233000
23.28491211,-88.87170000
23.31542969,-86.33995000
23.34594727,-86.40791000
23.37646484,-87.52101000
23.40698242,-87.43027000
23.43750000,-89.24313000
23.46801758,-99.51351000
23.49853516,-94.98684000
23.52905273,-91.73202000
23.55957031,-96.00379000
23.59008789,-108.38420000
23.62060547,-104.60660000
23.65112305,-96.59938000
23.68164063,-93.33517000
23.71215820,-93.96127000
23.74267578,-98.41503000
23.77319336,-114.19370000
23.80371094,-100.11560000
23.83422852,-92.89095000
23.86474609,-90.42178000
23.89526367,-90.05524000
23.92578125,-90.54817000
23.95629883,-93.00198000
23.98681641,-101.20310000
24.01733398,-96.94867000
24.04785156,-89.15910000
24.07836914,-86.67220000
24.10888672,-86.86720000
24.13940430,-88.62439000
24.16992188,-90.70054000
24.20043945,-92.38327000
24.23095703,-92.88342000
24.26147461,-89.52678000
24.29199219,-87.53022000
24.32250977,-89.47705000
24.35302734,-91.01769000
24.38354492,-85.53661000
24.41406250,-82.87571000
24.44458008,-82.08001000
24.47509766,-81.64763000
24.50561523,-82.24899000
24.53613281,-85.78613000
24.56665039,-93.69450000
24.59716797,-94.14344000
24.62768555,-98.69830000
24.65820313,-94.32704000
24.68872070,-87.65281000
24.71923828,-86.18219000
24.74975586,-87.30557000
24.78027344,-89.56599000
24.81079102,-90.79758000
24.84130859,-90.44423000
24.87182617,-90.68721000
24.90234375,-93.72619000
24.93286133,-98.74632000
24.96337891,-93.12728000
24.99389648,-90.90743000
25.02441406,-91.69868000
25.05493164,-92.59348000
25.08544922,-91.88597000
25.11596680,-91.71288000
25.14648438,-94.58878000
25.17700195,-96.91219000
25.20751953,-90.14854000
25.23803711,-85.62450000
25.26855469,-83.37857000
25.29907227,-83.78543000
25.32958984,-86.58675000
25.36010742,-89.25521000
25.39062500,-88.69691000
25.42114258,-84.65662000
25.45166016,-81.51482000
25.48217773,-80.96364000
25.51269531,-83.65838000
25.54321289,-91.08077000
25.57373047,-89.84863000
25.60424805,-87.88860000
25.63476563,-92.40407000
25.66528320,-97.01822000
25.69580078,-88.39241000
25.72631836,-85.67099000
25.75683594,-86.73241000
25.78735352,-88.79173000
25.81787109,-88.62983000
25.84838867,-90.45062000
25.87890625,-96.68413000
25.90942383,-110.26690000
25.93994141,-107.55930000
25.97045898,-93.87822000
26.00097656,-87.31429000
26.03149414,-85.07153000
26.06201172,-86.05053000
26.09252930,-85.66174000
26.12304688,-82.87257000
26.15356445,-82.48974000
26.18408203,-84.83270000
26.21459961,-89.23495000
26.24511719,-92.80463000
26.27563477,-91.33208000
26.30615234,-90.50480000
26.33666992,-94.84059000
26.36718750,-101.13230000
26.39770508,-90.51144000
26.42822266,-88.01675000
26.45874023,-87.53735000
26.48925781,-86.15717000
26.51977539,-85.23053000
26.55029297,-86.32829000
26.58081055,-89.29168000
26.61132813,-92.78687000
26.64184570,-96.30171000
26.67236328,-92.36131000
26.70288086,-89.50799000
26.73339844,-90.29016000
26.76391602,-89.62033000
26.79443359,-88.77298000
26.82495117,-93.62920000
26.85546875,-99.37100000
26.88598633,-89.77037000
26.91650391,-89.76143000
26.94702148,-92.22561000
26.97753906,-87.72698000
27.00805664,-84.51756000
27.03857422,-83.50462000
27.06909180,-85.22994000
27.09960938,-92.17446000
27.13012695,-92.60706000
27.16064453,-87.53484000
27.19116211,-86.41293000
27.22167969,-85.75237000
27.25219727,-83.83192000
27.28271484,-82.93056000
27.31323242,-84.44100000
27.34375000,-84.64867000
27.37426758,-81.57094000
27.40478516,-80.15176000
27.43530273,-81.16733000
27.46582031,-84.98140000
27.49633789,-92.93173000
27.52685547,-95.26330000
27.55737305,-92.55744000
27.58789063,-93.51634000
27.61840820,-95.75389000
27.64892578,-105.12310000
27.67944336,-94.69513000
27.70996094,-86.41161000
27.74047852,-83.44128000
27.77099609,-83.84734000
27.80151367,-87.92778000
27.83203125,-100.35090000
27.86254883,-96.43790000
27.89306641,-92.36652000
27.92358398,-98.16563000
27.95410156,-95.73294000
27.98461914,-87.65504000
28.01513672,-86.78917000
28.04565430,-91.40402000
28.07617188,-96.13254000
28.10668945,-87.02921000
28.13720703,-84.46593000
28.16772461,-85.38548000
28.19824219,-89.02222000
28.22875977,-93.05846000
28.25927734,-97.10448000
28.28979492,-102.73610000
28.32031250,-90.40786000
28.35083008,-85.80386000
28.38134766,-84.64761000
28.41186523,-85.80978000
28.44238281,-87.29921000
28.47290039,-87.47108000
28.50341797,-88.42755000
28.53393555,-88.36255000
28.56445313,-86.31336000
28.59497070,-86.48457000
28.62548828,-89.88731000
28.65600586,-96.16222000
28.68652344,-95.14019000
28.71704102,-91.13705000
28.74755859,-90.10590000
28.77807617,-91.70498000
28.80859375,-92.31567000
28.83911133,-88.14050000
28.86962891,-84.64693000
28.90014648,-83.92987000
28.93066406,-86.48670000
28.96118164,-89.96587000
28.99169922,-87.96360000
29.02221680,-86.57996000
29.05273438,-86.43503000
29.08325195,-86.00591000
29.11376953,-85.04790000
29.14428711,-84.86816000
29.17480469,-86.74857000
29.20532227,-90.71220000
29.23583984,-92.58968000
29.26635742,-91.02190000
29.29687500,-89.08813000
29.32739258,-88.87123000
29.35791016,-89.44823000
29.38842773,-87.54099000
29.41894531,-85.12353000
29.44946289,-84.58691000
29.47998047,-86.20984000
29.51049805,-89.16932000
29.54101563,-89.36794000
29.57153320,-85.42085000
29.60205078,-82.49948000
29.63256836,-81.19389000
29.66308594,-80.99687000
29.69360352,-82.28107000
29.72412109,-85.45128000
29.75463867,-90.03738000
29.78515625,-91.89709000
29.81567383,-87.84245000
29.84619141,-86.69834000
29.87670898,-88.90542000
29.90722656,-90.20248000
29.93774414,-86.53329000
29.96826172,-84.53690000
29.99877930,-84.69840000
30.02929688,-86.15393000
30.05981445,-88.03828000
30.09033203,-90.52827000
30.12084961,-93.63006000
30.15136719,-95.24121000
30.18188477,-97.76005000
30.21240234,-112.01860000
30.24291992,-93.69016000
30.27343750,-87.66059000
30.30395508,-85.31525000
30.33447266,-84.66501000
30.36499023,-85.35564000
30.39550781,-88.63631000
30.42602539,-99.24377000
30.45654297,-88.99953000
30.48706055,-84.65859000
30.51757813,-85.93562000
30.54809570,-94.08125000
30.57861328,-91.64072000
30.60913086,-88.03913000
30.63964844,-89.79033000
30.67016602,-98.79289000
30.70068359,-95.22057000
30.73120117,-87.58053000
30.76171875,-86.31584000
30.79223633,-88.40493000
30.82275391,-92.94821000
30.85327148,-95.96879000
30.88378906,-93.98206000
30.91430664,-94.29788000
30.94482422,-97.74297000
30.97534180,-100.86390000
31.00585938,-99.54639000
31.03637695,-110.18690000
31.06689453,-98.79162000
31.09741211,-94.09171000
31.12792969,-96.97930000
31.15844727,-95.63946000
31.18896484,-87.57190000
31.21948242,-84.36081000
31.25000000,-84.22882000
31.28051758,-85.78394000
31.31103516,-86.57066000
31.34155273,-86.76711000
31.37207031,-87.16859000
31.40258789,-87.91533000
31.43310547,-91.27257000
31.46362305,-93.27401000
31.49414063,-88.47128000
31.52465820,-88.01250000
31.55517578,-91.95518000
31.58569336,-98.46376000
31.61621094,-98.89275000
31.64672852,-97.43716000
31.67724609,-96.20735000
31.70776367,-95.10497000
31.73828125,-90.06438000
31.76879883,-86.23351000
31.79931641,-85.41379000
31.82983398,-87.44443000
31.86035156,-92.21516000
31.89086914,-95.66304000
31.92138672,-93.26305000
31.95190430,-92.85437000
31.98242188,-96.21977000
32.01293945,-100.58000000
32.04345703,-99.50818000
32.07397461,-103.77570000
32.10449219,-93.76548000
32.13500977,-89.17764000
32.16552734,-88.73610000
32.19604492,-91.65929000
32.22656250,-98.88673000
32.25708008,-122.01000000
32.28759766,-100.55310000
32.31811523,-94.50623000
32.34863281,-90.90270000
32.37915039,-89.12491000
32.40966797,-90.05457000
32.44018555,-96.93002000
32.47070313,-101.00080000
32.50122070,-90.84128000
32.53173828,-86.76846000
32.56225586,-85.15997000
32.59277344,-86.29436000
32.62329102,-91.33754000
32.65380859,-93.78441000
32.68432617,-87.72537000
32.71484375,-86.00681000
32.74536133,-86.76284000
32.77587891,-89.29889000
32.80639648,-93.37388000
32.83691406,-90.35936000
32.86743164,-86.95885000
32.89794922,-87.34027000
32.92846680,-90.55145000
32.95898438,-93.12324000
32.98950195,-95.23975000
33.02001953,-87.61384000
33.05053711,-82.74486000
33.08105469,-81.94625000
33.11157227,-85.06329000
33.14208984,-93.93792000
33.17260742,-87.16569000
33.20312500,-83.33134000
33.23364258,-83.32650000
33.26416016,-85.82664000
33.29467773,-90.75865000
33.32519531,-98.52563000
33.35571289,-96.44382000
33.38623047,-91.57101000
33.41674805,-88.25108000
33.44726563,-86.41053000
33.47778320,-87.35188000
33.50830078,-93.67088000
33.53881836,-94.74936000
33.56933594,-89.07521000
33.59985352,-88.26656000
33.63037109,-86.97134000
33.66088867,-85.58907000
33.69140625,-86.09438000
33.72192383,-87.26441000
33.75244141,-87.84774000
33.78295898,-88.38428000
33.81347656,-88.91608000
33.84399414,-87.96387000
33.87451172,-85.83931000
33.90502930,-83.84456000
33.93554688,-81.92892000
33.96606445,-80.16191000
33.99658203,-79.34761000
34.02709961,-80.49086000
34.05761719,-85.22127000
34.08813477,-111.69570000
34.11865234,-87.73273000
34.14916992,-85.24384000
34.17968750,-87.78583000
34.21020508,-92.94068000
34.24072266,-96.78482000
34.27124023,-94.16111000
34.30175781,-86.33295000
34.33227539,-83.03397000
34.36279297,-83.66699000
34.39331055,-89.60303000
34.42382813,-90.27001000
34.45434570,-85.97091000
34.48486328,-87.80784000
34.51538086,-96.10870000
34.54589844,-93.49933000
34.57641602,-86.46275000
34.60693359,-83.48181000
34.63745117,-83.71974000
34.66796875,-86.76456000
34.69848633,-85.21382000
34.72900391,-81.57884000
34.75952148,-80.73486000
34.79003906,-81.89153000
34.82055664,-82.48956000
34.85107422,-81.51823000
34.88159180,-81.67144000
34.91210938,-84.40289000
34.94262695,-89.61922000
34.97314453,-90.97856000
35.00366211,-88.85706000
35.03417969,-87.22252000
35.06469727,-86.27061000
35.09521484,-86.21560000
35.12573242,-86.77214000
35.15625000,-87.26118000
35.18676758,-87.47440000
35.21728516,-88.01828000
35.24780273,-88.30464000
35.27832031,-86.91285000
35.30883789,-85.51228000
35.33935547,-85.86433000
35.36987305,-88.90944000
35.40039063,-97.12581000
35.43090820,-101.41010000
35.46142578,-91.26823000
35.49194336,-88.12096000
35.52246094,-87.89236000
35.55297852,-86.58631000
35.58349609,-83.90807000
35.61401367,-83.79230000
35.64453125,-88.05238000
35.67504883,-99.89471000
35.70556641,-91.57430000
35.73608398,-87.22495000
35.76660156,-83.47103000
35.79711914,-81.53235000
35.82763672,-82.34795000
35.85815430,-87.33253000
35.88867188,-101.16420000
35.91918945,-87.10415000
35.94970703,-83.79588000
35.98022461,-83.07498000
36.01074219,-83.41406000
36.04125977,-85.26286000
36.07177734,-89.32652000
36.10229492,-88.68993000
36.13281250,-83.96489000
36.16333008,-81.52009000
36.19384766,-81.08736000
36.22436523,-82.02888000
36.25488281,-83.97166000
36.28540039,-87.51968000
36.31591797,-96.27081000
36.34643555,-93.58163000
36.37695313,-84.75055000
36.40747070,-82.03447000
36.43798828,-82.83974000
36.46850586,-87.13238000
36.49902344,-92.65196000
36.52954102,-89.87933000
36.56005859,-88.96781000
36.59057617,-92.39107000
36.62109375,-106.54910000
36.65161133,-93.38165000
36.68212891,-90.68466000
36.71264648,-93.78045000
36.74316406,-104.18350000
36.77368164,-110.83140000
36.80419922,-101.81960000
36.83471680,-95.06825000
36.86523438,-89.66512000
36.89575195,-86.49364000
36.92626953,-85.34748000
36.95678711,-85.28495000
36.98730469,-85.60090000
37.01782227,-87.14088000
37.04833984,-90.59926000
37.07885742,-93.86005000
37.10937500,-96.98678000
37.13989258,-105.56030000
37.17041016,-91.21117000
37.20092773,-86.44690000
37.23144531,-85.56047000
37.26196289,-87.05258000
37.29248047,-89.13667000
37.32299805,-89.08835000
37.35351563,-87.41340000
37.38403320,-87.34648000
37.41455078,-91.99642000
37.44506836,-96.80320000
37.47558594,-86.47350000
37.50610352,-83.67153000
37.53662109,-83.92288000
37.56713867,-85.42100000
37.59765625,-86.71741000
37.62817383,-87.74785000
37.65869141,-88.25378000
37.68920898,-87.62340000
37.71972656,-86.76240000
37.75024414,-86.70805000
37.78076172,-88.48512000
37.81127930,-93.82507000
37.84179688,-107.63630000
37.87231445,-94.76843000
37.90283203,-89.09260000
37.93334961,-87.18510000
37.96386719,-86.12331000
37.99438477,-84.08493000
38.02490234,-83.44170000
38.05541992,-85.79057000
38.08593750,-92.63745000
38.11645508,-94.98285000
38.14697266,-90.72601000
38.17749023,-89.82365000
38.20800781,-89.88944000
38.23852539,-92.27313000
38.26904297,-111.19170000
38.29956055,-88.53719000
38.33007813,-82.24308000
38.36059570,-79.42832000
38.39111328,-79.43237000
38.42163086,-83.09546000
38.45214844,-95.99937000
38.48266602,-90.36626000
38.51318359,-86.06512000
38.54370117,-85.92982000
38.57421875,-86.15597000
38.60473633,-86.97350000
38.63525391,-91.89674000
38.66577148,-98.41592000
38.69628906,-91.57081000
38.72680664,-88.86949000
38.75732422,-84.86098000
38.78784180,-82.27754000
38.81835938,-81.93905000
38.84887695,-83.44975000
38.87939453,-87.13016000
38.90991211,-97.39434000
38.94042969,-96.72829000
38.97094727,-92.58940000
39.00146484,-94.55021000
39.03198242,-90.80562000
39.06250000,-88.05362000
39.09301758,-87.47990000
39.12353516,-86.81797000
39.15405273,-86.19469000
39.18457031,-86.26886000
39.21508789,-86.13755000
39.24560547,-85.28059000
39.27612305,-84.77591000
39.30664063,-85.90137000
39.33715820,-90.21730000
39.36767578,-98.83411000
39.39819336,-95.23141000
39.42871094,-96.83191000
39.45922852,-91.11185000
39.48974609,-84.99413000
39.52026367,-82.97916000
39.55078125,-83.24630000
39.58129883,-83.88074000
39.61181641,-83.50521000
39.64233398,-82.26505000
39.67285156,-82.03511000
39.70336914,-84.66196000
39.73388672,-90.42024000
39.76440430,-87.88300000
39.79492188,-84.45403000
39.82543945,-83.47977000
39.85595703,-83.86787000
39.88647461,-84.53473000
39.91699219,-84.80325000
39.94750977,-86.09440000
39.97802734,-90.31187000
40.00854492,-94.74503000
40.03906250,-91.89496000
40.06958008,-93.18881000
40.10009766,-94.31156000
40.13061523,-92.00935000
40.16113281,-94.69753000
40.19165039,-89.33694000
40.22216797,-85.74521000
40.25268555,-86.87501000
40.28320313,-90.64761000
40.31372070,-91.84684000
40.34423828,-88.17226000
40.37475586,-85.34996000
40.40527344,-85.64849000
40.43579102,-88.24860000
40.46630859,-88.95840000
40.49682617,-88.97876000
40.52734375,-92.63870000
40.55786133,-97.21400000
40.58837891,-90.36877000
40.61889648,-86.27852000
40.64941406,-83.20790000
40.67993164,-80.85731000
40.71044922,-80.06344000
40.74096680,-81.48835000
40.77148438,-84.84742000
40.80200195,-85.60650000
40.83251953,-84.96780000
40.86303711,-86.99149000
40.89355469,-90.53285000
40.92407227,-92.21252000
40.95458984,-88.53219000
40.98510742,-85.73500000
41.01562500,-86.26751000
41.04614258,-88.43949000
41.07666016,-89.09976000
41.10717773,-89.32980000
41.13769531,-90.46112000
41.16821289,-91.28020000
41.19873047,-88.23431000
41.22924805,-85.25938000
41.25976563,-85.72221000
41.29028320,-91.78310000
41.32080078,-103.71850000
41.35131836,-94.56115000
41.38183594,-100.35130000
41.41235352,-100.05300000
41.44287109,-92.60833000
41.47338867,-92.97070000
41.50390625,-95.35449000
41.53442383,-92.06341000
41.56494141,-91.03156000
41.59545898,-92.82697000
41.62597656,-92.37065000
41.65649414,-87.15329000
41.68701172,-85.59454000
41.71752930,-85.72566000
41.74804688,-83.34164000
41.77856445,-83.00307000
41.80908203,-86.06398000
41.83959961,-89.40385000
41.87011719,-90.92406000
41.90063477,-89.73487000
41.93115234,-89.81117000
41.96166992,-95.56706000
41.99218750,-91.57997000
42.02270508,-87.31862000
42.05322266,-87.57376000
42.08374023,-90.92667000
42.11425781,-95.31691000
42.14477539,-94.02885000
42.17529297,-89.89632000
42.20581055,-87.88161000
42.23632813,-87.85835000
42.26684570,-87.51583000
42.29736328,-85.53687000
42.32788086,-83.17082000
42.35839844,-81.16304000
42.38891602,-79.89847000
42.41943359,-79.37927000
42.44995117,-79.36702000
42.48046875,-80.31823000
42.51098633,-83.28881000
42.54150391,-86.62155000
42.57202148,-85.09010000
42.60253906,-84.43141000
42.63305664,-85.51186000
42.66357422,-87.17157000
42.69409180,-89.62650000
42.72460938,-92.79581000
42.75512695,-93.95879000
42.78564453,-89.87128000
42.81616211,-88.54755000
42.84667969,-90.27724000
42.87719727,-91.14170000
42.90771484,-90.02697000
42.93823242,-88.83195000
42.96875000,-87.19409000
42.99926758,-86.63670000
43.02978516,-88.64761000
43.06030273,-92.84947000
43.09082031,-91.18443000
43.12133789,-86.71967000
43.15185547,-84.36343000
43.18237305,-83.97538000
43.21289063,-85.05470000
43.24340820,-85.61173000
43.27392578,-85.43210000
43.30444336,-86.07251000
43.33496094,-85.62927000
43.36547852,-84.36507000
43.39599609,-84.93745000
43.42651367,-89.35077000
43.45703125,-109.79390000
43.48754883,-89.36775000
43.51806641,-84.26231000
43.54858398,-82.70511000
43.57910156,-83.75548000
43.60961914,-86.71742000
43.64013672,-89.05212000
43.67065430,-91.46585000
43.70117188,-91.56773000
43.73168945,-90.73160000
43.76220703,-96.99863000
43.79272461,-96.82047000
43.82324219,-87.86651000
43.85375977,-85.31422000
43.88427734,-87.09261000
43.91479492,-98.28276000
43.94531250,-91.04062000
43.97583008,-86.59692000
44.00634766,-87.36106000
44.03686523,-91.85012000
44.06738281,-95.86060000
44.09790039,-89.73990000
44.12841797,-86.40422000
44.15893555,-86.23732000
44.18945313,-89.02732000
44.21997070,-93.87704000
44.25048828,-93.99283000
44.28100586,-89.74941000
44.31152344,-86.14009000
44.34204102,-83.04401000
44.37255859,-81.10794000
44.40307617,-80.58191000
44.43359375,-81.14411000
44.46411133,-82.54619000
44.49462891,-85.04731000
44.52514648,-89.17542000
44.55566406,-93.98891000
44.58618164,-93.89497000
44.61669922,-91.58983000
44.64721680,-93.93271000
44.67773438,-97.64245000
44.70825195,-86.97189000
44.73876953,-84.08349000
44.76928711,-85.30910000
44.79980469,-91.15144000
44.83032227,-95.15355000
44.86083984,-87.49572000
44.89135742,-85.99072000
44.92187500,-87.29207000
44.95239258,-88.69687000
44.98291016,-88.63831000
45.01342773,-88.66422000
45.04394531,-90.07979000
45.07446289,-90.15477000
45.10498047,-87.03990000
45.13549805,-85.66232000
45.16601563,-87.90178000
45.19653320,-96.71019000
45.22705078,-93.83338000
45.25756836,-91.28432000
45.28808594,-94.17855000
45.31860352,-93.32313000
45.34912109,-95.19791000
45.37963867,-106.27740000
45.41015625,-100.82500000
45.44067383,-98.58437000
45.47119141,-89.61359000
45.50170898,-86.61572000
45.53222656,-88.07740000
45.56274414,-93.81822000
45.59326172,-92.36175000
45.62377930,-88.93325000
45.65429688,-87.79897000
45.68481445,-86.78432000
45.71533203,-86.78302000
45.74584961,-87.73431000
45.77636719,-86.38268000
45.80688477,-84.49744000
45.83740234,-83.23615000
45.86791992,-82.20260000
45.89843750,-81.89868000
45.92895508,-83.04617000
45.95947266,-85.66266000
45.98999023,-88.77716000
46.02050781,-92.26587000
46.05102539,-94.97876000
46.08154297,-90.27523000
46.11206055,-87.27283000
46.14257813,-88.89534000
46.17309570,-101.81790000
46.20361328,-92.39570000
46.23413086,-86.91618000
46.26464844,-85.45364000
46.29516602,-84.33313000
46.32568359,-82.47221000
46.35620117,-82.09599000
46.38671875,-84.42020000
46.41723633,-87.90126000
46.44775391,-90.03003000
46.47827148,-93.46744000
46.50878906,-89.12452000
46.53930664,-85.14770000
46.56982422,-84.36583000
46.60034180,-84.71172000
46.63085938,-83.97744000
46.66137695,-84.24049000
46.69189453,-88.18462000
46.72241211,-97.07875000
46.75292969,-97.12287000
46.78344727,-100.92150000
46.81396484,-87.01875000
46.84448242,-82.79448000
46.87500000,-82.71458000
46.90551758,-85.90332000
46.93603516,-89.54272000
46.96655273,-89.08787000
46.99707031,-91.84078000
47.02758789,-100.63170000
47.05810547,-97.56281000
47.08862305,-92.25953000
47.11914063,-92.52747000
47.14965820,-93.03589000
47.18017578,-84.12064000
47.21069336,-80.74355000
47.24121094,-81.20746000
47.27172852,-84.76349000
47.30224609,-87.79518000
47.33276367,-86.05962000
47.36328125,-84.09108000
47.39379883,-82.59630000
47.42431641,-82.09592000
47.45483398,-83.02811000
47.48535156,-85.35635000
47.51586914,-87.59705000
47.54638672,-88.80108000
47.57690430,-91.58767000
47.60742188,-92.35867000
47.63793945,-87.50526000
47.66845703,-85.45788000
47.69897461,-86.30942000
47.72949219,-88.47102000
47.76000977,-90.74535000
47.79052734,-98.58578000
47.82104492,-95.43964000
47.85156250,-86.35140000
47.88208008,-83.06098000
47.91259766,-82.91910000
47.94311523,-86.02875000
47.97363281,-93.27696000
48.00415039,-90.29939000
48.03466797,-83.69408000
48.06518555,-79.82270000
48.09570313,-78.84604000
48.12622070,-80.62283000
48.15673828,-84.17871000
48.18725586,-87.69477000
48.21777344,-91.29790000
48.24829102,-97.10658000
48.27880859,-101.31160000
48.30932617,-90.94514000
48.33984375,-88.26730000
48.37036133,-88.56000000
48.40087891,-88.91078000
48.43139648,-87.91953000
48.46191406,-85.95321000
48.49243164,-84.40697000
48.52294922,-85.43417000
48.55346680,-91.69944000
48.58398438,-108.21740000
48.61450195,-96.31195000
48.64501953,-97.54836000
48.67553711,-94.77589000
48.70605469,-91.38854000
48.73657227,-87.69287000
48.76708984,-85.32658000
48.79760742,-84.56261000
48.82812500,-84.83369000
48.85864258,-85.36578000
48.88916016,-85.73427000
48.91967773,-85.89855000
48.95019531,-85.69994000
48.98071289,-85.49376000
49.01123047,-85.83665000
49.04174805,-86.55983000
49.07226563,-85.11446000
49.10278320,-81.04834000
49.13330078,-77.48490000
49.16381836,-75.88301000
49.19433594,-76.44252000
49.22485352,-79.14255000
49.25537109,-84.01096000
49.28588867,-91.03877000
49.31640625,-101.48690000
49.34692383,-106.73810000
49.37744141,-98.35234000
49.40795898,-96.44344000
49.43847656,-93.88871000
49.46899414,-95.89614000
49.49951172,-96.66762000
49.53002930,-89.18604000
49.56054688,-89.51394000
49.59106445,-98.54100000
49.62158203,-102.11260000
49.65209961,-94.00816000
49.68261719,-88.77402000
49.71313477,-87.23380000
49.74365234,-87.89384000
49.77416992,-89.57034000
49.80468750,-87.64136000
49.83520508,-84.30386000
49.86572266,-83.72926000
49.89624023,-84.66551000
49.92675781,-84.40350000
49.95727539,-82.41643000
49.98779297,-81.44174000
50.01831055,-83.35493000
