Frequency,Channel A
(MHz),(dBu)

0.00000000,-12.32505000
0.03051758,-12.64333000
0.06103516,-17.61617000
0.09155273,-26.54097000
0.12207031,-39.32099000
0.15258789,-46.91179000
0.18310547,-48.05763000
0.21362305,-51.18172000
0.24414063,-52.00009000
0.27465820,-51.55767000
0.30517578,-51.74522000
0.33569336,-50.49852000
0.36621094,-48.34922000
0.39672852,-46.41057000
0.42724609,-45.50002000
0.45776367,-46.32361000
0.48828125,-48.75883000
0.51879883,-51.20073000
0.54931641,-48.66229000
0.57983398,-43.85770000
0.61035156,-40.45443000
0.64086914,-38.95975000
0.67138672,-39.64525000
0.70190430,-42.77489000
0.73242188,-48.24671000
0.76293945,-53.45236000
0.79345703,-54.44343000
0.82397461,-54.25253000
0.85449219,-54.40452000
0.88500977,-54.75446000
0.91552734,-55.13567000
0.94604492,-55.34930000
0.97656250,-54.98133000
1.00708008,-54.18636000
1.03759766,-53.50697000
1.06811523,-53.02242000
1.09863281,-52.75932000
1.12915039,-52.99757000
1.15966797,-53.62058000
1.19018555,-54.09775000
1.22070313,-54.66282000
1.25122070,-55.32224000
1.28173828,-55.40672000
1.31225586,-55.10826000
1.34277344,-55.26729000
1.37329102,-56.57916000
1.40380859,-58.98878000
1.43432617,-60.88997000
1.46484375,-59.73243000
1.49536133,-57.64491000
1.52587891,-56.46505000
1.55639648,-56.21577000
1.58691406,-56.52238000
1.61743164,-56.71130000
1.64794922,-56.18404000
1.67846680,-55.31926000
1.70898438,-54.93653000
1.73950195,-55.26505000
1.77001953,-56.05576000
1.80053711,-56.98404000
1.83105469,-57.69825000
1.86157227,-57.82274000
1.89208984,-57.36080000
1.92260742,-56.80136000
1.95312500,-56.57402000
1.98364258,-56.61106000
2.01416016,-56.58129000
2.04467773,-56.40495000
2.07519531,-56.22107000
2.10571289,-56.19229000
2.13623047,-56.45150000
2.16674805,-56.95916000
2.19726563,-57.48804000
2.22778320,-57.96453000
2.25830078,-58.24359000
2.28881836,-57.73583000
2.31933594,-56.55168000
2.34985352,-55.79888000
2.38037109,-55.96760000
2.41088867,-56.79487000
2.44140625,-58.03670000
2.47192383,-59.42699000
2.50244141,-60.60243000
2.53295898,-61.30623000
2.56347656,-61.03548000
2.59399414,-60.11841000
2.62451172,-58.90225000
2.65502930,-57.28519000
2.68554688,-55.99995000
2.71606445,-55.85844000
2.74658203,-57.12352000
2.77709961,-59.57877000
2.80761719,-61.91722000
2.83813477,-61.90275000
2.86865234,-60.55096000
2.89916992,-59.18865000
2.92968750,-57.92506000
2.96020508,-56.88021000
2.99072266,-56.14865000
3.02124023,-55.77461000
3.05175781,-55.79832000
3.08227539,-56.18683000
3.11279297,-56.79153000
3.14331055,-57.36315000
3.17382813,-57.65240000
3.20434570,-57.49816000
3.23486328,-56.95612000
3.26538086,-56.48027000
3.29589844,-56.51329000
3.32641602,-57.08083000
3.35693359,-57.81049000
3.38745117,-58.17286000
3.41796875,-57.89699000
3.44848633,-57.26633000
3.47900391,-56.62363000
3.50952148,-56.04765000
3.54003906,-55.48414000
3.57055664,-54.86984000
3.60107422,-54.31940000
3.63159180,-54.00468000
3.66210938,-53.88637000
3.69262695,-53.76435000
3.72314453,-53.56092000
3.75366211,-53.33749000
3.78417969,-53.05818000
3.81469727,-52.59930000
3.84521484,-52.00271000
3.87573242,-51.47022000
3.90625000,-51.09948000
3.93676758,-50.86031000
3.96728516,-50.75889000
3.99780273,-50.90309000
4.02832031,-51.26303000
4.05883789,-51.50345000
4.08935547,-51.34692000
4.11987305,-50.91939000
4.15039063,-50.49516000
4.18090820,-50.25423000
4.21142578,-50.29683000
4.24194336,-50.63416000
4.27246094,-51.11943000
4.30297852,-51.55621000
4.33349609,-51.94340000
4.36401367,-52.38276000
4.39453125,-52.85641000
4.42504883,-53.28266000
4.45556641,-53.62165000
4.48608398,-53.87107000
4.51660156,-54.07198000
4.54711914,-54.41132000
4.57763672,-55.12916000
4.60815430,-56.09348000
4.63867188,-56.63616000
4.66918945,-56.32374000
4.69970703,-55.63015000
4.73022461,-55.19026000
4.76074219,-55.21380000
4.79125977,-55.65165000
4.82177734,-56.28010000
4.85229492,-56.68380000
4.88281250,-56.59481000
4.91333008,-56.24490000
4.94384766,-56.01971000
4.97436523,-55.98714000
5.00488281,-56.06967000
5.03540039,-56.43025000
5.06591797,-57.14640000
5.09643555,-57.70816000
5.12695313,-57.44878000
5.15747070,-56.58599000
5.18798828,-55.97517000
5.21850586,-56.05420000
5.24902344,-56.62579000
5.27954102,-57.27639000
5.31005859,-57.68856000
5.34057617,-57.56223000
5.37109375,-56.91998000
5.40161133,-56.21693000
5.43212891,-55.85203000
5.46264648,-56.08436000
5.49316406,-57.12952000
5.52368164,-58.85720000
5.55419922,-60.16161000
5.58471680,-59.92962000
5.61523438,-58.99841000
5.64575195,-58.41688000
5.67626953,-58.46898000
5.70678711,-58.68480000
5.73730469,-58.17208000
5.76782227,-56.95648000
5.79833984,-55.80232000
5.82885742,-55.04414000
5.85937500,-54.64108000
5.88989258,-54.48507000
5.92041016,-54.33269000
5.95092773,-53.82159000
5.98144531,-52.99321000
6.01196289,-52.25416000
6.04248047,-51.86623000
6.07299805,-51.90490000
6.10351563,-52.35184000
6.13403320,-53.02042000
6.16455078,-53.51048000
6.19506836,-53.46687000
6.22558594,-52.94357000
6.25610352,-52.33234000
6.28662109,-52.03474000
6.31713867,-52.30683000
6.34765625,-53.19941000
6.37817383,-54.48151000
6.40869141,-55.68993000
6.43920898,-56.43499000
6.46972656,-56.69401000
6.50024414,-56.75153000
6.53076172,-56.87658000
6.56127930,-57.31796000
6.59179688,-58.37258000
6.62231445,-60.10806000
6.65283203,-62.07394000
6.68334961,-63.30353000
6.71386719,-63.14511000
6.74438477,-62.24635000
6.77490234,-61.82825000
6.80541992,-62.67980000
6.83593750,-64.95163000
6.86645508,-67.99613000
6.89697266,-70.54688000
6.92749023,-71.74147000
6.95800781,-71.55074000
6.98852539,-70.83213000
7.01904297,-70.55861000
7.04956055,-71.35347000
7.08007813,-73.83107000
7.11059570,-79.06400000
7.14111328,-84.91199000
7.17163086,-85.21603000
7.20214844,-85.09099000
7.23266602,-75.72746000
7.26318359,-72.70818000
7.29370117,-74.15118000
7.32421875,-79.61008000
7.35473633,-83.03424000
7.38525391,-81.36836000
7.41577148,-83.18070000
7.44628906,-89.76749000
7.47680664,-104.10560000
7.50732422,-89.73167000
7.53784180,-85.39453000
7.56835938,-81.95156000
7.59887695,-79.03009000
7.62939453,-76.20957000
7.65991211,-74.24975000
7.69042969,-73.63296000
7.72094727,-74.25526000
7.75146484,-75.47268000
7.78198242,-75.81910000
7.81250000,-74.87035000
7.84301758,-73.82709000
7.87353516,-73.43152000
7.90405273,-73.41531000
7.93457031,-72.61857000
7.96508789,-70.51730000
7.99560547,-68.19547000
8.02612305,-66.70363000
8.05664063,-66.07457000
8.08715820,-66.17820000
8.11767578,-67.39125000
8.14819336,-69.70211000
8.17871094,-71.57104000
8.20922852,-71.45456000
8.23974609,-69.80849000
8.27026367,-67.60837000
8.30078125,-65.98145000
8.33129883,-65.59730000
8.36181641,-66.49258000
8.39233398,-68.12333000
8.42285156,-69.67967000
8.45336914,-70.02189000
8.48388672,-68.81006000
8.51440430,-67.61327000
8.54492188,-67.35969000
8.57543945,-68.20599000
8.60595703,-69.43760000
8.63647461,-69.53104000
8.66699219,-68.79015000
8.69750977,-68.32363000
8.72802734,-68.01718000
8.75854492,-67.47406000
8.78906250,-67.06107000
8.81958008,-67.38786000
8.85009766,-68.52695000
8.88061523,-70.08718000
8.91113281,-71.52467000
8.94165039,-72.46361000
8.97216797,-72.56695000
9.00268555,-72.35960000
9.03320313,-73.26936000
9.06372070,-75.20699000
9.09423828,-76.07471000
9.12475586,-77.29232000
9.15527344,-81.19962000
9.18579102,-83.06687000
9.21630859,-79.68559000
9.24682617,-77.38344000
9.27734375,-77.43082000
9.30786133,-79.31944000
9.33837891,-79.32057000
9.36889648,-80.10921000
9.39941406,-85.99046000
9.42993164,-84.72002000
9.46044922,-78.51515000
9.49096680,-75.72108000
9.52148438,-75.23919000
9.55200195,-76.30784000
9.58251953,-77.89317000
9.61303711,-78.79607000
9.64355469,-79.21092000
9.67407227,-81.61706000
9.70458984,-86.50876000
9.73510742,-90.73705000
9.76562500,-88.89563000
9.79614258,-84.29680000
9.82666016,-80.88562000
9.85717773,-78.27742000
9.88769531,-76.86108000
9.91821289,-76.53345000
9.94873047,-75.65102000
9.97924805,-74.94033000
10.00976563,-77.43683000
10.04028320,-87.17674000
10.07080078,-88.61742000
10.10131836,-86.68397000
10.13183594,-84.46265000
10.16235352,-77.90040000
10.19287109,-74.14158000
10.22338867,-73.58590000
10.25390625,-77.29740000
10.28442383,-82.09477000
10.31494141,-78.55088000
10.34545898,-79.89720000
10.37597656,-83.72386000
10.40649414,-83.84899000
10.43701172,-81.06506000
10.46752930,-78.57719000
10.49804688,-73.89981000
10.52856445,-70.84108000
10.55908203,-69.93413000
10.58959961,-70.05046000
10.62011719,-70.49121000
10.65063477,-71.30701000
10.68115234,-72.27837000
10.71166992,-72.85999000
10.74218750,-72.36668000
10.77270508,-70.56371000
10.80322266,-68.59557000
10.83374023,-67.81243000
10.86425781,-68.93303000
10.89477539,-71.35005000
10.92529297,-73.09882000
10.95581055,-74.54034000
10.98632813,-74.49527000
11.01684570,-73.28899000
11.04736328,-73.08600000
11.07788086,-73.69386000
11.10839844,-74.54444000
11.13891602,-74.30887000
11.16943359,-72.38160000
11.19995117,-70.27531000
11.23046875,-69.02818000
11.26098633,-68.44893000
11.29150391,-68.33955000
11.32202148,-68.97916000
11.35253906,-70.64114000
11.38305664,-72.76137000
11.41357422,-74.11604000
11.44409180,-73.14928000
11.47460938,-70.89999000
11.50512695,-70.01182000
11.53564453,-71.32098000
11.56616211,-75.18401000
11.59667969,-76.83888000
11.62719727,-72.60505000
11.65771484,-71.85764000
11.68823242,-75.96525000
11.71875000,-88.16603000
11.74926758,-81.39009000
11.77978516,-77.62331000
11.81030273,-76.90191000
11.84082031,-80.93010000
11.87133789,-79.69808000
11.90185547,-74.78862000
11.93237305,-74.52076000
11.96289063,-77.82695000
11.99340820,-85.00134000
12.02392578,-79.75023000
12.05444336,-75.60760000
12.08496094,-75.39207000
12.11547852,-77.39863000
12.14599609,-77.45315000
12.17651367,-74.54385000
12.20703125,-73.45053000
12.23754883,-74.46542000
12.26806641,-75.32722000
12.29858398,-76.04869000
12.32910156,-78.81532000
12.35961914,-81.59438000
12.39013672,-82.83205000
12.42065430,-87.80522000
12.45117188,-88.24707000
12.48168945,-82.84389000
12.51220703,-81.46690000
12.54272461,-77.39294000
12.57324219,-72.80912000
12.60375977,-71.23618000
12.63427734,-72.29623000
12.66479492,-74.43265000
12.69531250,-78.58525000
12.72583008,-79.77801000
12.75634766,-75.53344000
12.78686523,-75.14085000
12.81738281,-76.78124000
12.84790039,-79.21416000
12.87841797,-82.35007000
12.90893555,-82.62625000
12.93945313,-78.63731000
12.96997070,-75.67889000
13.00048828,-76.67433000
13.03100586,-84.60128000
13.06152344,-91.27856000
13.09204102,-85.39777000
13.12255859,-86.73862000
13.15307617,-84.02871000
13.18359375,-80.47443000
13.21411133,-79.72722000
13.24462891,-81.54153000
13.27514648,-83.38233000
13.30566406,-80.24773000
13.33618164,-77.84934000
13.36669922,-77.97076000
13.39721680,-79.31786000
13.42773438,-79.01040000
13.45825195,-74.79473000
13.48876953,-69.27737000
13.51928711,-65.09051000
13.54980469,-63.12693000
13.58032227,-63.69983000
13.61083984,-66.95077000
13.64135742,-72.68119000
13.67187500,-80.07684000
13.70239258,-85.64767000
13.73291016,-78.29478000
13.76342773,-74.34286000
13.79394531,-74.16759000
13.82446289,-75.26185000
13.85498047,-74.71508000
13.88549805,-74.85301000
13.91601563,-76.11394000
13.94653320,-76.90633000
13.97705078,-77.65496000
14.00756836,-79.81270000
14.03808594,-84.46455000
14.06860352,-86.76289000
14.09912109,-83.61022000
14.12963867,-84.64401000
14.16015625,-94.72751000
14.19067383,-84.50043000
14.22119141,-79.54716000
14.25170898,-78.20710000
14.28222656,-79.90403000
14.31274414,-84.02726000
14.34326172,-81.79348000
14.37377930,-80.79004000
14.40429688,-81.91055000
14.43481445,-79.31663000
14.46533203,-78.66708000
14.49584961,-81.31471000
14.52636719,-82.25621000
14.55688477,-80.21205000
14.58740234,-78.63367000
14.61791992,-77.52240000
14.64843750,-76.48894000
14.67895508,-75.59717000
14.70947266,-75.42004000
14.73999023,-76.18746000
14.77050781,-78.49105000
14.80102539,-84.02281000
14.83154297,-84.11515000
14.86206055,-79.88962000
14.89257813,-79.48048000
14.92309570,-81.57878000
14.95361328,-86.80803000
14.98413086,-97.13922000
15.01464844,-84.36993000
15.04516602,-79.85499000
15.07568359,-78.91555000
15.10620117,-82.04743000
15.13671875,-85.93941000
15.16723633,-80.29602000
15.19775391,-77.85960000
15.22827148,-76.70525000
15.25878906,-74.88265000
15.28930664,-73.50587000
15.31982422,-73.97955000
15.35034180,-76.10043000
15.38085938,-78.78262000
15.41137695,-80.86287000
15.44189453,-80.87180000
15.47241211,-78.93286000
15.50292969,-76.74847000
15.53344727,-75.84695000
15.56396484,-77.40650000
15.59448242,-81.86678000
15.62500000,-85.54027000
15.65551758,-83.23174000
15.68603516,-83.67286000
15.71655273,-93.16833000
15.74707031,-88.44267000
15.77758789,-82.74736000
15.80810547,-84.01930000
15.83862305,-88.07089000
15.86914063,-81.25697000
15.89965820,-77.73013000
15.93017578,-77.65800000
15.96069336,-80.21938000
15.99121094,-84.19755000
16.02172852,-84.58765000
16.05224609,-81.92218000
16.08276367,-79.70326000
16.11328125,-78.26676000
16.14379883,-77.71496000
16.17431641,-78.27028000
16.20483398,-80.18318000
16.23535156,-83.84193000
16.26586914,-90.00354000
16.29638672,-93.75800000
16.32690430,-87.75127000
16.35742188,-82.67397000
16.38793945,-79.75414000
16.41845703,-78.80576000
16.44897461,-79.40244000
16.47949219,-79.28107000
16.51000977,-77.83438000
16.54052734,-77.53436000
16.57104492,-78.70937000
16.60156250,-80.09712000
16.63208008,-80.66737000
16.66259766,-81.73013000
16.69311523,-85.89260000
16.72363281,-100.64870000
16.75415039,-86.63212000
16.78466797,-82.34071000
16.81518555,-81.77608000
16.84570313,-84.39488000
16.87622070,-89.88402000
16.90673828,-92.47585000
16.93725586,-90.23836000
16.96777344,-86.56932000
16.99829102,-84.50018000
17.02880859,-82.39745000
17.05932617,-79.94167000
17.08984375,-80.05001000
17.12036133,-83.72000000
17.15087891,-87.28931000
17.18139648,-84.54487000
17.21191406,-83.17758000
17.24243164,-83.72789000
17.27294922,-84.17206000
17.30346680,-85.51944000
17.33398438,-87.52759000
17.36450195,-87.33184000
17.39501953,-84.98249000
17.42553711,-82.95128000
17.45605469,-82.25404000
17.48657227,-82.30907000
17.51708984,-83.17905000
17.54760742,-84.61450000
17.57812500,-83.63835000
17.60864258,-81.92936000
17.63916016,-79.71403000
17.66967773,-74.88321000
17.70019531,-70.33871000
17.73071289,-68.34792000
17.76123047,-68.78711000
17.79174805,-69.81831000
17.82226563,-70.51356000
17.85278320,-72.96134000
17.88330078,-78.30459000
17.91381836,-85.80420000
17.94433594,-87.13398000
17.97485352,-86.06254000
18.00537109,-88.53532000
18.03588867,-90.71342000
18.06640625,-86.46378000
18.09692383,-88.15585000
18.12744141,-105.47530000
18.15795898,-88.17860000
18.18847656,-84.72934000
18.21899414,-84.65967000
18.24951172,-87.43105000
18.28002930,-95.49075000
18.31054688,-91.75964000
18.34106445,-86.24464000
18.37158203,-86.30555000
18.40209961,-89.58771000
18.43261719,-89.14262000
18.46313477,-85.23102000
18.49365234,-83.00398000
18.52416992,-82.21879000
18.55468750,-83.05188000
18.58520508,-86.73088000
18.61572266,-93.25630000
18.64624023,-89.88889000
18.67675781,-87.21191000
18.70727539,-86.52385000
18.73779297,-85.78521000
18.76831055,-84.95613000
18.79882813,-85.00040000
18.82934570,-85.61481000
18.85986328,-83.96455000
18.89038086,-80.81865000
18.92089844,-79.38039000
18.95141602,-80.38903000
18.98193359,-83.81906000
19.01245117,-88.92066000
19.04296875,-94.27876000
19.07348633,-98.07063000
19.10400391,-93.24973000
19.13452148,-88.91216000
19.16503906,-88.53447000
19.19555664,-89.72744000
19.22607422,-87.58363000
19.25659180,-85.53648000
19.28710938,-85.36736000
19.31762695,-85.46094000
19.34814453,-86.38034000
19.37866211,-89.25980000
19.40917969,-86.46204000
19.43969727,-85.38672000
19.47021484,-87.18053000
19.50073242,-86.42796000
19.53125000,-86.01273000
19.56176758,-87.62130000
19.59228516,-86.46324000
19.62280273,-82.90963000
19.65332031,-83.08141000
19.68383789,-88.02884000
19.71435547,-99.75567000
19.74487305,-98.33070000
19.77539063,-97.13390000
19.80590820,-97.39163000
19.83642578,-95.49086000
19.86694336,-91.72772000
19.89746094,-89.29585000
19.92797852,-87.98290000
19.95849609,-85.86757000
19.98901367,-85.81582000
20.01953125,-91.73268000
20.05004883,-89.38573000
20.08056641,-83.77900000
20.11108398,-82.85422000
20.14160156,-84.72945000
20.17211914,-89.78940000
20.20263672,-102.88610000
20.23315430,-102.85620000
20.26367188,-99.09280000
20.29418945,-97.13527000
20.32470703,-93.84589000
20.35522461,-89.62485000
20.38574219,-86.58729000
20.41625977,-85.37823000
20.44677734,-85.72667000
20.47729492,-87.04422000
20.50781250,-86.16359000
20.53833008,-84.46866000
20.56884766,-86.20105000
20.59936523,-90.13278000
20.62988281,-87.22066000
20.66040039,-85.86388000
20.69091797,-87.65362000
20.72143555,-90.93671000
20.75195313,-92.24023000
20.78247070,-86.92789000
20.81298828,-82.49412000
20.84350586,-80.92700000
20.87402344,-80.68568000
20.90454102,-80.32520000
20.93505859,-80.74431000
20.96557617,-83.82610000
20.99609375,-90.62725000
21.02661133,-95.30992000
21.05712891,-94.29247000
21.08764648,-87.68814000
21.11816406,-84.02420000
21.14868164,-83.01715000
21.17919922,-83.50264000
21.20971680,-84.17800000
21.24023438,-83.97403000
21.27075195,-83.61441000
21.30126953,-84.69348000
21.33178711,-86.99205000
21.36230469,-87.16694000
21.39282227,-85.82261000
21.42333984,-85.23277000
21.45385742,-84.71233000
21.48437500,-82.92975000
21.51489258,-80.98492000
21.54541016,-79.29163000
21.57592773,-78.69707000
21.60644531,-80.31757000
21.63696289,-84.24613000
21.66748047,-88.23659000
21.69799805,-89.53831000
21.72851563,-90.81371000
21.75903320,-97.73515000
21.78955078,-97.42554000
21.82006836,-90.47543000
21.85058594,-93.82256000
21.88110352,-103.88200000
21.91162109,-93.85016000
21.94213867,-88.13496000
21.97265625,-83.27038000
22.00317383,-82.33929000
22.03369141,-85.71111000
22.06420898,-96.36232000
22.09472656,-99.30217000
22.12524414,-90.63441000
22.15576172,-86.68887000
22.18627930,-86.79115000
22.21679688,-88.71225000
22.24731445,-85.48690000
22.27783203,-83.07742000
22.30834961,-83.51243000
22.33886719,-87.15257000
22.36938477,-97.35221000
22.39990234,-100.01790000
22.43041992,-103.27630000
22.46093750,-90.32887000
22.49145508,-84.61627000
22.52197266,-84.41315000
22.55249023,-88.70957000
22.58300781,-94.11296000
22.61352539,-90.38342000
22.64404297,-88.38646000
22.67456055,-88.70828000
22.70507813,-90.74254000
22.73559570,-94.59639000
22.76611328,-98.88966000
22.79663086,-92.32486000
22.82714844,-87.08817000
22.85766602,-84.79713000
22.88818359,-84.89574000
22.91870117,-87.80919000
22.94921875,-95.51647000
22.97973633,-93.52791000
23.01025391,-88.00601000
23.04077148,-86.63783000
23.07128906,-87.96344000
23.10180664,-89.28752000
23.13232422,-86.84676000
23.16284180,-84.46909000
23.19335938,-83.47648000
23.22387695,-83.72608000
23.25439453,-85.70807000
23.28491211,-88.98828000
23.31542969,-87.61940000
23.34594727,-85.55656000
23.37646484,-85.29657000
23.40698242,-86.11655000
23.43750000,-89.30098000
23.46801758,-96.64219000
23.49853516,-90.70399000
23.52905273,-89.05055000
23.55957031,-87.36087000
23.59008789,-84.93064000
23.62060547,-85.15723000
23.65112305,-88.40042000
23.68164063,-96.28233000
23.71215820,-92.70374000
23.74267578,-89.09348000
23.77319336,-90.59088000
23.80371094,-98.97583000
23.83422852,-91.26114000
23.86474609,-86.50069000
23.89526367,-86.53453000
23.92578125,-89.30090000
23.95629883,-88.18465000
23.98681641,-86.14252000
24.01733398,-87.85470000
24.04785156,-94.82581000
24.07836914,-89.61241000
24.10888672,-86.00091000
24.13940430,-86.55277000
24.16992188,-90.08445000
24.20043945,-98.67209000
24.23095703,-94.85612000
24.26147461,-88.49731000
24.29199219,-87.76526000
24.32250977,-91.55838000
24.35302734,-95.01171000
24.38354492,-89.29173000
24.41406250,-85.78314000
24.44458008,-85.60983000
24.47509766,-89.82788000
24.50561523,-100.08990000
24.53613281,-91.56970000
24.56665039,-89.41238000
24.59716797,-88.64362000
24.62768555,-86.76498000
24.65820313,-87.15106000
24.68872070,-89.66415000
24.71923828,-87.36327000
24.74975586,-85.17010000
24.78027344,-84.89921000
24.81079102,-85.47392000
24.84130859,-86.43825000
24.87182617,-86.65237000
24.90234375,-86.54937000
24.93286133,-88.72813000
24.96337891,-94.63780000
24.99389648,-95.16091000
25.02441406,-89.94607000
25.05493164,-86.18660000
25.08544922,-84.07243000
25.11596680,-84.29257000
25.14648438,-86.88434000
25.17700195,-90.14813000
25.20751953,-90.34337000
25.23803711,-88.99098000
25.26855469,-89.41089000
25.29907227,-92.28443000
25.32958984,-93.49075000
25.36010742,-90.88727000
25.39062500,-89.60455000
25.42114258,-89.11396000
25.45166016,-89.26111000
25.48217773,-88.76217000
25.51269531,-86.40366000
25.54321289,-84.99901000
25.57373047,-85.48079000
25.60424805,-87.13929000
25.63476563,-89.40599000
25.66528320,-92.27756000
25.69580078,-93.29678000
25.72631836,-90.65670000
25.75683594,-89.16467000
25.78735352,-88.66528000
25.81787109,-87.34600000
25.84838867,-85.34389000
25.87890625,-83.84906000
25.90942383,-82.93280000
25.93994141,-82.18822000
25.97045898,-81.58537000
26.00097656,-81.60239000
26.03149414,-82.76173000
26.06201172,-84.23560000
26.09252930,-83.57420000
26.12304688,-83.01019000
26.15356445,-84.61124000
26.18408203,-87.67979000
26.21459961,-89.69397000
26.24511719,-89.76261000
26.27563477,-89.75491000
26.30615234,-87.26356000
26.33666992,-84.04456000
26.36718750,-83.20693000
26.39770508,-84.46196000
26.42822266,-87.30785000
26.45874023,-92.68929000
26.48925781,-93.26492000
26.51977539,-88.83818000
26.55029297,-88.22121000
26.58081055,-88.37132000
26.61132813,-85.98873000
26.64184570,-84.68472000
26.67236328,-86.05214000
26.70288086,-90.37607000
26.73339844,-97.68372000
26.76391602,-105.84180000
26.79443359,-97.64809000
26.82495117,-88.97622000
26.85546875,-86.02711000
26.88598633,-85.68592000
26.91650391,-86.13974000
26.94702148,-85.92691000
26.97753906,-84.48052000
27.00805664,-82.55230000
27.03857422,-81.29913000
27.06909180,-81.63811000
27.09960938,-84.66816000
27.13012695,-94.04327000
27.16064453,-90.28793000
27.19116211,-83.82648000
27.22167969,-82.05639000
27.25219727,-83.28290000
27.28271484,-87.99805000
27.31323242,-95.55760000
27.34375000,-89.78031000
27.37426758,-85.99143000
27.40478516,-84.61983000
27.43530273,-85.05443000
27.46582031,-86.16385000
27.49633789,-86.49095000
27.52685547,-87.58933000
27.55737305,-90.57311000
27.58789063,-91.18951000
27.61840820,-90.63689000
27.64892578,-94.00578000
27.67944336,-95.72882000
27.70996094,-91.31039000
27.74047852,-90.93957000
27.77099609,-89.76405000
27.80151367,-86.37885000
27.83203125,-85.85410000
27.86254883,-89.17060000
27.89306641,-95.60519000
27.92358398,-91.00445000
27.95410156,-86.04929000
27.98461914,-83.60822000
28.01513672,-83.41798000
28.04565430,-84.61707000
28.07617188,-84.92975000
28.10668945,-83.42418000
28.13720703,-81.50673000
28.16772461,-80.53020000
28.19824219,-80.99114000
28.22875977,-83.31606000
28.25927734,-87.75478000
28.28979492,-90.88828000
28.32031250,-90.77773000
28.35083008,-89.67342000
28.38134766,-86.48343000
28.41186523,-84.28749000
28.44238281,-83.57338000
28.47290039,-84.37733000
28.50341797,-87.49385000
28.53393555,-92.50368000
28.56445313,-91.09447000
28.59497070,-90.69069000
28.62548828,-94.84711000
28.65600586,-95.41210000
28.68652344,-90.40839000
28.71704102,-86.00481000
28.74755859,-83.78461000
28.77807617,-84.73365000
28.80859375,-89.73192000
28.83911133,-87.65385000
28.86962891,-83.31689000
28.90014648,-83.91161000
28.93066406,-90.53931000
28.96118164,-88.71201000
28.99169922,-84.10817000
29.02221680,-83.70416000
29.05273438,-83.60156000
29.08325195,-82.85134000
29.11376953,-83.45361000
29.14428711,-86.04590000
29.17480469,-89.81655000
29.20532227,-91.94825000
29.23583984,-91.53772000
29.26635742,-91.11965000
29.29687500,-93.51242000
29.32739258,-100.97830000
29.35791016,-91.30388000
29.38842773,-84.60399000
29.41894531,-82.28241000
29.44946289,-83.68592000
29.47998047,-89.66286000
29.51049805,-94.25243000
29.54101563,-87.39656000
29.57153320,-84.75760000
29.60205078,-84.54564000
29.63256836,-86.47567000
29.66308594,-90.35030000
29.69360352,-92.76488000
29.72412109,-96.39359000
29.75463867,-97.89897000
29.78515625,-87.43192000
29.81567383,-86.96824000
29.84619141,-99.05982000
29.87670898,-89.35531000
29.90722656,-85.01140000
29.93774414,-85.59415000
29.96826172,-87.39275000
29.99877930,-86.84785000
30.02929688,-84.26614000
30.05981445,-82.45872000
30.09033203,-82.61551000
30.12084961,-85.13547000
30.15136719,-90.01289000
30.18188477,-94.83064000
30.21240234,-92.70400000
30.24291992,-88.56006000
30.27343750,-85.41061000
30.30395508,-83.54095000
30.33447266,-83.07133000
30.36499023,-83.70795000
30.39550781,-85.51613000
30.42602539,-90.89301000
30.45654297,-94.13155000
30.48706055,-86.29330000
30.51757813,-84.39057000
30.54809570,-86.07336000
30.57861328,-90.31380000
30.60913086,-92.31126000
30.63964844,-88.59264000
30.67016602,-85.64228000
30.70068359,-85.99718000
30.73120117,-90.12389000
30.76171875,-93.97997000
30.79223633,-92.71130000
30.82275391,-95.48183000
30.85327148,-107.17720000
30.88378906,-92.66971000
30.91430664,-86.96087000
30.94482422,-83.69224000
30.97534180,-82.35653000
31.00585938,-83.15388000
31.03637695,-84.46014000
31.06689453,-83.56526000
31.09741211,-82.33519000
31.12792969,-83.00467000
31.15844727,-86.29479000
31.18896484,-90.73685000
31.21948242,-89.65302000
31.25000000,-86.70554000
31.28051758,-85.65358000
31.31103516,-87.29142000
31.34155273,-92.19811000
31.37207031,-96.37811000
31.40258789,-95.55113000
31.43310547,-85.35714000
31.46362305,-81.63258000
31.49414063,-82.89206000
31.52465820,-92.30731000
31.55517578,-91.50051000
31.58569336,-85.90522000
31.61621094,-86.14501000
31.64672852,-86.60667000
31.67724609,-85.25377000
31.70776367,-84.69875000
31.73828125,-86.44357000
31.76879883,-90.85825000
31.79931641,-96.25304000
31.82983398,-90.68134000
31.86035156,-86.28215000
31.89086914,-84.36538000
31.92138672,-83.74706000
31.95190430,-83.79034000
31.98242188,-84.19549000
32.01293945,-84.03481000
32.04345703,-83.65974000
32.07397461,-84.88177000
32.10449219,-88.64986000
32.13500977,-88.52714000
32.16552734,-84.21037000
32.19604492,-83.13767000
32.22656250,-84.68472000
32.25708008,-87.22989000
32.28759766,-88.75226000
32.31811523,-88.90939000
32.34863281,-89.09079000
32.37915039,-91.54480000
32.40966797,-97.90060000
32.44018555,-99.87752000
32.47070313,-110.18540000
32.50122070,-93.32089000
32.53173828,-88.68240000
32.56225586,-88.02562000
32.59277344,-88.20535000
32.62329102,-87.86968000
32.65380859,-87.54527000
32.68432617,-87.61918000
32.71484375,-87.29107000
32.74536133,-85.80289000
32.77587891,-84.95891000
32.80639648,-86.65572000
32.83691406,-92.18832000
32.86743164,-94.27045000
32.89794922,-91.21329000
32.92846680,-92.15546000
32.95898438,-99.05983000
32.98950195,-97.93756000
33.02001953,-90.14967000
33.05053711,-85.69019000
33.08105469,-84.25515000
33.11157227,-85.82829000
33.14208984,-86.19069000
33.17260742,-83.08588000
33.20312500,-81.79119000
33.23364258,-82.85838000
33.26416016,-85.67326000
33.29467773,-88.64994000
33.32519531,-90.09884000
33.35571289,-88.85458000
33.38623047,-86.13002000
33.41674805,-84.57673000
33.44726563,-84.19468000
33.47778320,-84.42360000
33.50830078,-84.44601000
33.53881836,-83.84093000
33.56933594,-83.45175000
33.59985352,-84.02409000
33.63037109,-85.96301000
33.66088867,-89.66103000
33.69140625,-92.69063000
33.72192383,-89.53324000
33.75244141,-84.98993000
33.78295898,-82.81655000
33.81347656,-82.63644000
33.84399414,-83.32887000
33.87451172,-84.63109000
33.90502930,-87.71386000
33.93554688,-94.75038000
33.96606445,-95.05082000
33.99658203,-92.54798000
34.02709961,-94.80424000
34.05761719,-99.44022000
34.08813477,-102.33230000
34.11865234,-112.74610000
34.14916992,-96.28275000
34.17968750,-92.46005000
34.21020508,-92.60662000
34.24072266,-93.85182000
34.27124023,-97.07053000
34.30175781,-97.75038000
34.33227539,-87.99046000
34.36279297,-83.30542000
34.39331055,-82.13889000
34.42382813,-84.46430000
34.45434570,-88.22880000
34.48486328,-84.99648000
34.51538086,-84.27959000
34.54589844,-86.34360000
34.57641602,-84.86869000
34.60693359,-82.69391000
34.63745117,-82.63233000
34.66796875,-84.64372000
34.69848633,-87.51647000
34.72900391,-86.52061000
34.75952148,-83.51991000
34.79003906,-81.70875000
34.82055664,-81.96230000
34.85107422,-84.55222000
34.88159180,-88.80466000
34.91210938,-88.70727000
34.94262695,-85.20026000
34.97314453,-84.24695000
35.00366211,-86.21535000
35.03417969,-90.37611000
35.06469727,-93.51124000
35.09521484,-92.87113000
35.12573242,-93.93497000
35.15625000,-100.56300000
35.18676758,-109.43590000
35.21728516,-101.15990000
35.24780273,-92.72038000
35.27832031,-89.68753000
35.30883789,-91.36313000
35.33935547,-92.96879000
35.36987305,-87.43097000
35.40039063,-84.84828000
35.43090820,-84.41001000
35.46142578,-83.81604000
35.49194336,-82.24974000
35.52246094,-81.39429000
35.55297852,-82.09097000
35.58349609,-84.10766000
35.61401367,-86.57723000
35.64453125,-88.66162000
35.67504883,-90.70939000
35.70556641,-92.05407000
35.73608398,-88.22120000
35.76660156,-84.06140000
35.79711914,-82.18841000
35.82763672,-82.56860000
35.85815430,-85.37322000
35.88867188,-92.25534000
35.91918945,-102.76250000
35.94970703,-90.99615000
35.98022461,-87.56697000
36.01074219,-87.88189000
36.04125977,-92.33836000
36.07177734,-90.34043000
36.10229492,-86.93591000
36.13281250,-87.61351000
36.16333008,-90.47231000
36.19384766,-91.61617000
36.22436523,-89.39067000
36.25488281,-87.18587000
36.28540039,-86.70441000
36.31591797,-87.50335000
36.34643555,-89.30188000
36.37695313,-94.47336000
36.40747070,-122.65940000
36.43798828,-96.29216000
36.46850586,-91.81133000
36.49902344,-87.95371000
36.52954102,-85.66670000
36.56005859,-86.41082000
36.59057617,-91.78020000
36.62109375,-110.50880000
36.65161133,-95.28510000
36.68212891,-94.95457000
36.71264648,-104.63380000
36.74316406,-91.28693000
36.77368164,-84.78429000
36.80419922,-82.54161000
36.83471680,-83.29377000
36.86523438,-86.90833000
36.89575195,-92.78600000
36.92626953,-91.38192000
36.95678711,-86.87049000
36.98730469,-84.01553000
37.01782227,-82.63017000
37.04833984,-82.77734000
37.07885742,-84.25151000
37.10937500,-86.13007000
37.13989258,-87.75536000
37.17041016,-89.54967000
37.20092773,-89.08276000
37.23144531,-85.51342000
37.26196289,-83.06428000
37.29248047,-82.61520000
37.32299805,-84.59602000
37.35351563,-90.50278000
37.38403320,-92.97153000
37.41455078,-86.98372000
37.44506836,-84.70869000
37.47558594,-84.20262000
37.50610352,-84.92853000
37.53662109,-86.46770000
37.56713867,-86.70369000
37.59765625,-83.33226000
37.62817383,-80.06721000
37.65869141,-78.78503000
37.68920898,-79.56583000
37.71972656,-81.94608000
37.75024414,-84.85131000
37.78076172,-89.00582000
37.81127930,-104.85680000
37.84179688,-92.26875000
37.87231445,-87.73392000
37.90283203,-87.16587000
37.93334961,-87.60829000
37.96386719,-88.57607000
37.99438477,-89.15214000
38.02490234,-89.26223000
38.05541992,-89.91930000
38.08593750,-90.33051000
38.11645508,-91.22272000
38.14697266,-96.63288000
38.17749023,-93.41134000
38.20800781,-85.59286000
38.23852539,-83.13141000
38.26904297,-84.03907000
38.29956055,-88.71977000
38.33007813,-105.15840000
38.36059570,-90.77747000
38.39111328,-85.88438000
38.42163086,-85.47997000
38.45214844,-90.46815000
38.48266602,-97.83891000
38.51318359,-87.49115000
38.54370117,-85.65198000
38.57421875,-87.84274000
38.60473633,-90.79171000
38.63525391,-86.88847000
38.66577148,-84.15355000
38.69628906,-83.78595000
38.72680664,-85.48951000
38.75732422,-89.07719000
38.78784180,-93.70029000
38.81835938,-98.26321000
38.84887695,-107.61460000
38.87939453,-100.36720000
38.90991211,-93.15552000
38.94042969,-89.40685000
38.97094727,-85.87312000
39.00146484,-83.01826000
39.03198242,-82.84721000
39.06250000,-85.69081000
39.09301758,-88.77420000
39.12353516,-88.51691000
39.15405273,-87.90481000
39.18457031,-87.69646000
39.21508789,-85.70113000
39.24560547,-83.22781000
39.27612305,-83.19403000
39.30664063,-87.67014000
39.33715820,-102.51560000
39.36767578,-89.17416000
39.39819336,-88.97876000
39.42871094,-93.30742000
39.45922852,-86.79140000
39.48974609,-83.09098000
39.52026367,-82.32848000
39.55078125,-83.29114000
39.58129883,-85.03394000
39.61181641,-85.36068000
39.64233398,-84.26601000
39.67285156,-83.42033000
39.70336914,-82.64645000
39.73388672,-81.54207000
39.76440430,-80.49426000
39.79492188,-80.17970000
39.82543945,-81.01895000
39.85595703,-83.64413000
39.88647461,-89.30184000
39.91699219,-101.23170000
39.94750977,-97.58118000
39.97802734,-88.84241000
40.00854492,-85.82175000
40.03906250,-85.48300000
40.06958008,-87.97787000
40.10009766,-95.39681000
40.13061523,-94.81339000
40.16113281,-92.00815000
40.19165039,-86.16667000
40.22216797,-81.66989000
40.25268555,-80.86052000
40.28320313,-82.73711000
40.31372070,-85.38403000
40.34423828,-86.65434000
40.37475586,-87.24336000
40.40527344,-88.35305000
40.43579102,-89.53674000
40.46630859,-92.37372000
40.49682617,-95.95178000
40.52734375,-94.70153000
40.55786133,-98.17836000
40.58837891,-100.11590000
40.61889648,-92.34068000
40.64941406,-89.20335000
40.67993164,-85.90282000
40.71044922,-83.51007000
40.74096680,-83.23219000
40.77148438,-84.68391000
40.80200195,-87.17819000
40.83251953,-88.98221000
40.86303711,-88.54417000
40.89355469,-89.48486000
40.92407227,-92.76707000
40.95458984,-97.48345000
40.98510742,-93.26107000
41.01562500,-84.96682000
41.04614258,-81.50671000
41.07666016,-81.47739000
41.10717773,-84.77263000
41.13769531,-92.12398000
41.16821289,-95.85092000
41.19873047,-95.35354000
41.22924805,-97.93758000
41.25976563,-94.80234000
41.29028320,-91.39302000
41.32080078,-89.40651000
41.35131836,-88.75541000
41.38183594,-90.09445000
41.41235352,-94.12830000
41.44287109,-100.70620000
41.47338867,-100.02920000
41.50390625,-95.36282000
41.53442383,-91.16478000
41.56494141,-88.20870000
41.59545898,-86.44368000
41.62597656,-85.68152000
41.65649414,-85.42197000
41.68701172,-83.94774000
41.71752930,-83.37241000
41.74804688,-86.90363000
41.77856445,-104.72150000
41.80908203,-92.85468000
41.83959961,-93.85933000
41.87011719,-95.74284000
41.90063477,-91.96273000
41.93115234,-93.37482000
41.96166992,-93.23320000
41.99218750,-93.84116000
42.02270508,-95.76210000
42.05322266,-92.52510000
42.08374023,-91.12484000
42.11425781,-94.37608000
42.14477539,-98.63633000
42.17529297,-89.49437000
42.20581055,-86.88653000
42.23632813,-86.60622000
42.26684570,-87.73581000
42.29736328,-93.20868000
42.32788086,-107.45810000
42.35839844,-94.42912000
42.38891602,-94.64867000
42.41943359,-95.11664000
42.44995117,-92.86710000
42.48046875,-91.68745000
42.51098633,-89.59607000
42.54150391,-89.72910000
42.57202148,-97.96883000
42.60253906,-94.31385000
42.63305664,-87.90245000
42.66357422,-86.48052000
42.69409180,-84.66629000
42.72460938,-82.50127000
42.75512695,-82.11272000
42.78564453,-84.35833000
42.81616211,-90.74162000
42.84667969,-98.60143000
42.87719727,-92.69144000
42.90771484,-90.59312000
42.93823242,-87.75855000
42.96875000,-84.72333000
42.99926758,-83.85007000
43.02978516,-86.11157000
43.06030273,-90.73052000
43.09082031,-92.63847000
43.12133789,-89.69652000
43.15185547,-87.09579000
43.18237305,-86.70642000
43.21289063,-86.29037000
43.24340820,-85.47432000
43.27392578,-86.39835000
43.30444336,-89.08424000
43.33496094,-90.18892000
43.36547852,-87.80840000
43.39599609,-86.73074000
43.42651367,-88.34591000
43.45703125,-87.15987000
43.48754883,-84.16866000
43.51806641,-84.11033000
43.54858398,-87.91527000
43.57910156,-97.14352000
43.60961914,-88.06990000
43.64013672,-84.41850000
43.67065430,-85.10189000
43.70117188,-88.57924000
43.73168945,-86.11813000
43.76220703,-83.44353000
43.79272461,-84.66589000
43.82324219,-90.65961000
43.85375977,-97.42829000
43.88427734,-89.55412000
43.91479492,-85.17968000
43.94531250,-83.16972000
43.97583008,-82.82108000
44.00634766,-83.13691000
44.03686523,-83.66428000
44.06738281,-85.06284000
44.09790039,-88.42949000
44.12841797,-94.09153000
44.15893555,-95.97492000
44.18945313,-94.45929000
44.21997070,-94.09314000
44.25048828,-94.75868000
44.28100586,-95.21153000
44.31152344,-95.17189000
44.34204102,-88.63769000
44.37255859,-85.22189000
44.40307617,-85.88042000
44.43359375,-85.79632000
44.46411133,-83.33055000
44.49462891,-83.34508000
44.52514648,-87.38910000
44.55566406,-102.56770000
44.58618164,-90.50214000
44.61669922,-88.85990000
44.64721680,-88.65269000
44.67773438,-87.73139000
44.70825195,-89.49213000
44.73876953,-92.26289000
44.76928711,-93.28604000
44.79980469,-94.52938000
44.83032227,-93.61167000
44.86083984,-88.78680000
44.89135742,-85.13174000
44.92187500,-83.07031000
44.95239258,-83.14961000
44.98291016,-86.06522000
45.01342773,-90.52560000
45.04394531,-91.14954000
45.07446289,-90.71471000
45.10498047,-91.50722000
45.13549805,-93.46520000
45.16601563,-92.32398000
45.19653320,-89.74504000
45.22705078,-89.55978000
45.25756836,-87.96039000
45.28808594,-85.28710000
45.31860352,-84.58789000
45.34912109,-85.00668000
45.37963867,-85.14313000
45.41015625,-85.33000000
45.44067383,-85.96866000
45.47119141,-85.89909000
45.50170898,-84.66778000
45.53222656,-82.76558000
45.56274414,-81.12583000
45.59326172,-81.50134000
45.62377930,-85.75388000
45.65429688,-96.21443000
45.68481445,-87.28996000
45.71533203,-85.13980000
45.74584961,-87.52097000
45.77636719,-96.09471000
45.80688477,-97.96541000
45.83740234,-90.34370000
45.86791992,-88.32352000
45.89843750,-86.39771000
45.92895508,-83.25588000
45.95947266,-81.65703000
45.98999023,-82.98341000
46.02050781,-88.36790000
46.05102539,-102.13700000
46.08154297,-90.20425000
46.11206055,-87.24723000
46.14257813,-88.82658000
46.17309570,-95.85125000
46.20361328,-93.90609000
46.23413086,-89.55578000
46.26464844,-90.78975000
46.29516602,-91.48752000
46.32568359,-85.11226000
46.35620117,-82.00587000
46.38671875,-81.66585000
46.41723633,-83.54138000
46.44775391,-86.59303000
46.47827148,-89.81427000
46.50878906,-94.28690000
46.53930664,-88.29782000
46.56982422,-86.73302000
46.60034180,-92.64091000
46.63085938,-93.39323000
46.66137695,-88.01377000
46.69189453,-94.59225000
46.72241211,-88.53759000
46.75292969,-80.34831000
46.78344727,-77.88857000
46.81396484,-78.27285000
46.84448242,-80.68790000
46.87500000,-82.71648000
46.90551758,-81.35117000
46.93603516,-80.39084000
46.96655273,-81.49800000
46.99707031,-84.59553000
47.02758789,-89.34653000
47.05810547,-95.04382000
47.08862305,-90.36302000
47.11914063,-85.81866000
47.14965820,-84.18951000
47.18017578,-84.74777000
47.21069336,-87.06262000
47.24121094,-90.67735000
47.27172852,-94.39010000
47.30224609,-99.70191000
47.33276367,-110.92820000
47.36328125,-97.32849000
47.39379883,-94.59808000
47.42431641,-94.09941000
47.45483398,-93.06947000
47.48535156,-91.14897000
47.51586914,-88.99734000
47.54638672,-87.05142000
47.57690430,-85.15064000
47.60742188,-83.24194000
47.63793945,-82.19865000
47.66845703,-82.82666000
47.69897461,-84.71768000
47.72949219,-86.02466000
47.76000977,-86.52124000
47.79052734,-87.21362000
47.82104492,-87.22553000
47.85156250,-85.22594000
47.88208008,-82.56908000
47.91259766,-80.91505000
47.94311523,-80.77332000
47.97363281,-81.60961000
48.00415039,-82.75372000
48.03466797,-85.23473000
48.06518555,-91.46979000
48.09570313,-100.69910000
48.12622070,-93.69829000
48.15673828,-89.26861000
48.18725586,-86.13964000
48.21777344,-85.98653000
48.24829102,-88.71906000
48.27880859,-87.25323000
48.30932617,-83.21152000
48.33984375,-81.28631000
48.37036133,-81.46117000
48.40087891,-83.61198000
48.43139648,-86.64382000
48.46191406,-88.34634000
48.49243164,-88.56548000
48.52294922,-88.88206000
48.55346680,-89.99605000
48.58398438,-91.41867000
48.61450195,-92.39980000
48.64501953,-87.71117000
48.67553711,-84.77597000
48.70605469,-84.97469000
48.73657227,-85.36356000
48.76708984,-83.51897000
48.79760742,-82.70621000
48.82812500,-84.07055000
48.85864258,-86.52290000
48.88916016,-87.09833000
48.91967773,-85.56077000
48.95019531,-84.28684000
48.98071289,-84.76956000
49.01123047,-87.31040000
49.04174805,-90.98807000
49.07226563,-92.63170000
49.10278320,-90.57600000
49.13330078,-87.68457000
49.16381836,-86.35321000
49.19433594,-87.64902000
49.22485352,-92.54999000
49.25537109,-98.28590000
49.28588867,-92.77554000
49.31640625,-90.84973000
49.34692383,-90.94487000
49.37744141,-87.83691000
49.40795898,-83.86893000
49.43847656,-81.68288000
49.46899414,-80.97190000
49.49951172,-80.83398000
49.53002930,-80.56804000
49.56054688,-80.71638000
49.59106445,-82.06419000
49.62158203,-84.71786000
49.65209961,-88.46324000
49.68261719,-92.50232000
49.71313477,-92.89679000
49.74365234,-88.26508000
49.77416992,-83.69969000
49.80468750,-81.25327000
49.83520508,-81.04847000
49.86572266,-83.00820000
49.89624023,-87.10774000
49.92675781,-92.86651000
49.95727539,-98.90794000
49.98779297,-109.33950000
50.01831055,-96.17586000
