Frequency,Channel A
(MHz),(dBu)

0.00000000,-8.84785500
0.03051758,-9.19729600
0.06103516,-14.33102000
0.09155273,-24.02653000
0.12207031,-42.43954000
0.15258789,-60.19604000
0.18310547,-62.10556000
0.21362305,-58.96944000
0.24414063,-56.85246000
0.27465820,-59.70822000
0.30517578,-69.75995000
0.33569336,-60.51881000
0.36621094,-56.57798000
0.39672852,-57.07649000
0.42724609,-58.02418000
0.45776367,-58.25395000
0.48828125,-60.00185000
0.51879883,-62.97523000
0.54931641,-50.80160000
0.57983398,-43.76918000
0.61035156,-39.07631000
0.64086914,-36.26283000
0.67138672,-35.87135000
0.70190430,-38.31206000
0.73242188,-43.64556000
0.76293945,-50.05965000
0.79345703,-53.90853000
0.82397461,-58.03996000
0.85449219,-61.39183000
0.88500977,-58.04065000
0.91552734,-57.76451000
0.94604492,-59.85193000
0.97656250,-60.66818000
1.00708008,-60.46341000
1.03759766,-60.38491000
1.06811523,-59.22276000
1.09863281,-58.39875000
1.12915039,-59.50603000
1.15966797,-62.91489000
1.19018555,-64.50300000
1.22070313,-58.57504000
1.25122070,-55.11115000
1.28173828,-55.42101000
1.31225586,-58.50004000
1.34277344,-60.46988000
1.37329102,-62.13686000
1.40380859,-71.90935000
1.43432617,-66.74442000
1.46484375,-61.23925000
1.49536133,-62.11659000
1.52587891,-67.85897000
1.55639648,-66.62371000
1.58691406,-64.03712000
1.61743164,-65.94853000
1.64794922,-72.30231000
1.67846680,-76.74788000
1.70898438,-66.46079000
1.73950195,-63.79727000
1.77001953,-64.65562000
1.80053711,-68.43318000
1.83105469,-67.16053000
1.86157227,-63.54955000
1.89208984,-61.93908000
1.92260742,-63.62294000
1.95312500,-71.27470000
1.98364258,-74.93272000
2.01416016,-66.86109000
2.04467773,-65.99471000
2.07519531,-67.24387000
2.10571289,-71.65577000
2.13623047,-72.77049000
2.16674805,-67.00302000
2.19726563,-65.19990000
2.22778320,-67.39294000
2.25830078,-71.96753000
2.28881836,-71.18092000
2.31933594,-68.23326000
2.34985352,-68.32322000
2.38037109,-76.49352000
2.41088867,-75.47433000
2.44140625,-68.57782000
2.47192383,-68.21794000
2.50244141,-70.67065000
2.53295898,-69.45676000
2.56347656,-64.82536000
2.59399414,-62.93290000
2.62451172,-64.79404000
2.65502930,-68.78575000
2.68554688,-67.62167000
2.71606445,-68.23872000
2.74658203,-73.11966000
2.77709961,-68.27021000
2.80761719,-67.40182000
2.83813477,-70.15915000
2.86865234,-68.05366000
2.89916992,-66.01292000
2.92968750,-67.38010000
2.96020508,-71.30196000
2.99072266,-97.84847000
3.02124023,-71.27850000
3.05175781,-71.58517000
3.08227539,-86.22691000
3.11279297,-73.78676000
3.14331055,-69.32332000
3.17382813,-72.57407000
3.20434570,-84.05653000
3.23486328,-92.96280000
3.26538086,-75.52164000
3.29589844,-81.24635000
3.32641602,-71.49143000
3.35693359,-65.41808000
3.38745117,-64.86449000
3.41796875,-67.46878000
3.44848633,-76.12058000
3.47900391,-71.34728000
3.50952148,-65.96066000
3.54003906,-68.26268000
3.57055664,-85.00682000
3.60107422,-68.27142000
3.63159180,-67.53813000
3.66210938,-71.16377000
3.69262695,-71.87550000
3.72314453,-63.95650000
3.75366211,-61.02328000
3.78417969,-60.91776000
3.81469727,-64.95498000
3.84521484,-69.17549000
3.87573242,-64.91867000
3.90625000,-63.81773000
3.93676758,-72.80311000
3.96728516,-67.75063000
3.99780273,-62.51995000
4.02832031,-64.07193000
4.05883789,-68.87285000
4.08935547,-64.84831000
4.11987305,-64.71284000
4.15039063,-64.03973000
4.18090820,-63.45089000
4.21142578,-64.21989000
4.24194336,-66.52419000
4.27246094,-69.30378000
4.30297852,-65.64529000
4.33349609,-61.41013000
4.36401367,-60.87647000
4.39453125,-62.95307000
4.42504883,-65.38620000
4.45556641,-74.06535000
4.48608398,-76.83956000
4.51660156,-72.10172000
4.54711914,-68.77689000
4.57763672,-73.24851000
4.60815430,-73.70272000
4.63867188,-67.85490000
4.66918945,-64.26075000
4.69970703,-66.07482000
4.73022461,-71.88885000
4.76074219,-71.09761000
4.79125977,-66.35336000
4.82177734,-66.01021000
4.85229492,-68.68468000
4.88281250,-69.34077000
4.91333008,-66.97692000
4.94384766,-65.57191000
4.97436523,-65.05048000
5.00488281,-66.15096000
5.03540039,-68.68879000
5.06591797,-68.78078000
5.09643555,-66.85601000
5.12695313,-67.78749000
5.15747070,-74.16747000
5.18798828,-86.15520000
5.21850586,-81.38756000
5.24902344,-78.65559000
5.27954102,-71.55513000
5.31005859,-72.04018000
5.34057617,-70.46996000
5.37109375,-66.16600000
5.40161133,-67.15980000
5.43212891,-71.43925000
5.46264648,-77.47266000
5.49316406,-80.90575000
5.52368164,-75.49219000
5.55419922,-69.60584000
5.58471680,-70.65108000
5.61523438,-69.65207000
5.64575195,-69.84880000
5.67626953,-76.60883000
5.70678711,-76.45621000
5.73730469,-72.24741000
5.76782227,-73.21857000
5.79833984,-67.47565000
5.82885742,-66.20982000
5.85937500,-68.47429000
5.88989258,-73.03284000
5.92041016,-74.15218000
5.95092773,-72.33953000
5.98144531,-64.70338000
6.01196289,-64.50576000
6.04248047,-69.11859000
6.07299805,-71.45502000
6.10351563,-68.78463000
6.13403320,-69.42063000
6.16455078,-67.94670000
6.19506836,-67.27511000
6.22558594,-78.03892000
6.25610352,-73.31717000
6.28662109,-77.81068000
6.31713867,-78.68845000
6.34765625,-83.43891000
6.37817383,-73.20998000
6.40869141,-73.23302000
6.43920898,-68.80075000
6.46972656,-70.36195000
6.50024414,-74.90319000
6.53076172,-89.36614000
6.56127930,-76.05792000
6.59179688,-73.47026000
6.62231445,-72.84007000
6.65283203,-75.02097000
6.68334961,-74.37946000
6.71386719,-71.52325000
6.74438477,-70.48117000
6.77490234,-69.28152000
6.80541992,-68.80161000
6.83593750,-69.20354000
6.86645508,-70.28760000
6.89697266,-71.02261000
6.92749023,-71.18433000
6.95800781,-73.16499000
6.98852539,-78.88497000
7.01904297,-81.83157000
7.04956055,-80.08346000
7.08007813,-79.17893000
7.11059570,-77.82205000
7.14111328,-76.37294000
7.17163086,-75.39802000
7.20214844,-75.00650000
7.23266602,-74.08011000
7.26318359,-72.04608000
7.29370117,-69.91402000
7.32421875,-68.22903000
7.35473633,-66.98137000
7.38525391,-66.30433000
7.41577148,-66.69389000
7.44628906,-68.90121000
7.47680664,-73.80397000
7.50732422,-81.75478000
7.53784180,-85.53237000
7.56835938,-85.55006000
7.59887695,-90.12009000
7.62939453,-112.51680000
7.65991211,-85.94376000
7.69042969,-77.65385000
7.72094727,-74.42023000
7.75146484,-74.64807000
7.78198242,-76.55049000
7.81250000,-76.69492000
7.84301758,-74.03979000
7.87353516,-71.60448000
7.90405273,-70.22375000
7.93457031,-69.55759000
7.96508789,-70.08813000
7.99560547,-72.04333000
8.02612305,-74.73420000
8.05664063,-75.69271000
8.08715820,-74.52857000
8.11767578,-74.90852000
8.14819336,-79.03587000
8.17871094,-82.52094000
8.20922852,-77.99551000
8.23974609,-76.53610000
8.27026367,-77.84800000
8.30078125,-83.85204000
8.33129883,-92.86251000
8.36181641,-88.80912000
8.39233398,-80.64018000
8.42285156,-78.69569000
8.45336914,-78.67408000
8.48388672,-76.89936000
8.51440430,-74.54109000
8.54492188,-72.55612000
8.57543945,-70.63745000
8.60595703,-69.87234000
8.63647461,-70.43620000
8.66699219,-71.55694000
8.69750977,-72.35846000
8.72802734,-73.45365000
8.75854492,-75.43235000
8.78906250,-78.28065000
8.81958008,-82.38055000
8.85009766,-84.66096000
8.88061523,-83.51846000
8.91113281,-85.49228000
8.94165039,-79.93333000
8.97216797,-74.00394000
9.00268555,-71.01452000
9.03320313,-70.10840000
9.06372070,-71.30512000
9.09423828,-73.81170000
9.12475586,-75.14834000
9.15527344,-74.64164000
9.18579102,-74.65685000
9.21630859,-75.86295000
9.24682617,-78.13860000
9.27734375,-81.00983000
9.30786133,-81.52159000
9.33837891,-78.85162000
9.36889648,-77.10876000
9.39941406,-78.35536000
9.42993164,-85.23564000
9.46044922,-89.16286000
9.49096680,-82.52869000
9.52148438,-81.72192000
9.55200195,-78.72260000
9.58251953,-78.87217000
9.61303711,-80.59848000
9.64355469,-75.80798000
9.67407227,-72.10564000
9.70458984,-69.19935000
9.73510742,-67.29701000
9.76562500,-66.63042000
9.79614258,-66.61287000
9.82666016,-66.73282000
9.85717773,-67.42274000
9.88769531,-69.33934000
9.91821289,-72.92677000
9.94873047,-78.44103000
9.97924805,-82.59492000
10.00976563,-80.77153000
10.04028320,-77.31377000
10.07080078,-76.22202000
10.10131836,-79.08440000
10.13183594,-91.63342000
10.16235352,-83.28351000
10.19287109,-77.91359000
10.22338867,-75.82472000
10.25390625,-74.74102000
10.28442383,-76.39366000
10.31494141,-81.31796000
10.34545898,-79.98221000
10.37597656,-76.57014000
10.40649414,-74.49574000
10.43701172,-74.45975000
10.46752930,-76.36591000
10.49804688,-77.78823000
10.52856445,-74.22233000
10.55908203,-70.52956000
10.58959961,-69.32156000
10.62011719,-71.02287000
10.65063477,-76.76768000
10.68115234,-92.67956000
10.71166992,-88.22948000
10.74218750,-90.80492000
10.77270508,-89.28876000
10.80322266,-82.48432000
10.83374023,-74.88388000
10.86425781,-70.75267000
10.89477539,-68.80563000
10.92529297,-68.24090000
10.95581055,-68.87417000
10.98632813,-69.95150000
11.01684570,-70.60263000
11.04736328,-71.12811000
11.07788086,-72.07049000
11.10839844,-73.16637000
11.13891602,-74.05849000
11.16943359,-75.03196000
11.19995117,-75.79774000
11.23046875,-75.50818000
11.26098633,-73.76718000
11.29150391,-71.32579000
11.32202148,-69.24744000
11.35253906,-68.68018000
11.38305664,-70.70313000
11.41357422,-74.69472000
11.44409180,-75.81600000
11.47460938,-75.23710000
11.50512695,-74.52261000
11.53564453,-73.97171000
11.56616211,-72.98738000
11.59667969,-72.57986000
11.62719727,-72.45354000
11.65771484,-71.55903000
11.68823242,-70.79968000
11.71875000,-70.18991000
11.74926758,-69.22934000
11.77978516,-67.93788000
11.81030273,-66.68152000
11.84082031,-66.30733000
11.87133789,-67.74018000
11.90185547,-71.47482000
11.93237305,-74.54753000
11.96289063,-73.61655000
11.99340820,-73.66659000
12.02392578,-73.78064000
12.05444336,-71.63942000
12.08496094,-68.56914000
12.11547852,-66.72669000
12.14599609,-66.54546000
12.17651367,-67.67619000
12.20703125,-69.05865000
12.23754883,-69.59325000
12.26806641,-69.84882000
12.29858398,-69.63919000
12.32910156,-67.90822000
12.35961914,-66.28922000
12.39013672,-65.80357000
12.42065430,-66.14606000
12.45117188,-67.02417000
12.48168945,-68.38058000
12.51220703,-70.61347000
12.54272461,-74.25676000
12.57324219,-76.47334000
12.60375977,-73.01180000
12.63427734,-70.05077000
12.66479492,-69.20566000
12.69531250,-69.21815000
12.72583008,-68.55534000
12.75634766,-67.09130000
12.78686523,-65.94894000
12.81738281,-65.61926000
12.84790039,-65.63364000
12.87841797,-66.01099000
12.90893555,-67.01038000
12.93945313,-68.02158000
12.96997070,-68.70692000
13.00048828,-70.02977000
13.03100586,-72.93488000
13.06152344,-78.00408000
13.09204102,-86.66603000
13.12255859,-81.20801000
13.15307617,-78.82358000
13.18359375,-82.37909000
13.21411133,-87.23705000
13.24462891,-83.49667000
13.27514648,-80.55650000
13.30566406,-76.66001000
13.33618164,-74.56237000
13.36669922,-74.85857000
13.39721680,-76.90386000
13.42773438,-78.53974000
13.45825195,-77.38817000
13.48876953,-72.75958000
13.51928711,-67.77098000
13.54980469,-65.29453000
13.58032227,-66.03838000
13.61083984,-70.45407000
13.64135742,-78.39915000
13.67187500,-81.37349000
13.70239258,-73.99817000
13.73291016,-70.14432000
13.76342773,-70.43987000
13.79394531,-73.92116000
13.82446289,-75.47574000
13.85498047,-74.90578000
13.88549805,-77.07734000
13.91601563,-79.84781000
13.94653320,-79.04911000
13.97705078,-77.95320000
14.00756836,-77.29710000
14.03808594,-76.83141000
14.06860352,-76.79285000
14.09912109,-76.79120000
14.12963867,-76.12881000
14.16015625,-75.55286000
14.19067383,-76.70023000
14.22119141,-81.13890000
14.25170898,-94.02122000
14.28222656,-87.89710000
14.31274414,-82.63525000
14.34326172,-80.66562000
14.37377930,-80.13800000
14.40429688,-81.13049000
14.43481445,-82.36879000
14.46533203,-83.92055000
14.49584961,-84.69809000
14.52636719,-79.92519000
14.55688477,-74.85046000
14.58740234,-72.39225000
14.61791992,-72.44183000
14.64843750,-74.14104000
14.67895508,-75.62604000
14.70947266,-75.08732000
14.73999023,-73.73923000
14.77050781,-73.36281000
14.80102539,-74.32582000
14.83154297,-76.14461000
14.86206055,-77.97003000
14.89257813,-79.24078000
14.92309570,-79.87334000
14.95361328,-80.25031000
14.98413086,-80.87226000
15.01464844,-82.52730000
15.04516602,-82.64690000
15.07568359,-79.78178000
15.10620117,-79.61121000
15.13671875,-82.39860000
15.16723633,-88.63827000
15.19775391,-106.73180000
15.22827148,-94.33875000
15.25878906,-81.88034000
15.28930664,-76.26743000
15.31982422,-74.51392000
15.35034180,-74.61951000
15.38085938,-75.46684000
15.41137695,-76.26998000
15.44189453,-76.15611000
15.47241211,-76.34408000
15.50292969,-78.44086000
15.53344727,-83.69666000
15.56396484,-91.22849000
15.59448242,-85.36427000
15.62500000,-82.18482000
15.65551758,-82.70581000
15.68603516,-87.40319000
15.71655273,-87.93561000
15.74707031,-82.26747000
15.77758789,-79.13165000
15.80810547,-77.13160000
15.83862305,-75.94543000
15.86914063,-75.44753000
15.89965820,-74.91562000
15.93017578,-74.07390000
15.96069336,-73.68025000
15.99121094,-74.58224000
16.02172852,-77.09433000
16.05224609,-80.73300000
16.08276367,-83.53604000
16.11328125,-83.63883000
16.14379883,-83.14751000
16.17431641,-84.53777000
16.20483398,-86.14557000
16.23535156,-84.64761000
16.26586914,-85.20583000
16.29638672,-82.87172000
16.32690430,-78.28430000
16.35742188,-76.07976000
16.38793945,-74.96799000
16.41845703,-73.80679000
16.44897461,-72.76990000
16.47949219,-72.34875000
16.51000977,-72.23286000
16.54052734,-71.85383000
16.57104492,-71.23888000
16.60156250,-70.60863000
16.63208008,-70.32639000
16.66259766,-70.66124000
16.69311523,-71.79962000
16.72363281,-73.99716000
16.75415039,-77.45963000
16.78466797,-82.02538000
16.81518555,-85.93513000
16.84570313,-88.23630000
16.87622070,-86.43228000
16.90673828,-81.49886000
16.93725586,-76.88306000
16.96777344,-73.63031000
16.99829102,-72.03848000
17.02880859,-71.79477000
17.05932617,-72.35642000
17.08984375,-73.01292000
17.12036133,-73.14572000
17.15087891,-73.04787000
17.18139648,-73.58722000
17.21191406,-75.23013000
17.24243164,-77.83543000
17.27294922,-80.86277000
17.30346680,-82.85172000
17.33398438,-82.30671000
17.36450195,-81.12383000
17.39501953,-80.79406000
17.42553711,-82.70326000
17.45605469,-88.46761000
17.48657227,-95.38103000
17.51708984,-90.70815000
17.54760742,-87.73740000
17.57812500,-84.29612000
17.60864258,-79.80367000
17.63916016,-74.29976000
17.66967773,-69.21239000
17.70019531,-66.15503000
17.73071289,-66.13582000
17.76123047,-70.37737000
17.79174805,-80.97340000
17.82226563,-77.23682000
17.85278320,-77.23425000
17.88330078,-79.32588000
17.91381836,-82.09828000
17.94433594,-86.71213000
17.97485352,-89.15027000
18.00537109,-88.58150000
18.03588867,-87.73470000
18.06640625,-86.39484000
18.09692383,-86.80935000
18.12744141,-87.20575000
18.15795898,-84.64512000
18.18847656,-82.69920000
18.21899414,-82.92869000
18.24951172,-85.19637000
18.28002930,-87.86807000
18.31054688,-87.10908000
18.34106445,-82.83147000
18.37158203,-78.91682000
18.40209961,-77.36642000
18.43261719,-78.06421000
18.46313477,-78.83174000
18.49365234,-77.93170000
18.52416992,-77.28766000
18.55468750,-77.45843000
18.58520508,-78.73523000
18.61572266,-81.43523000
18.64624023,-85.35484000
18.67675781,-91.09269000
18.70727539,-96.67869000
18.73779297,-89.82701000
18.76831055,-86.64764000
18.79882813,-84.10806000
18.82934570,-80.21297000
18.85986328,-77.25041000
18.89038086,-75.94760000
18.92089844,-75.74797000
18.95141602,-75.78423000
18.98193359,-75.72810000
19.01245117,-76.23577000
19.04296875,-78.18656000
19.07348633,-81.14417000
19.10400391,-81.69217000
19.13452148,-80.95796000
19.16503906,-81.71245000
19.19555664,-84.18594000
19.22607422,-86.24119000
19.25659180,-84.02724000
19.28710938,-80.96107000
19.31762695,-78.57179000
19.34814453,-77.08871000
19.37866211,-76.59633000
19.40917969,-76.99713000
19.43969727,-77.92450000
19.47021484,-78.64080000
19.50073242,-78.42706000
19.53125000,-76.94051000
19.56176758,-75.16222000
19.59228516,-74.38429000
19.62280273,-75.09709000
19.65332031,-77.19823000
19.68383789,-80.50948000
19.71435547,-83.93871000
19.74487305,-85.86646000
19.77539063,-85.91210000
19.80590820,-84.50032000
19.83642578,-83.99960000
19.86694336,-82.03932000
19.89746094,-80.71194000
19.92797852,-82.24622000
19.95849609,-84.38541000
19.98901367,-82.25104000
20.01953125,-80.08637000
20.05004883,-78.94712000
20.08056641,-79.13754000
20.11108398,-80.42310000
20.14160156,-82.34390000
20.17211914,-85.39243000
20.20263672,-87.42827000
20.23315430,-85.67120000
20.26367188,-82.11430000
20.29418945,-79.91054000
20.32470703,-80.20820000
20.35522461,-83.82630000
20.38574219,-90.34711000
20.41625977,-91.17122000
20.44677734,-92.51682000
20.47729492,-88.46154000
20.50781250,-85.92204000
20.53833008,-85.23912000
20.56884766,-86.14812000
20.59936523,-92.09351000
20.62988281,-104.54170000
20.66040039,-90.06361000
20.69091797,-82.54573000
20.72143555,-77.88294000
20.75195313,-75.96211000
20.78247070,-75.62733000
20.81298828,-75.67559000
20.84350586,-75.68278000
20.87402344,-75.58084000
20.90454102,-75.14025000
20.93505859,-74.63324000
20.96557617,-74.67017000
20.99609375,-75.49662000
21.02661133,-76.92651000
21.05712891,-78.71294000
21.08764648,-80.44600000
21.11816406,-82.19166000
21.14868164,-84.71550000
21.17919922,-87.44732000
21.20971680,-81.59520000
21.24023438,-75.82854000
21.27075195,-73.47894000
21.30126953,-73.33837000
21.33178711,-74.17270000
21.36230469,-75.09915000
21.39282227,-75.76892000
21.42333984,-75.94524000
21.45385742,-76.06719000
21.48437500,-76.92203000
21.51489258,-78.53279000
21.54541016,-80.31332000
21.57592773,-82.12068000
21.60644531,-84.69428000
21.63696289,-88.41920000
21.66748047,-92.74326000
21.69799805,-102.22830000
21.72851563,-91.76839000
21.75903320,-85.02969000
21.78955078,-82.18784000
21.82006836,-82.17881000
21.85058594,-85.27114000
21.88110352,-89.12364000
21.91162109,-86.79444000
21.94213867,-85.72612000
21.97265625,-87.49401000
22.00317383,-89.12637000
22.03369141,-85.99866000
22.06420898,-83.62460000
22.09472656,-82.87587000
22.12524414,-82.59502000
22.15576172,-81.66197000
22.18627930,-81.47997000
22.21679688,-83.45212000
22.24731445,-87.64330000
22.27783203,-94.11223000
22.30834961,-98.35636000
22.33886719,-97.23793000
22.36938477,-115.65760000
22.39990234,-92.68333000
22.43041992,-88.10114000
22.46093750,-88.48736000
22.49145508,-86.30169000
22.52197266,-82.97829000
22.55249023,-82.96835000
22.58300781,-85.54419000
22.61352539,-85.31792000
22.64404297,-82.51270000
22.67456055,-82.53377000
22.70507813,-85.81148000
22.73559570,-88.86105000
22.76611328,-86.84903000
22.79663086,-84.87756000
22.82714844,-84.27250000
22.85766602,-84.37160000
22.88818359,-83.80397000
22.91870117,-83.90373000
22.94921875,-86.52455000
22.97973633,-93.23410000
23.01025391,-102.30300000
23.04077148,-91.91413000
23.07128906,-91.69542000
23.10180664,-99.19297000
23.13232422,-104.12760000
23.16284180,-96.49162000
23.19335938,-92.73782000
23.22387695,-89.34930000
23.25439453,-88.49997000
23.28491211,-92.18475000
23.31542969,-99.85874000
23.34594727,-90.02594000
23.37646484,-86.70814000
23.40698242,-85.96201000
23.43750000,-85.55286000
23.46801758,-85.18006000
23.49853516,-86.02905000
23.52905273,-87.97649000
23.55957031,-89.71622000
23.59008789,-91.62444000
23.62060547,-93.81485000
23.65112305,-92.82500000
23.68164063,-89.35838000
23.71215820,-86.04628000
23.74267578,-84.15122000
23.77319336,-84.07668000
23.80371094,-85.20229000
23.83422852,-85.65285000
23.86474609,-84.93642000
23.89526367,-84.50990000
23.92578125,-85.22907000
23.95629883,-87.64192000
23.98681641,-93.88026000
24.01733398,-104.28430000
24.04785156,-94.47644000
24.07836914,-93.69317000
24.10888672,-94.26502000
24.13940430,-92.49759000
24.16992188,-90.49857000
24.20043945,-89.86695000
24.23095703,-89.72479000
24.26147461,-88.28048000
24.29199219,-85.38126000
24.32250977,-82.79944000
24.35302734,-82.09301000
24.38354492,-84.17780000
24.41406250,-87.82073000
24.44458008,-85.38474000
24.47509766,-82.57350000
24.50561523,-81.41541000
24.53613281,-81.04333000
24.56665039,-81.70799000
24.59716797,-84.81437000
24.62768555,-92.95487000
24.65820313,-93.96074000
24.68872070,-92.51984000
24.71923828,-97.15707000
24.74975586,-91.86246000
24.78027344,-88.72984000
24.81079102,-87.98652000
24.84130859,-88.02406000
24.87182617,-88.18536000
24.90234375,-87.65576000
24.93286133,-86.38088000
24.96337891,-84.69597000
24.99389648,-83.14388000
25.02441406,-82.72823000
25.05493164,-83.94496000
25.08544922,-85.62547000
25.11596680,-86.47588000
25.14648438,-87.86609000
25.17700195,-89.21658000
25.20751953,-88.57945000
25.23803711,-86.85524000
25.26855469,-86.14143000
25.29907227,-86.74972000
25.32958984,-87.25333000
25.36010742,-86.90926000
25.39062500,-87.00948000
25.42114258,-88.06210000
25.45166016,-89.78525000
25.48217773,-90.48084000
25.51269531,-87.45468000
25.54321289,-84.63783000
25.57373047,-84.16874000
25.60424805,-85.81068000
25.63476563,-88.61710000
25.66528320,-91.19666000
25.69580078,-90.61890000
25.72631836,-88.89787000
25.75683594,-89.48479000
25.78735352,-91.84640000
25.81787109,-91.65756000
25.84838867,-87.77594000
25.87890625,-84.46967000
25.90942383,-83.00935000
25.93994141,-83.26724000
25.97045898,-85.05177000
26.00097656,-87.86020000
26.03149414,-90.37849000
26.06201172,-90.80249000
26.09252930,-88.63025000
26.12304688,-87.08233000
26.15356445,-87.25716000
26.18408203,-88.52151000
26.21459961,-92.13086000
26.24511719,-103.01980000
26.27563477,-88.88200000
26.30615234,-83.68767000
26.33666992,-82.46964000
26.36718750,-83.55770000
26.39770508,-85.84761000
26.42822266,-89.43736000
26.45874023,-93.78185000
26.48925781,-92.57064000
26.51977539,-92.62405000
26.55029297,-95.82172000
26.58081055,-98.88167000
26.61132813,-97.45288000
26.64184570,-90.73401000
26.67236328,-85.72511000
26.70288086,-84.37109000
26.73339844,-85.93547000
26.76391602,-85.49355000
26.79443359,-83.40928000
26.82495117,-84.47668000
26.85546875,-89.50492000
26.88598633,-95.94254000
26.91650391,-94.83314000
26.94702148,-91.62354000
26.97753906,-90.68771000
27.00805664,-91.23630000
27.03857422,-90.95816000
27.06909180,-91.07566000
27.09960938,-96.01372000
27.13012695,-101.32740000
27.16064453,-92.62196000
27.19116211,-94.61221000
27.22167969,-94.58099000
27.25219727,-85.23067000
27.28271484,-81.32320000
27.31323242,-80.03925000
27.34375000,-80.24211000
27.37426758,-81.33363000
27.40478516,-83.43965000
27.43530273,-87.36602000
27.46582031,-89.65070000
27.49633789,-87.25241000
27.52685547,-88.08829000
27.55737305,-91.60045000
27.58789063,-90.56293000
27.61840820,-88.95751000
27.64892578,-90.50314000
27.67944336,-100.76980000
27.70996094,-88.67194000
27.74047852,-82.88344000
27.77099609,-81.46442000
27.80151367,-82.02298000
27.83203125,-82.40077000
27.86254883,-82.39717000
27.89306641,-83.09714000
27.92358398,-85.47037000
27.95410156,-91.58489000
27.98461914,-99.08149000
28.01513672,-91.61983000
28.04565430,-92.09566000
28.07617188,-105.48250000
28.10668945,-91.31908000
28.13720703,-84.50820000
28.16772461,-81.25751000
28.19824219,-80.34202000
28.22875977,-81.94406000
28.25927734,-85.83408000
28.28979492,-87.32735000
28.32031250,-86.42620000
28.35083008,-87.81715000
28.38134766,-91.00664000
28.41186523,-93.31979000
28.44238281,-96.19528000
28.47290039,-92.85125000
28.50341797,-86.97868000
28.53393555,-85.00005000
28.56445313,-85.81298000
28.59497070,-88.90850000
28.62548828,-94.78111000
28.65600586,-91.83562000
28.68652344,-86.84131000
28.71704102,-85.59444000
28.74755859,-86.74981000
28.77807617,-89.01650000
28.80859375,-90.94745000
28.83911133,-91.00505000
28.86962891,-89.41079000
28.90014648,-87.18417000
28.93066406,-84.95889000
28.96118164,-83.67996000
28.99169922,-83.29467000
29.02221680,-83.38429000
29.05273438,-85.29662000
29.08325195,-92.62648000
29.11376953,-100.53070000
29.14428711,-93.25777000
29.17480469,-99.58839000
29.20532227,-97.62512000
29.23583984,-93.78838000
29.26635742,-94.89542000
29.29687500,-93.13948000
29.32739258,-90.55678000
29.35791016,-90.15263000
29.38842773,-89.89724000
29.41894531,-88.14721000
29.44946289,-85.36491000
29.47998047,-82.71910000
29.51049805,-81.81372000
29.54101563,-83.11367000
29.57153320,-86.75301000
29.60205078,-93.09969000
29.63256836,-99.69026000
29.66308594,-96.61185000
29.69360352,-87.13158000
29.72412109,-82.25664000
29.75463867,-81.17706000
29.78515625,-83.00449000
29.81567383,-85.70855000
29.84619141,-85.82355000
29.87670898,-85.42612000
29.90722656,-86.12450000
29.93774414,-87.83405000
29.96826172,-90.88287000
29.99877930,-91.87766000
30.02929688,-88.60748000
30.05981445,-87.43980000
30.09033203,-89.12822000
30.12084961,-92.57777000
30.15136719,-92.12788000
30.18188477,-90.96570000
30.21240234,-92.60799000
30.24291992,-95.00480000
30.27343750,-100.63190000
30.30395508,-101.16530000
30.33447266,-92.15118000
30.36499023,-92.64020000
30.39550781,-97.52734000
30.42602539,-86.73828000
30.45654297,-82.42474000
30.48706055,-82.20140000
30.51757813,-85.71834000
30.54809570,-93.13773000
30.57861328,-97.44872000
30.60913086,-91.39919000
30.63964844,-85.82337000
30.67016602,-83.85544000
30.70068359,-84.78453000
30.73120117,-88.05351000
30.76171875,-91.13988000
30.79223633,-88.55851000
30.82275391,-84.18476000
30.85327148,-82.20428000
30.88378906,-82.68518000
30.91430664,-84.85439000
30.94482422,-86.16904000
30.97534180,-84.48547000
31.00585938,-83.48945000
31.03637695,-84.65069000
31.06689453,-87.71977000
31.09741211,-90.63844000
31.12792969,-89.53239000
31.15844727,-87.52387000
31.18896484,-87.34070000
31.21948242,-90.10806000
31.25000000,-97.04709000
31.28051758,-98.38601000
31.31103516,-93.15344000
31.34155273,-89.98932000
31.37207031,-89.12181000
31.40258789,-90.16319000
31.43310547,-92.09300000
31.46362305,-91.31113000
31.49414063,-89.53432000
31.52465820,-90.05817000
31.55517578,-93.81039000
31.58569336,-100.86380000
31.61621094,-95.92607000
31.64672852,-94.23997000
31.67724609,-93.94853000
31.70776367,-91.05356000
31.73828125,-88.09247000
31.76879883,-87.04636000
31.79931641,-87.86998000
31.82983398,-89.43102000
31.86035156,-89.38980000
31.89086914,-86.64837000
31.92138672,-86.17111000
31.95190430,-92.53375000
31.98242188,-95.22498000
32.01293945,-87.36136000
32.04345703,-88.35771000
32.07397461,-94.57170000
32.10449219,-99.61971000
32.13500977,-94.89383000
32.16552734,-90.59647000
32.19604492,-88.76753000
32.22656250,-87.67265000
32.25708008,-85.98531000
32.28759766,-84.52042000
32.31811523,-84.92348000
32.34863281,-89.23616000
32.37915039,-91.15113000
32.40966797,-85.49281000
32.44018555,-84.51372000
32.47070313,-86.22215000
32.50122070,-88.51131000
32.53173828,-89.09509000
32.56225586,-86.62068000
32.59277344,-83.79494000
32.62329102,-82.85607000
32.65380859,-84.40189000
32.68432617,-88.66740000
32.71484375,-94.17934000
32.74536133,-98.55301000
32.77587891,-101.45220000
32.80639648,-88.51505000
32.83691406,-83.72098000
32.86743164,-82.87012000
32.89794922,-85.42722000
32.92846680,-90.48389000
32.95898438,-88.15606000
32.98950195,-84.86275000
33.02001953,-84.12711000
33.05053711,-85.32299000
33.08105469,-87.79755000
33.11157227,-89.59207000
33.14208984,-87.87347000
33.17260742,-85.82833000
33.20312500,-86.04720000
33.23364258,-89.77894000
33.26416016,-103.79210000
33.29467773,-98.17354000
33.32519531,-98.26826000
33.35571289,-96.13097000
33.38623047,-86.79449000
33.41674805,-83.69495000
33.44726563,-85.02710000
33.47778320,-92.45788000
33.50830078,-93.21445000
33.53881836,-87.11028000
33.56933594,-86.91774000
33.59985352,-90.96014000
33.63037109,-98.23070000
33.66088867,-93.08453000
33.69140625,-88.41719000
33.72192383,-88.21830000
33.75244141,-89.16687000
33.78295898,-87.99092000
33.81347656,-87.18214000
33.84399414,-86.16380000
33.87451172,-85.93855000
33.90502930,-87.84032000
33.93554688,-91.33783000
33.96606445,-88.30810000
33.99658203,-83.03372000
34.02709961,-80.19592000
34.05761719,-80.24774000
34.08813477,-83.58356000
34.11865234,-89.79035000
34.14916992,-90.38641000
34.17968750,-93.07095000
34.21020508,-100.04450000
34.24072266,-86.95741000
34.27124023,-84.09470000
34.30175781,-85.90000000
34.33227539,-95.23827000
34.36279297,-93.90117000
34.39331055,-86.60146000
34.42382813,-85.17775000
34.45434570,-87.36732000
34.48486328,-92.69012000
34.51538086,-88.30763000
34.54589844,-86.37572000
34.57641602,-89.44344000
34.60693359,-96.02701000
34.63745117,-94.03622000
34.66796875,-90.85661000
34.69848633,-87.99401000
34.72900391,-86.39458000
34.75952148,-87.39333000
34.79003906,-90.61302000
34.82055664,-92.15613000
34.85107422,-91.38886000
34.88159180,-90.89977000
34.91210938,-90.72991000
34.94262695,-91.46484000
34.97314453,-91.68667000
35.00366211,-88.09087000
35.03417969,-87.24426000
35.06469727,-92.39034000
35.09521484,-90.48108000
35.12573242,-84.78072000
35.15625000,-83.77117000
35.18676758,-85.92338000
35.21728516,-90.15453000
35.24780273,-88.98582000
35.27832031,-88.41240000
35.30883789,-95.42519000
35.33935547,-92.35742000
35.36987305,-85.91880000
35.40039063,-84.75915000
35.43090820,-86.22665000
35.46142578,-89.52621000
35.49194336,-94.91629000
35.52246094,-100.86260000
35.55297852,-93.84376000
35.58349609,-88.33316000
35.61401367,-85.32156000
35.64453125,-84.56799000
35.67504883,-85.58202000
35.70556641,-87.19743000
35.73608398,-88.81039000
35.76660156,-92.00890000
35.79711914,-90.73577000
35.82763672,-85.08893000
35.85815430,-82.45423000
35.88867188,-81.23694000
35.91918945,-80.27505000
35.94970703,-79.79657000
35.98022461,-80.57405000
36.01074219,-83.05733000
36.04125977,-87.01042000
36.07177734,-90.79497000
36.10229492,-88.91660000
36.13281250,-85.51362000
36.16333008,-84.69702000
36.19384766,-86.34553000
36.22436523,-89.67625000
36.25488281,-93.40339000
36.28540039,-91.87718000
36.31591797,-88.20611000
36.34643555,-86.22314000
36.37695313,-84.62090000
36.40747070,-83.42143000
36.43798828,-83.22470000
36.46850586,-84.55952000
36.49902344,-87.05252000
36.52954102,-89.06602000
36.56005859,-90.65285000
36.59057617,-92.93213000
36.62109375,-94.15256000
36.65161133,-90.34288000
36.68212891,-85.95782000
36.71264648,-83.37018000
36.74316406,-82.53932000
36.77368164,-82.69570000
36.80419922,-82.62312000
36.83471680,-81.82698000
36.86523438,-81.19995000
36.89575195,-82.00055000
36.92626953,-84.19746000
36.95678711,-85.37288000
36.98730469,-86.47620000
37.01782227,-91.69685000
37.04833984,-99.00635000
37.07885742,-88.38021000
37.10937500,-85.33944000
37.13989258,-86.21741000
37.17041016,-91.98030000
37.20092773,-87.76923000
37.23144531,-81.57637000
37.26196289,-79.29697000
37.29248047,-79.35107000
37.32299805,-81.37634000
37.35351563,-86.13541000
37.38403320,-97.68140000
37.41455078,-97.61873000
37.44506836,-94.61856000
37.47558594,-97.79691000
37.50610352,-111.00070000
37.53662109,-92.03004000
37.56713867,-86.76490000
37.59765625,-86.44301000
37.62817383,-90.79594000
37.65869141,-90.61244000
37.68920898,-84.83840000
37.71972656,-81.97722000
37.75024414,-80.70385000
37.78076172,-80.72448000
37.81127930,-81.78804000
37.84179688,-83.61421000
37.87231445,-86.57347000
37.90283203,-91.00800000
37.93334961,-95.45691000
37.96386719,-107.72600000
37.99438477,-95.77407000
38.02490234,-92.63826000
38.05541992,-97.78587000
38.08593750,-100.55050000
38.11645508,-90.17459000
38.14697266,-87.83548000
38.17749023,-89.79240000
38.20800781,-93.87344000
38.23852539,-88.64908000
38.26904297,-86.79257000
38.29956055,-90.99029000
38.33007813,-90.30334000
38.36059570,-83.63234000
38.39111328,-82.20295000
38.42163086,-83.32359000
38.45214844,-83.13806000
38.48266602,-82.67926000
38.51318359,-86.00769000
38.54370117,-99.27673000
38.57421875,-88.90679000
38.60473633,-84.66053000
38.63525391,-83.04230000
38.66577148,-82.80614000
38.69628906,-83.75195000
38.72680664,-85.20989000
38.75732422,-86.21251000
38.78784180,-86.14833000
38.81835938,-84.80048000
38.84887695,-82.66410000
38.87939453,-80.83327000
38.90991211,-80.16319000
38.94042969,-81.30601000
38.97094727,-85.11777000
39.00146484,-93.94120000
39.03198242,-93.28120000
39.06250000,-90.77002000
39.09301758,-92.00990000
39.12353516,-86.11446000
39.15405273,-82.61448000
39.18457031,-82.20361000
39.21508789,-84.10434000
39.24560547,-88.77737000
39.27612305,-93.80405000
39.30664063,-89.09338000
39.33715820,-84.75018000
39.36767578,-82.50237000
39.39819336,-82.98515000
39.42871094,-87.22961000
39.45922852,-103.24010000
39.48974609,-92.18926000
39.52026367,-90.86642000
39.55078125,-98.56052000
39.58129883,-91.83734000
39.61181641,-89.45680000
39.64233398,-93.83210000
39.67285156,-96.75804000
39.70336914,-92.71259000
39.73388672,-94.55837000
39.76440430,-95.48381000
39.79492188,-91.94698000
39.82543945,-93.14854000
39.85595703,-96.88802000
39.88647461,-90.94211000
39.91699219,-90.44637000
39.94750977,-95.64800000
39.97802734,-88.96217000
40.00854492,-85.50381000
40.03906250,-85.55862000
40.06958008,-86.69379000
40.10009766,-87.22795000
40.13061523,-88.37721000
40.16113281,-91.64265000
40.19165039,-94.54799000
40.22216797,-90.63644000
40.25268555,-86.07173000
40.28320313,-85.21149000
40.31372070,-89.26018000
40.34423828,-93.65054000
40.37475586,-86.68579000
40.40527344,-85.89714000
40.43579102,-90.80837000
40.46630859,-108.10250000
40.49682617,-96.23953000
40.52734375,-95.15511000
40.55786133,-92.96314000
40.58837891,-88.78860000
40.61889648,-86.87293000
40.64941406,-87.58180000
40.67993164,-87.58877000
40.71044922,-85.26588000
40.74096680,-84.64008000
40.77148438,-86.92181000
40.80200195,-87.88315000
40.83251953,-85.28153000
40.86303711,-86.05706000
40.89355469,-89.98405000
40.92407227,-88.83629000
40.95458984,-87.67010000
40.98510742,-88.29185000
41.01562500,-89.30058000
41.04614258,-94.37302000
41.07666016,-99.10529000
41.10717773,-88.70615000
41.13769531,-86.37520000
41.16821289,-87.11968000
41.19873047,-88.66662000
41.22924805,-88.70541000
41.25976563,-86.98485000
41.29028320,-84.72528000
41.32080078,-82.87179000
41.35131836,-82.04002000
41.38183594,-82.35413000
41.41235352,-84.06598000
41.44287109,-87.45667000
41.47338867,-89.96918000
41.50390625,-89.98175000
41.53442383,-90.96940000
41.56494141,-91.12716000
41.59545898,-88.12606000
41.62597656,-84.86198000
41.65649414,-83.52046000
41.68701172,-84.22398000
41.71752930,-86.72761000
41.74804688,-90.08766000
41.77856445,-91.34779000
41.80908203,-93.87265000
41.83959961,-102.25430000
41.87011719,-92.91866000
41.90063477,-86.85320000
41.93115234,-82.89082000
41.96166992,-80.64122000
41.99218750,-80.25259000
42.02270508,-81.52679000
42.05322266,-83.49036000
42.08374023,-84.28033000
42.11425781,-83.54697000
42.14477539,-83.26211000
42.17529297,-84.68379000
42.20581055,-87.09903000
42.23632813,-88.63405000
42.26684570,-90.39456000
42.29736328,-90.63332000
42.32788086,-90.45782000
42.35839844,-92.32761000
42.38891602,-90.28049000
42.41943359,-91.78825000
42.44995117,-99.40085000
42.48046875,-92.86723000
42.51098633,-90.60551000
42.54150391,-89.10842000
42.57202148,-89.37004000
42.60253906,-96.84427000
42.63305664,-92.26646000
42.66357422,-84.57406000
42.69409180,-83.12056000
42.72460938,-83.69117000
42.75512695,-83.83096000
42.78564453,-85.47165000
42.81616211,-92.24880000
42.84667969,-99.58472000
42.87719727,-90.70145000
42.90771484,-91.18350000
42.93823242,-98.20752000
42.96875000,-99.52699000
42.99926758,-89.59146000
43.02978516,-85.90916000
43.06030273,-82.89740000
43.09082031,-80.04085000
43.12133789,-79.38979000
43.15185547,-82.15659000
43.18237305,-90.62949000
43.21289063,-89.45792000
43.24340820,-86.11736000
43.27392578,-86.46227000
43.30444336,-84.85442000
43.33496094,-83.13858000
43.36547852,-83.82798000
43.39599609,-86.98597000
43.42651367,-88.07214000
43.45703125,-87.51023000
43.48754883,-87.10755000
43.51806641,-83.57039000
43.54858398,-80.74894000
43.57910156,-79.47620000
43.60961914,-79.77913000
43.64013672,-82.31578000
43.67065430,-87.24513000
43.70117188,-87.46761000
43.73168945,-85.25171000
43.76220703,-83.35315000
43.79272461,-81.37071000
43.82324219,-81.37702000
43.85375977,-84.11369000
43.88427734,-88.73260000
43.91479492,-90.73099000
43.94531250,-89.59250000
43.97583008,-90.71526000
44.00634766,-104.01440000
44.03686523,-89.46220000
44.06738281,-83.66412000
44.09790039,-82.29854000
44.12841797,-84.34138000
44.15893555,-92.95897000
44.18945313,-94.36212000
44.21997070,-88.22079000
44.25048828,-89.30030000
44.28100586,-91.44039000
44.31152344,-89.47533000
44.34204102,-86.48627000
44.37255859,-85.79858000
44.40307617,-87.74613000
44.43359375,-90.98296000
44.46411133,-90.44037000
44.49462891,-88.48109000
44.52514648,-89.26755000
44.55566406,-92.81673000
44.58618164,-92.54077000
44.61669922,-88.56541000
44.64721680,-86.62017000
44.67773438,-87.12132000
44.70825195,-86.64830000
44.73876953,-84.70119000
44.76928711,-84.70003000
44.79980469,-84.40759000
44.83032227,-83.05481000
44.86083984,-84.39227000
44.89135742,-90.97849000
44.92187500,-95.05536000
44.95239258,-88.78687000
44.98291016,-87.83787000
45.01342773,-90.05798000
45.04394531,-89.29837000
45.07446289,-84.10175000
45.10498047,-81.84789000
45.13549805,-81.86260000
45.16601563,-82.37447000
45.19653320,-81.99144000
45.22705078,-81.56409000
45.25756836,-82.72786000
45.28808594,-86.70886000
45.31860352,-94.66160000
45.34912109,-89.83861000
45.37963867,-85.96332000
45.41015625,-85.95602000
45.44067383,-86.82362000
45.47119141,-85.15045000
45.50170898,-84.19133000
45.53222656,-85.38270000
45.56274414,-87.17014000
45.59326172,-87.28079000
45.62377930,-87.42130000
45.65429688,-88.39695000
45.68481445,-91.64659000
45.71533203,-96.60729000
45.74584961,-88.74802000
45.77636719,-85.80914000
45.80688477,-86.50485000
45.83740234,-90.62631000
45.86791992,-97.30446000
45.89843750,-86.50453000
45.92895508,-81.40466000
45.95947266,-80.27271000
45.98999023,-82.69555000
46.02050781,-90.01598000
46.05102539,-106.38690000
46.08154297,-94.75112000
46.11206055,-92.23797000
46.14257813,-91.61805000
46.17309570,-94.37877000
46.20361328,-93.57583000
46.23413086,-88.36269000
46.26464844,-86.19583000
46.29516602,-86.31275000
46.32568359,-87.99338000
46.35620117,-91.41774000
46.38671875,-96.50128000
46.41723633,-95.42968000
46.44775391,-89.80431000
46.47827148,-86.92712000
46.50878906,-87.82887000
46.53930664,-93.01281000
46.56982422,-87.48684000
46.60034180,-83.16306000
46.63085938,-82.72079000
46.66137695,-85.27788000
46.69189453,-91.25740000
46.72241211,-93.29826000
46.75292969,-91.09834000
46.78344727,-91.08099000
46.81396484,-90.13378000
46.84448242,-89.96667000
46.87500000,-89.40871000
46.90551758,-90.07043000
46.93603516,-90.40440000
46.96655273,-87.67677000
46.99707031,-86.57260000
47.02758789,-86.81104000
47.05810547,-87.35083000
47.08862305,-88.09879000
47.11914063,-89.86940000
47.14965820,-91.71576000
47.18017578,-89.87136000
47.21069336,-88.61954000
47.24121094,-90.39223000
47.27172852,-97.23359000
47.30224609,-101.10480000
47.33276367,-90.49671000
47.36328125,-87.08411000
47.39379883,-86.86642000
47.42431641,-89.60934000
47.45483398,-95.60021000
47.48535156,-107.21100000
47.51586914,-96.40070000
47.54638672,-89.74133000
47.57690430,-86.24181000
47.60742188,-84.86571000
47.63793945,-85.69801000
47.66845703,-87.70143000
47.69897461,-87.74258000
47.72949219,-85.85428000
47.76000977,-84.96161000
47.79052734,-85.73075000
47.82104492,-87.67445000
47.85156250,-91.85335000
47.88208008,-96.01265000
47.91259766,-94.44244000
47.94311523,-102.30140000
47.97363281,-91.13877000
48.00415039,-85.76127000
48.03466797,-84.85429000
48.06518555,-85.85900000
48.09570313,-87.24815000
48.12622070,-89.86335000
48.15673828,-90.40820000
48.18725586,-84.36977000
48.21777344,-81.37710000
48.24829102,-81.07275000
48.27880859,-82.72645000
48.30932617,-86.56722000
48.33984375,-92.95424000
48.37036133,-93.85568000
48.40087891,-92.42883000
48.43139648,-94.57526000
48.46191406,-95.24565000
48.49243164,-88.12402000
48.52294922,-84.01406000
48.55346680,-82.54137000
48.58398438,-83.09569000
48.61450195,-85.29298000
48.64501953,-89.04056000
48.67553711,-95.09681000
48.70605469,-104.65090000
48.73657227,-110.08970000
48.76708984,-99.82338000
48.79760742,-90.07504000
48.82812500,-85.42637000
48.85864258,-84.18765000
48.88916016,-84.88239000
48.91967773,-85.50755000
48.95019531,-85.70575000
48.98071289,-86.50140000
49.01123047,-88.51228000
49.04174805,-91.30081000
49.07226563,-91.57693000
49.10278320,-92.10716000
49.13330078,-97.74822000
49.16381836,-94.25544000
49.19433594,-90.18513000
49.22485352,-91.39217000
49.25537109,-95.20189000
49.28588867,-89.77826000
49.31640625,-84.40530000
49.34692383,-82.57809000
49.37744141,-84.35953000
49.40795898,-88.54416000
49.43847656,-86.02479000
49.46899414,-84.38251000
49.49951172,-87.33704000
49.53002930,-100.27880000
49.56054688,-93.06957000
49.59106445,-86.61066000
49.62158203,-84.21861000
49.65209961,-83.74316000
49.68261719,-84.88802000
49.71313477,-89.45184000
49.74365234,-93.87379000
49.77416992,-86.54115000
49.80468750,-86.49557000
49.83520508,-93.11974000
49.86572266,-91.24376000
49.89624023,-86.72742000
49.92675781,-85.84911000
49.95727539,-86.92177000
49.98779297,-89.42448000
50.01831055,-93.32213000
