Frequency,Channel A
(MHz),(dBu)

0.00000000,-15.35114000
0.03051758,-15.71010000
0.06103516,-20.81770000
0.09155273,-29.99689000
0.12207031,-43.06030000
0.15258789,-48.70316000
0.18310547,-49.32673000
0.21362305,-53.65724000
0.24414063,-56.51594000
0.27465820,-56.06465000
0.30517578,-54.19964000
0.33569336,-55.10803000
0.36621094,-57.14814000
0.39672852,-55.96001000
0.42724609,-54.65048000
0.45776367,-54.81741000
0.48828125,-55.66900000
0.51879883,-54.38688000
0.54931641,-52.91270000
0.57983398,-52.90870000
0.61035156,-54.29394000
0.64086914,-56.85752000
0.67138672,-59.22131000
0.70190430,-59.60455000
0.73242188,-59.91977000
0.76293945,-61.92086000
0.79345703,-69.16924000
0.82397461,-71.95762000
0.85449219,-63.19688000
0.88500977,-60.69740000
0.91552734,-59.98342000
0.94604492,-60.13308000
0.97656250,-61.13946000
1.00708008,-63.65241000
1.03759766,-68.89063000
1.06811523,-73.16628000
1.09863281,-64.12647000
1.12915039,-58.52148000
1.15966797,-55.91911000
1.19018555,-55.76135000
1.22070313,-57.69996000
1.25122070,-60.27897000
1.28173828,-59.76279000
1.31225586,-57.88205000
1.34277344,-56.89300000
1.37329102,-56.72256000
1.40380859,-57.42236000
1.43432617,-59.63703000
1.46484375,-62.05661000
1.49536133,-59.70275000
1.52587891,-57.63018000
1.55639648,-57.64769000
1.58691406,-58.26115000
1.61743164,-58.24062000
1.64794922,-58.74138000
1.67846680,-60.13462000
1.70898438,-60.55527000
1.73950195,-59.90043000
1.77001953,-60.48050000
1.80053711,-63.59417000
1.83105469,-68.15133000
1.86157227,-66.39032000
1.89208984,-64.12275000
1.92260742,-62.48280000
1.95312500,-60.67223000
1.98364258,-59.50832000
2.01416016,-59.29658000
2.04467773,-59.53400000
2.07519531,-59.42104000
2.10571289,-59.46217000
2.13623047,-61.32553000
2.16674805,-65.75112000
2.19726563,-64.01058000
2.22778320,-60.51192000
2.25830078,-59.94117000
2.28881836,-60.87223000
2.31933594,-61.67290000
2.34985352,-63.04051000
2.38037109,-67.05014000
2.41088867,-65.05696000
2.44140625,-59.76722000
2.47192383,-58.35269000
2.50244141,-60.73169000
2.53295898,-69.76842000
2.56347656,-69.50402000
2.59399414,-63.85537000
2.62451172,-64.03342000
2.65502930,-67.03767000
2.68554688,-67.24695000
2.71606445,-64.05251000
2.74658203,-62.25007000
2.77709961,-61.47158000
2.80761719,-61.46459000
2.83813477,-62.80608000
2.86865234,-64.23281000
2.89916992,-62.34423000
2.92968750,-60.16665000
2.96020508,-59.23750000
2.99072266,-58.92711000
3.02124023,-58.60706000
3.05175781,-58.37272000
3.08227539,-58.72974000
3.11279297,-59.60423000
3.14331055,-60.11256000
3.17382813,-60.56142000
3.20434570,-61.48026000
3.23486328,-60.46367000
3.26538086,-58.27671000
3.29589844,-57.20863000
3.32641602,-57.07474000
3.35693359,-57.56073000
3.38745117,-59.07417000
3.41796875,-61.19337000
3.44848633,-61.16918000
3.47900391,-59.29510000
3.50952148,-57.55171000
3.54003906,-56.15830000
3.57055664,-55.28265000
3.60107422,-55.37877000
3.63159180,-56.94836000
3.66210938,-60.13244000
3.69262695,-62.62479000
3.72314453,-62.13629000
3.75366211,-61.16375000
3.78417969,-58.73543000
3.81469727,-56.13961000
3.84521484,-54.89993000
3.87573242,-54.93141000
3.90625000,-55.93462000
3.93676758,-57.80914000
3.96728516,-59.83758000
3.99780273,-60.60847000
4.02832031,-60.24660000
4.05883789,-58.80453000
4.08935547,-56.97930000
4.11987305,-55.92033000
4.15039063,-55.75932000
4.18090820,-56.39129000
4.21142578,-57.94318000
4.24194336,-60.43328000
4.27246094,-63.67554000
4.30297852,-68.67504000
4.33349609,-81.73959000
4.36401367,-72.90700000
4.39453125,-68.78516000
4.42504883,-67.78687000
4.45556641,-66.94017000
4.48608398,-66.41161000
4.51660156,-66.58316000
4.54711914,-65.52068000
4.57763672,-63.84690000
4.60815430,-63.75193000
4.63867188,-65.47745000
4.66918945,-65.92793000
4.69970703,-63.46428000
4.73022461,-62.05724000
4.76074219,-62.26475000
4.79125977,-62.93993000
4.82177734,-63.48171000
4.85229492,-64.95637000
4.88281250,-67.07277000
4.91333008,-66.54608000
4.94384766,-65.66995000
4.97436523,-67.80226000
5.00488281,-76.51717000
5.03540039,-75.33727000
5.06591797,-68.36489000
5.09643555,-66.20625000
5.12695313,-65.63698000
5.15747070,-65.22198000
5.18798828,-64.60438000
5.21850586,-65.01283000
5.24902344,-67.71531000
5.27954102,-74.42525000
5.31005859,-79.29750000
5.34057617,-69.87759000
5.37109375,-67.03957000
5.40161133,-67.77950000
5.43212891,-70.57092000
5.46264648,-71.16652000
5.49316406,-68.52010000
5.52368164,-65.66756000
5.55419922,-63.92839000
5.58471680,-63.30077000
5.61523438,-63.08861000
5.64575195,-63.26270000
5.67626953,-64.27438000
5.70678711,-64.95647000
5.73730469,-63.30033000
5.76782227,-60.68849000
5.79833984,-58.40759000
5.82885742,-56.89925000
5.85937500,-56.44134000
5.88989258,-57.16990000
5.92041016,-59.02888000
5.95092773,-61.22568000
5.98144531,-61.75049000
6.01196289,-60.55552000
6.04248047,-59.25000000
6.07299805,-58.43535000
6.10351563,-58.32958000
6.13403320,-59.02395000
6.16455078,-60.52716000
6.19506836,-63.06797000
6.22558594,-67.52791000
6.25610352,-72.11157000
6.28662109,-65.98057000
6.31713867,-61.71542000
6.34765625,-60.03832000
6.37817383,-60.32055000
6.40869141,-62.10622000
6.43920898,-64.86279000
6.46972656,-68.55829000
6.50024414,-74.64332000
6.53076172,-76.59402000
6.56127930,-69.42836000
6.59179688,-65.53662000
6.62231445,-63.74899000
6.65283203,-63.42273000
6.68334961,-64.15843000
6.71386719,-65.71012000
6.74438477,-67.67940000
6.77490234,-68.55139000
6.80541992,-67.26996000
6.83593750,-65.96165000
6.86645508,-65.78468000
6.89697266,-66.34448000
6.92749023,-67.15440000
6.95800781,-68.72456000
6.98852539,-72.48331000
7.01904297,-83.10898000
7.04956055,-81.39095000
7.08007813,-74.38020000
7.11059570,-71.55267000
7.14111328,-69.57533000
7.17163086,-68.19337000
7.20214844,-67.39085000
7.23266602,-67.50110000
7.26318359,-68.44583000
7.29370117,-70.02682000
7.32421875,-72.92464000
7.35473633,-78.05389000
7.38525391,-87.38936000
7.41577148,-87.13423000
7.44628906,-80.20728000
7.47680664,-77.73339000
7.50732422,-77.89864000
7.53784180,-78.39529000
7.56835938,-76.23632000
7.59887695,-75.16351000
7.62939453,-78.09634000
7.65991211,-84.97519000
7.69042969,-78.59735000
7.72094727,-75.97052000
7.75146484,-76.14480000
7.78198242,-75.94328000
7.81250000,-74.98954000
7.84301758,-74.78226000
7.87353516,-76.47722000
7.90405273,-79.59037000
7.93457031,-79.81147000
7.96508789,-76.19793000
7.99560547,-73.27757000
8.02612305,-71.92334000
8.05664063,-71.51193000
8.08715820,-71.67504000
8.11767578,-72.51597000
8.14819336,-74.03719000
8.17871094,-76.08653000
8.20922852,-79.00851000
8.23974609,-83.24760000
8.27026367,-82.41467000
8.30078125,-76.19299000
8.33129883,-72.22636000
8.36181641,-70.59364000
8.39233398,-70.95886000
8.42285156,-73.05157000
8.45336914,-76.04472000
8.48388672,-77.36746000
8.51440430,-75.45537000
8.54492188,-72.79796000
8.57543945,-71.27424000
8.60595703,-71.10751000
8.63647461,-71.50751000
8.66699219,-71.45333000
8.69750977,-71.32747000
8.72802734,-71.86334000
8.75854492,-72.74869000
8.78906250,-73.02028000
8.81958008,-72.54370000
8.85009766,-72.55273000
8.88061523,-74.56685000
8.91113281,-80.87272000
8.94165039,-87.46224000
8.97216797,-78.46398000
9.00268555,-76.65074000
9.03320313,-78.32241000
9.06372070,-80.87218000
9.09423828,-79.79593000
9.12475586,-75.86935000
9.15527344,-72.45416000
9.18579102,-70.93504000
9.21630859,-71.01083000
9.24682617,-71.50496000
9.27734375,-70.84454000
9.30786133,-69.30243000
9.33837891,-68.46896000
9.36889648,-69.16647000
9.39941406,-71.29384000
9.42993164,-73.80137000
9.46044922,-74.71301000
9.49096680,-74.38432000
9.52148438,-76.55045000
9.55200195,-84.66304000
9.58251953,-76.73516000
9.61303711,-71.53246000
9.64355469,-69.64675000
9.67407227,-69.43176000
9.70458984,-69.87786000
9.73510742,-69.91220000
9.76562500,-68.76472000
9.79614258,-67.65904000
9.82666016,-67.88102000
9.85717773,-69.81556000
9.88769531,-73.82293000
9.91821289,-79.47385000
9.94873047,-80.54515000
9.97924805,-77.46761000
10.00976563,-74.91678000
10.04028320,-74.21436000
10.07080078,-75.52768000
10.10131836,-77.74551000
10.13183594,-77.94364000
10.16235352,-77.24305000
10.19287109,-77.31180000
10.22338867,-76.73894000
10.25390625,-72.65862000
10.28442383,-69.14801000
10.31494141,-67.90437000
10.34545898,-68.35192000
10.37597656,-69.04534000
10.40649414,-69.03882000
10.43701172,-68.66376000
10.46752930,-68.69348000
10.49804688,-69.91196000
10.52856445,-72.24939000
10.55908203,-74.95631000
10.58959961,-76.47559000
10.62011719,-75.81626000
10.65063477,-75.77455000
10.68115234,-77.75221000
10.71166992,-81.40213000
10.74218750,-83.18602000
10.77270508,-82.92329000
10.80322266,-79.02141000
10.83374023,-73.89531000
10.86425781,-71.72346000
10.89477539,-72.06821000
10.92529297,-73.47976000
10.95581055,-73.43415000
10.98632813,-71.77376000
11.01684570,-70.86770000
11.04736328,-71.65276000
11.07788086,-74.14002000
11.10839844,-77.67739000
11.13891602,-79.92204000
11.16943359,-79.35780000
11.19995117,-79.31025000
11.23046875,-80.64861000
11.26098633,-75.25898000
11.29150391,-70.73875000
11.32202148,-69.15876000
11.35253906,-69.56042000
11.38305664,-71.30485000
11.41357422,-75.14922000
11.44409180,-85.01655000
11.47460938,-86.46344000
11.50512695,-77.25383000
11.53564453,-73.16434000
11.56616211,-71.81149000
11.59667969,-72.88872000
11.62719727,-76.28949000
11.65771484,-83.94916000
11.68823242,-89.17667000
11.71875000,-80.64752000
11.74926758,-82.29142000
11.77978516,-88.21368000
11.81030273,-75.36571000
11.84082031,-71.52330000
11.87133789,-71.05369000
11.90185547,-72.94638000
11.93237305,-78.08264000
11.96289063,-81.59027000
11.99340820,-75.48417000
12.02392578,-74.41542000
12.05444336,-75.97953000
12.08496094,-75.80283000
12.11547852,-73.43359000
12.14599609,-70.16812000
12.17651367,-66.95032000
12.20703125,-65.11755000
12.23754883,-64.97819000
12.26806641,-65.56626000
12.29858398,-65.67677000
12.32910156,-65.48415000
12.35961914,-65.29144000
12.39013672,-65.35219000
12.42065430,-66.18349000
12.45117188,-68.31844000
12.48168945,-71.86988000
12.51220703,-74.58440000
12.54272461,-73.15074000
12.57324219,-71.25491000
12.60375977,-70.47088000
12.63427734,-70.12202000
12.66479492,-69.38745000
12.69531250,-68.63378000
12.72583008,-67.46973000
12.75634766,-65.79041000
12.78686523,-65.12877000
12.81738281,-65.84953000
12.84790039,-66.83836000
12.87841797,-67.02071000
12.90893555,-66.65269000
12.93945313,-66.36417000
12.96997070,-66.81210000
13.00048828,-68.11726000
13.03100586,-69.58826000
13.06152344,-70.46670000
13.09204102,-71.15890000
13.12255859,-72.98191000
13.15307617,-77.75581000
13.18359375,-84.52875000
13.21411133,-77.61810000
13.24462891,-75.38970000
13.27514648,-77.02391000
13.30566406,-80.49059000
13.33618164,-77.81300000
13.36669922,-73.48061000
13.39721680,-71.28279000
13.42773438,-71.17736000
13.45825195,-71.30852000
13.48876953,-69.75686000
13.51928711,-67.82302000
13.54980469,-66.93706000
13.58032227,-68.27623000
13.61083984,-72.60385000
13.64135742,-78.65067000
13.67187500,-81.20586000
13.70239258,-77.38189000
13.73291016,-72.42927000
13.76342773,-70.31175000
13.79394531,-69.86485000
13.82446289,-69.87975000
13.85498047,-70.17590000
13.88549805,-71.56905000
13.91601563,-73.84204000
13.94653320,-74.17924000
13.97705078,-73.80674000
14.00756836,-74.05267000
14.03808594,-74.07143000
14.06860352,-73.92428000
14.09912109,-74.02436000
14.12963867,-74.55527000
14.16015625,-75.96824000
14.19067383,-77.81644000
14.22119141,-78.74799000
14.25170898,-78.44446000
14.28222656,-78.72079000
14.31274414,-82.47969000
14.34326172,-94.34050000
14.37377930,-84.22771000
14.40429688,-82.70132000
14.43481445,-91.24424000
14.46533203,-85.65504000
14.49584961,-78.37639000
14.52636719,-76.02431000
14.55688477,-74.24915000
14.58740234,-72.93762000
14.61791992,-73.93015000
14.64843750,-77.94034000
14.67895508,-79.75264000
14.70947266,-76.58065000
14.73999023,-73.75566000
14.77050781,-71.00024000
14.80102539,-69.08383000
14.83154297,-68.52960000
14.86206055,-69.69434000
14.89257813,-72.90320000
14.92309570,-78.07839000
14.95361328,-80.61600000
14.98413086,-78.72819000
15.01464844,-78.05000000
15.04516602,-78.69021000
15.07568359,-80.56075000
15.10620117,-80.78734000
15.13671875,-75.23151000
15.16723633,-71.85374000
15.19775391,-71.53249000
15.22827148,-73.09711000
15.25878906,-74.32651000
15.28930664,-73.91820000
15.31982422,-73.10838000
15.35034180,-74.66094000
15.38085938,-81.59156000
15.41137695,-92.50665000
15.44189453,-83.75621000
15.47241211,-89.79181000
15.50292969,-83.90884000
15.53344727,-76.02284000
15.56396484,-73.24014000
15.59448242,-72.92051000
15.62500000,-74.09268000
15.65551758,-75.75477000
15.68603516,-76.87013000
15.71655273,-77.10353000
15.74707031,-76.55664000
15.77758789,-76.69170000
15.80810547,-78.15337000
15.83862305,-77.81724000
15.86914063,-76.17257000
15.89965820,-76.08212000
15.93017578,-76.75485000
15.96069336,-77.04757000
15.99121094,-76.74737000
16.02172852,-76.05849000
16.05224609,-75.97182000
16.08276367,-77.21980000
16.11328125,-79.25862000
16.14379883,-80.42702000
16.17431641,-80.84929000
16.20483398,-81.69319000
16.23535156,-84.53515000
16.26586914,-93.47334000
16.29638672,-86.15803000
16.32690430,-80.40015000
16.35742188,-77.66068000
16.38793945,-75.80619000
16.41845703,-74.39383000
16.44897461,-73.63954000
16.47949219,-73.79938000
16.51000977,-74.57824000
16.54052734,-74.76704000
16.57104492,-73.93707000
16.60156250,-73.40337000
16.63208008,-73.70260000
16.66259766,-74.25817000
16.69311523,-74.48547000
16.72363281,-74.85892000
16.75415039,-76.42191000
16.78466797,-79.80668000
16.81518555,-85.16811000
16.84570313,-87.89542000
16.87622070,-84.20567000
16.90673828,-82.33150000
16.93725586,-80.51146000
16.96777344,-76.83150000
16.99829102,-73.32014000
17.02880859,-70.93655000
17.05932617,-69.82501000
17.08984375,-69.83747000
17.12036133,-70.44599000
17.15087891,-70.94524000
17.18139648,-71.22311000
17.21191406,-71.88552000
17.24243164,-73.03974000
17.27294922,-73.73393000
17.30346680,-74.03664000
17.33398438,-74.83956000
17.36450195,-76.03671000
17.39501953,-77.61655000
17.42553711,-80.72676000
17.45605469,-89.38405000
17.48657227,-83.33665000
17.51708984,-77.39143000
17.54760742,-75.57280000
17.57812500,-75.96805000
17.60864258,-76.95203000
17.63916016,-76.96614000
17.66967773,-76.37487000
17.70019531,-72.90901000
17.73071289,-70.29439000
17.76123047,-69.85796000
17.79174805,-69.98547000
17.82226563,-70.48047000
17.85278320,-72.60613000
17.88330078,-76.33505000
17.91381836,-78.13216000
17.94433594,-77.55867000
17.97485352,-78.23378000
18.00537109,-80.68107000
18.03588867,-85.00238000
18.06640625,-86.53090000
18.09692383,-86.37535000
18.12744141,-88.52975000
18.15795898,-92.53974000
18.18847656,-97.35185000
18.21899414,-90.81246000
18.24951172,-84.85103000
18.28002930,-81.69727000
18.31054688,-80.76936000
18.34106445,-81.47124000
18.37158203,-82.20151000
18.40209961,-81.07655000
18.43261719,-79.71118000
18.46313477,-80.27968000
18.49365234,-82.83537000
18.52416992,-86.35335000
18.55468750,-88.86896000
18.58520508,-88.50565000
18.61572266,-87.86643000
18.64624023,-87.32369000
18.67675781,-86.59187000
18.70727539,-87.80463000
18.73779297,-94.08950000
18.76831055,-98.33221000
18.79882813,-92.56494000
18.82934570,-88.23208000
18.85986328,-83.59168000
18.89038086,-79.71918000
18.92089844,-77.20595000
18.95141602,-76.22255000
18.98193359,-76.63445000
19.01245117,-77.78092000
19.04296875,-78.47564000
19.07348633,-78.09531000
19.10400391,-77.24608000
19.13452148,-76.64325000
19.16503906,-76.78962000
19.19555664,-78.36203000
19.22607422,-82.34130000
19.25659180,-89.74937000
19.28710938,-89.61814000
19.31762695,-86.09719000
19.34814453,-83.36345000
19.37866211,-80.56277000
19.40917969,-78.50565000
19.43969727,-77.65134000
19.47021484,-78.18297000
19.50073242,-79.48926000
19.53125000,-80.23990000
19.56176758,-80.21145000
19.59228516,-79.76544000
19.62280273,-79.04059000
19.65332031,-79.22224000
19.68383789,-81.70392000
19.71435547,-86.96603000
19.74487305,-89.60245000
19.77539063,-86.66188000
19.80590820,-82.97230000
19.83642578,-81.82788000
19.86694336,-84.72623000
19.89746094,-93.96245000
19.92797852,-101.34290000
19.95849609,-88.46581000
19.98901367,-83.27293000
20.01953125,-81.90856000
20.05004883,-82.79112000
20.08056641,-83.61650000
20.11108398,-81.96400000
20.14160156,-79.00039000
20.17211914,-76.98399000
20.20263672,-76.60027000
20.23315430,-77.64355000
20.26367188,-79.16418000
20.29418945,-79.52004000
20.32470703,-78.73345000
20.35522461,-78.69054000
20.38574219,-80.04350000
20.41625977,-81.54504000
20.44677734,-82.70590000
20.47729492,-84.54938000
20.50781250,-86.71548000
20.53833008,-87.84068000
20.56884766,-89.09421000
20.59936523,-93.59671000
20.62988281,-94.88966000
20.66040039,-90.17665000
20.69091797,-87.13965000
20.72143555,-83.99733000
20.75195313,-80.63694000
20.78247070,-78.71199000
20.81298828,-78.24983000
20.84350586,-78.14263000
20.87402344,-78.31374000
20.90454102,-79.24010000
20.93505859,-80.24655000
20.96557617,-80.14456000
20.99609375,-78.73027000
21.02661133,-77.67284000
21.05712891,-78.95673000
21.08764648,-84.82993000
21.11816406,-88.87555000
21.14868164,-83.77758000
21.17919922,-83.93437000
21.20971680,-84.97993000
21.24023438,-82.79778000
21.27075195,-79.00404000
21.30126953,-76.36730000
21.33178711,-75.42569000
21.36230469,-75.66473000
21.39282227,-76.17394000
21.42333984,-76.15312000
21.45385742,-75.50896000
21.48437500,-74.88187000
21.51489258,-74.89336000
21.54541016,-75.50637000
21.57592773,-76.32597000
21.60644531,-77.46178000
21.63696289,-79.32696000
21.66748047,-82.00879000
21.69799805,-84.71035000
21.72851563,-86.00196000
21.75903320,-86.07202000
21.78955078,-84.56056000
21.82006836,-82.45724000
21.85058594,-81.33871000
21.88110352,-81.17044000
21.91162109,-81.81696000
21.94213867,-83.96001000
21.97265625,-88.05475000
22.00317383,-90.81331000
22.03369141,-90.52810000
22.06420898,-92.20307000
22.09472656,-92.04934000
22.12524414,-87.11548000
22.15576172,-83.75237000
22.18627930,-82.34782000
22.21679688,-82.30984000
22.24731445,-83.20598000
22.27783203,-85.03291000
22.30834961,-87.65327000
22.33886719,-90.10065000
22.36938477,-89.12952000
22.39990234,-85.70377000
22.43041992,-83.85672000
22.46093750,-83.39092000
22.49145508,-82.48374000
22.52197266,-80.23384000
22.55249023,-78.50941000
22.58300781,-78.67661000
22.61352539,-81.31882000
22.64404297,-87.62576000
22.67456055,-91.07538000
22.70507813,-84.11623000
22.73559570,-81.71928000
22.76611328,-82.41372000
22.79663086,-85.58080000
22.82714844,-92.21970000
22.85766602,-90.31908000
22.88818359,-84.21725000
22.91870117,-82.43546000
22.94921875,-82.48928000
22.97973633,-82.71313000
23.01025391,-82.51759000
23.04077148,-81.33529000
23.07128906,-81.00449000
23.10180664,-84.19259000
23.13232422,-94.27449000
23.16284180,-87.49969000
23.19335938,-85.11374000
23.22387695,-87.44733000
23.25439453,-90.25260000
23.28491211,-87.43869000
23.31542969,-85.04704000
23.34594727,-83.42689000
23.37646484,-81.40659000
23.40698242,-79.69469000
23.43750000,-79.91552000
23.46801758,-83.61618000
23.49853516,-93.52870000
23.52905273,-87.44511000
23.55957031,-84.06953000
23.59008789,-84.87255000
23.62060547,-91.73699000
23.65112305,-89.79539000
23.68164063,-81.47742000
23.71215820,-79.33610000
23.74267578,-80.95429000
23.77319336,-87.32117000
23.80371094,-97.92052000
23.83422852,-87.21770000
23.86474609,-84.70587000
23.89526367,-84.52415000
23.92578125,-85.00777000
23.95629883,-84.79542000
23.98681641,-83.54485000
24.01733398,-82.38143000
24.04785156,-82.57294000
24.07836914,-84.82153000
24.10888672,-88.47726000
24.13940430,-90.93617000
24.16992188,-90.42111000
24.20043945,-87.37472000
24.23095703,-85.23042000
24.26147461,-84.54533000
24.29199219,-86.10759000
24.32250977,-88.86051000
24.35302734,-86.42505000
24.38354492,-84.31970000
24.41406250,-84.28848000
24.44458008,-85.46859000
24.47509766,-87.25476000
24.50561523,-90.02540000
24.53613281,-97.81030000
24.56665039,-88.91746000
24.59716797,-82.37947000
24.62768555,-79.74380000
24.65820313,-79.21013000
24.68872070,-79.67104000
24.71923828,-80.63974000
24.74975586,-82.41093000
24.78027344,-84.04786000
24.81079102,-83.84422000
24.84130859,-82.83416000
24.87182617,-82.03373000
24.90234375,-81.74994000
24.93286133,-81.92112000
24.96337891,-81.72730000
24.99389648,-81.32336000
25.02441406,-81.79198000
25.05493164,-83.62354000
25.08544922,-86.32440000
25.11596680,-85.54604000
25.14648438,-83.26562000
25.17700195,-82.63199000
25.20751953,-83.89648000
25.23803711,-86.47362000
25.26855469,-85.59172000
25.29907227,-83.76933000
25.32958984,-84.72246000
25.36010742,-87.61792000
25.39062500,-88.15156000
25.42114258,-84.94470000
25.45166016,-81.99868000
25.48217773,-80.96725000
25.51269531,-82.47090000
25.54321289,-86.68835000
25.57373047,-93.09928000
25.60424805,-97.53909000
25.63476563,-95.10162000
25.66528320,-94.96444000
25.69580078,-101.20930000
25.72631836,-88.77473000
25.75683594,-83.50500000
25.78735352,-81.54568000
25.81787109,-81.22993000
25.84838867,-82.79588000
25.87890625,-87.97124000
25.90942383,-91.41144000
25.93994141,-87.67070000
25.97045898,-88.28516000
26.00097656,-88.60123000
26.03149414,-86.04427000
26.06201172,-84.06189000
26.09252930,-83.45645000
26.12304688,-84.75028000
26.15356445,-87.49348000
26.18408203,-88.16395000
26.21459961,-87.73808000
26.24511719,-88.53446000
26.27563477,-89.24031000
26.30615234,-88.80560000
26.33666992,-88.98064000
26.36718750,-90.93552000
26.39770508,-95.35399000
26.42822266,-111.71050000
26.45874023,-95.43247000
26.48925781,-89.60400000
26.51977539,-89.07970000
26.55029297,-91.15867000
26.58081055,-91.10256000
26.61132813,-93.73373000
26.64184570,-100.28130000
26.67236328,-93.89236000
26.70288086,-93.74371000
26.73339844,-93.40927000
26.76391602,-88.89818000
26.79443359,-85.77211000
26.82495117,-84.45544000
26.85546875,-85.04138000
26.88598633,-87.84523000
26.91650391,-92.03644000
26.94702148,-89.43742000
26.97753906,-85.38265000
27.00805664,-84.29954000
27.03857422,-85.31818000
27.06909180,-88.09331000
27.09960938,-95.53287000
27.13012695,-95.96819000
27.16064453,-90.96201000
27.19116211,-92.35337000
27.22167969,-94.81506000
27.25219727,-88.64548000
27.28271484,-83.88098000
27.31323242,-81.89433000
27.34375000,-82.40043000
27.37426758,-85.17853000
27.40478516,-88.68016000
27.43530273,-86.74209000
27.46582031,-83.30103000
27.49633789,-81.54214000
27.52685547,-81.41315000
27.55737305,-82.52065000
27.58789063,-84.16415000
27.61840820,-85.72217000
27.64892578,-87.93694000
27.67944336,-94.92146000
27.70996094,-95.25352000
27.74047852,-86.38666000
27.77099609,-85.00800000
27.80151367,-88.14758000
27.83203125,-98.91067000
27.86254883,-98.24695000
27.89306641,-91.69961000
27.92358398,-90.35343000
27.95410156,-93.07384000
27.98461914,-100.48750000
28.01513672,-98.21555000
28.04565430,-96.87549000
28.07617188,-92.43400000
28.10668945,-90.70454000
28.13720703,-90.93288000
28.16772461,-88.34958000
28.19824219,-84.70608000
28.22875977,-82.55740000
28.25927734,-80.15922000
28.28979492,-77.99687000
28.32031250,-77.53877000
28.35083008,-79.17413000
28.38134766,-83.10939000
28.41186523,-90.17364000
28.44238281,-92.95029000
28.47290039,-87.21690000
28.50341797,-85.82578000
28.53393555,-87.19727000
28.56445313,-90.64140000
28.59497070,-94.70943000
28.62548828,-88.31402000
28.65600586,-83.87892000
28.68652344,-82.60418000
28.71704102,-83.85245000
28.74755859,-87.46504000
28.77807617,-91.78908000
28.80859375,-91.40022000
28.83911133,-91.71861000
28.86962891,-97.78182000
28.90014648,-99.84239000
28.93066406,-92.89475000
28.96118164,-91.41638000
28.99169922,-90.40261000
29.02221680,-90.29704000
29.05273438,-92.80721000
29.08325195,-95.61916000
29.11376953,-96.25607000
29.14428711,-97.65193000
29.17480469,-94.87034000
29.20532227,-89.73874000
29.23583984,-85.98034000
29.26635742,-84.06860000
29.29687500,-84.20776000
29.32739258,-85.73465000
29.35791016,-89.06361000
29.38842773,-94.32710000
29.41894531,-92.59276000
29.44946289,-92.62900000
29.47998047,-94.58946000
29.51049805,-92.89804000
29.54101563,-89.53747000
29.57153320,-86.76924000
29.60205078,-85.37753000
29.63256836,-84.96513000
29.66308594,-84.33239000
29.69360352,-83.47951000
29.72412109,-82.62894000
29.75463867,-81.75111000
29.78515625,-81.79156000
29.81567383,-83.50185000
29.84619141,-86.67545000
29.87670898,-89.45924000
29.90722656,-88.64497000
29.93774414,-85.84947000
29.96826172,-83.74660000
29.99877930,-83.12007000
30.02929688,-84.21165000
30.05981445,-86.78241000
30.09033203,-89.23801000
30.12084961,-89.58108000
30.15136719,-88.36956000
30.18188477,-86.91898000
30.21240234,-86.20033000
30.24291992,-86.59746000
30.27343750,-88.62486000
30.30395508,-94.59291000
30.33447266,-98.12035000
30.36499023,-88.78685000
30.39550781,-86.18835000
30.42602539,-87.45950000
30.45654297,-93.32221000
30.48706055,-105.84700000
30.51757813,-96.98974000
30.54809570,-96.33102000
30.57861328,-97.09096000
30.60913086,-96.38775000
30.63964844,-94.32616000
30.67016602,-92.78660000
30.70068359,-92.29000000
30.73120117,-93.23067000
30.76171875,-96.83295000
30.79223633,-104.81530000
30.82275391,-105.12720000
30.85327148,-96.08219000
30.88378906,-98.04650000
30.91430664,-103.79930000
30.94482422,-92.21413000
30.97534180,-88.94829000
31.00585938,-88.87003000
31.03637695,-89.40126000
31.06689453,-85.13851000
31.09741211,-83.09524000
31.12792969,-84.48623000
31.15844727,-86.39085000
31.18896484,-85.13849000
31.21948242,-84.89030000
31.25000000,-86.72607000
31.28051758,-88.35305000
31.31103516,-87.11082000
31.34155273,-85.68615000
31.37207031,-85.95387000
31.40258789,-87.35454000
31.43310547,-86.99935000
31.46362305,-84.11458000
31.49414063,-81.95631000
31.52465820,-82.01717000
31.55517578,-83.47675000
31.58569336,-84.10727000
31.61621094,-84.06219000
31.64672852,-84.55798000
31.67724609,-86.53293000
31.70776367,-90.74785000
31.73828125,-95.83879000
31.76879883,-102.44770000
31.79931641,-97.60543000
31.82983398,-89.59599000
31.86035156,-86.11825000
31.89086914,-85.45944000
31.92138672,-87.45583000
31.95190430,-91.16043000
31.98242188,-91.52383000
32.01293945,-87.38214000
32.04345703,-84.41323000
32.07397461,-84.42198000
32.10449219,-88.10365000
32.13500977,-96.54494000
32.16552734,-90.43500000
32.19604492,-86.15454000
32.22656250,-84.73366000
32.25708008,-85.23566000
32.28759766,-87.85339000
32.31811523,-91.88408000
32.34863281,-89.18450000
32.37915039,-85.62769000
32.40966797,-85.05416000
32.44018555,-87.61646000
32.47070313,-94.14810000
32.50122070,-91.77301000
32.53173828,-86.00117000
32.56225586,-83.19916000
32.59277344,-82.46250000
32.62329102,-84.15340000
32.65380859,-90.03040000
32.68432617,-90.29839000
32.71484375,-84.28468000
32.74536133,-83.38260000
32.77587891,-86.71456000
32.80639648,-90.67648000
32.83691406,-86.25441000
32.86743164,-84.51096000
32.89794922,-85.36020000
32.92846680,-88.60297000
32.95898438,-95.15961000
32.98950195,-100.01340000
33.02001953,-92.90472000
33.05053711,-88.08894000
33.08105469,-87.37973000
33.11157227,-89.93178000
33.14208984,-91.58257000
33.17260742,-91.51479000
33.20312500,-93.61149000
33.23364258,-90.27316000
33.26416016,-87.70863000
33.29467773,-89.83208000
33.32519531,-99.19324000
33.35571289,-94.89304000
33.38623047,-91.89040000
33.41674805,-89.89299000
33.44726563,-88.45132000
33.47778320,-91.43692000
33.50830078,-104.71650000
33.53881836,-95.86597000
33.56933594,-94.45377000
33.59985352,-100.75040000
33.63037109,-100.83300000
33.66088867,-97.44233000
33.69140625,-97.18781000
33.72192383,-90.49981000
33.75244141,-86.18016000
33.78295898,-82.77693000
33.81347656,-80.23167000
33.84399414,-79.49119000
33.87451172,-80.31098000
33.90502930,-82.73483000
33.93554688,-89.08893000
33.96606445,-90.53414000
33.99658203,-83.81662000
34.02709961,-82.94344000
34.05761719,-86.28226000
34.08813477,-92.18621000
34.11865234,-90.22988000
34.14916992,-86.51361000
34.17968750,-84.16129000
34.21020508,-82.54538000
34.24072266,-81.58453000
34.27124023,-81.58784000
34.30175781,-82.35403000
34.33227539,-83.76113000
34.36279297,-86.56787000
34.39331055,-92.22281000
34.42382813,-100.75140000
34.45434570,-101.54660000
34.48486328,-98.59924000
34.51538086,-95.68679000
34.54589844,-96.05515000
34.57641602,-96.55244000
34.60693359,-96.60934000
34.63745117,-93.16115000
34.66796875,-89.84879000
34.69848633,-90.85062000
34.72900391,-99.80811000
34.75952148,-96.03384000
34.79003906,-92.21533000
34.82055664,-95.77826000
34.85107422,-101.27800000
34.88159180,-93.90626000
34.91210938,-93.28320000
34.94262695,-98.50914000
34.97314453,-89.45540000
35.00366211,-84.18397000
35.03417969,-82.95619000
35.06469727,-84.49149000
35.09521484,-87.84126000
35.12573242,-88.96062000
35.15625000,-85.45169000
35.18676758,-83.14404000
35.21728516,-82.67063000
35.24780273,-82.81165000
35.27832031,-83.05211000
35.30883789,-84.80499000
35.33935547,-89.65118000
35.36987305,-101.24680000
35.40039063,-103.86430000
35.43090820,-99.42390000
35.46142578,-92.16006000
35.49194336,-87.06458000
35.52246094,-85.18467000
35.55297852,-84.24313000
35.58349609,-83.19757000
35.61401367,-83.35648000
35.64453125,-86.33559000
35.67504883,-96.81385000
35.70556641,-91.27168000
35.73608398,-84.68771000
35.76660156,-82.09408000
35.79711914,-81.98534000
35.82763672,-85.58641000
35.85815430,-98.79604000
35.88867188,-88.78107000
35.91918945,-85.60001000
35.94970703,-85.35844000
35.98022461,-85.71556000
36.01074219,-88.18968000
36.04125977,-97.63303000
36.07177734,-95.95924000
36.10229492,-88.04372000
36.13281250,-85.47334000
36.16333008,-86.20886000
36.19384766,-91.15151000
36.22436523,-88.41406000
36.25488281,-83.76863000
36.28540039,-83.05933000
36.31591797,-84.92413000
36.34643555,-87.56875000
36.37695313,-88.36114000
36.40747070,-89.06937000
36.43798828,-90.96490000
36.46850586,-92.62108000
36.49902344,-98.08864000
36.52954102,-96.64986000
36.56005859,-85.91888000
36.59057617,-81.69953000
36.62109375,-80.29698000
36.65161133,-80.96114000
36.68212891,-83.48550000
36.71264648,-87.31265000
36.74316406,-91.23077000
36.77368164,-94.92601000
36.80419922,-100.10600000
36.83471680,-94.13782000
36.86523438,-86.03745000
36.89575195,-81.98405000
36.92626953,-80.85143000
36.95678711,-81.91380000
36.98730469,-84.67566000
37.01782227,-89.05949000
37.04833984,-94.33968000
37.07885742,-93.42770000
37.10937500,-91.39980000
37.13989258,-92.02316000
37.17041016,-94.43756000
37.20092773,-97.96542000
37.23144531,-106.33030000
37.26196289,-107.39720000
37.29248047,-102.53110000
37.32299805,-108.17320000
37.35351563,-101.30520000
37.38403320,-95.18106000
37.41455078,-91.90460000
37.44506836,-89.15207000
37.47558594,-86.66573000
37.50610352,-85.57050000
37.53662109,-87.01042000
37.56713867,-90.98662000
37.59765625,-94.83620000
37.62817383,-95.05790000
37.65869141,-93.74406000
37.68920898,-93.78953000
37.71972656,-96.58369000
37.75024414,-102.40740000
37.78076172,-104.40590000
37.81127930,-99.51102000
37.84179688,-95.53282000
37.87231445,-92.99305000
37.90283203,-89.73496000
37.93334961,-88.61592000
37.96386719,-92.66441000
37.99438477,-104.61100000
38.02490234,-92.45693000
38.05541992,-91.26408000
38.08593750,-92.72771000
38.11645508,-95.62779000
38.14697266,-99.48422000
38.17749023,-93.63235000
38.20800781,-91.53983000
38.23852539,-92.98447000
38.26904297,-95.96534000
38.29956055,-98.40134000
38.33007813,-95.97986000
38.36059570,-94.75391000
38.39111328,-94.32416000
38.42163086,-90.04854000
38.45214844,-86.57545000
38.48266602,-85.04399000
38.51318359,-84.92522000
38.54370117,-86.09209000
38.57421875,-88.18864000
38.60473633,-90.26414000
38.63525391,-91.73950000
38.66577148,-90.01935000
38.69628906,-87.64321000
38.72680664,-85.84683000
38.75732422,-84.89036000
38.78784180,-85.09966000
38.81835938,-85.73579000
38.84887695,-86.09634000
38.87939453,-86.73568000
38.90991211,-88.42988000
38.94042969,-89.68983000
38.97094727,-87.52814000
39.00146484,-85.05875000
39.03198242,-84.19159000
39.06250000,-85.36983000
39.09301758,-89.90986000
39.12353516,-100.31390000
39.15405273,-89.61620000
39.18457031,-87.43053000
39.21508789,-87.90267000
39.24560547,-86.00262000
39.27612305,-84.71127000
39.30664063,-85.10593000
39.33715820,-86.42269000
39.36767578,-87.50053000
39.39819336,-86.41251000
39.42871094,-85.00572000
39.45922852,-85.13322000
39.48974609,-87.46533000
39.52026367,-92.09954000
39.55078125,-102.41300000
39.58129883,-93.98644000
39.61181641,-88.93829000
39.64233398,-87.30649000
39.67285156,-86.49069000
39.70336914,-86.63086000
39.73388672,-89.44321000
39.76440430,-95.08785000
39.79492188,-91.39358000
39.82543945,-88.21306000
39.85595703,-87.99168000
39.88647461,-90.75183000
39.91699219,-101.28110000
39.94750977,-97.40495000
39.97802734,-92.16270000
40.00854492,-93.81768000
40.03906250,-98.21001000
40.06958008,-95.55037000
40.10009766,-94.21334000
40.13061523,-94.86718000
40.16113281,-92.65950000
40.19165039,-90.72243000
40.22216797,-91.52481000
40.25268555,-92.56313000
40.28320313,-89.33247000
40.31372070,-88.61855000
40.34423828,-92.28271000
40.37475586,-101.64980000
40.40527344,-108.28420000
40.43579102,-100.41330000
40.46630859,-98.99751000
40.49682617,-94.92669000
40.52734375,-88.24958000
40.55786133,-83.77501000
40.58837891,-82.51209000
40.61889648,-85.12755000
40.64941406,-92.49721000
40.67993164,-94.98178000
40.71044922,-86.97709000
40.74096680,-81.85828000
40.77148438,-80.31462000
40.80200195,-81.68646000
40.83251953,-84.93753000
40.86303711,-86.34238000
40.89355469,-86.72864000
40.92407227,-89.59683000
40.95458984,-92.90901000
40.98510742,-94.13293000
41.01562500,-95.84801000
41.04614258,-94.03038000
41.07666016,-88.37263000
41.10717773,-83.90359000
41.13769531,-81.69897000
41.16821289,-82.13152000
41.19873047,-86.06105000
41.22924805,-95.68272000
41.25976563,-89.54250000
41.29028320,-84.47981000
41.32080078,-81.39652000
41.35131836,-79.29403000
41.38183594,-78.59493000
41.41235352,-79.68031000
41.44287109,-82.55589000
41.47338867,-86.28990000
41.50390625,-86.41273000
41.53442383,-84.26247000
41.56494141,-84.35482000
41.59545898,-86.30912000
41.62597656,-87.08034000
41.65649414,-87.26264000
41.68701172,-89.61762000
41.71752930,-92.91522000
41.74804688,-91.95034000
41.77856445,-91.48834000
41.80908203,-94.78611000
41.83959961,-111.06670000
41.87011719,-93.34679000
41.90063477,-87.59952000
41.93115234,-85.45374000
41.96166992,-85.09186000
41.99218750,-86.93219000
42.02270508,-95.73810000
42.05322266,-87.72234000
42.08374023,-83.15613000
42.11425781,-83.36853000
42.14477539,-84.93250000
42.17529297,-84.57992000
42.20581055,-83.50330000
42.23632813,-83.40179000
42.26684570,-82.70951000
42.29736328,-80.34148000
42.32788086,-79.48782000
42.35839844,-81.26340000
42.38891602,-86.17990000
42.41943359,-93.77119000
42.44995117,-92.48221000
42.48046875,-89.77692000
42.51098633,-87.67731000
42.54150391,-87.44443000
42.57202148,-89.66838000
42.60253906,-89.91500000
42.63305664,-86.05106000
42.66357422,-84.59726000
42.69409180,-85.83215000
42.72460938,-88.50423000
42.75512695,-88.76717000
42.78564453,-87.48662000
42.81616211,-89.20274000
42.84667969,-97.25900000
42.87719727,-93.44986000
42.90771484,-88.33824000
42.93823242,-86.85955000
42.96875000,-85.31870000
42.99926758,-82.18911000
43.02978516,-80.22758000
43.06030273,-80.68097000
43.09082031,-83.93501000
43.12133789,-90.85916000
43.15185547,-94.31374000
43.18237305,-88.72102000
43.21289063,-85.58521000
43.24340820,-84.10641000
43.27392578,-83.98830000
43.30444336,-84.90286000
43.33496094,-86.59282000
43.36547852,-88.84532000
43.39599609,-88.67733000
43.42651367,-86.90235000
43.45703125,-88.53496000
43.48754883,-98.89664000
43.51806641,-95.59885000
43.54858398,-89.85485000
43.57910156,-88.25568000
43.60961914,-86.67336000
43.64013672,-84.93195000
43.67065430,-83.99452000
43.70117188,-83.87364000
43.73168945,-83.90075000
43.76220703,-84.41453000
43.79272461,-87.60001000
43.82324219,-95.28668000
43.85375977,-88.68350000
43.88427734,-86.29440000
43.91479492,-86.50218000
43.94531250,-86.56224000
43.97583008,-88.34611000
44.00634766,-96.04637000
44.03686523,-96.66679000
44.06738281,-89.71061000
44.09790039,-89.40239000
44.12841797,-94.96842000
44.15893555,-93.73256000
44.18945313,-85.96712000
44.21997070,-83.27769000
44.25048828,-83.22185000
44.28100586,-85.05077000
44.31152344,-87.74539000
44.34204102,-88.91763000
44.37255859,-89.48605000
44.40307617,-90.09743000
44.43359375,-87.01687000
44.46411133,-84.04085000
44.49462891,-84.37964000
44.52514648,-87.78294000
44.55566406,-88.21899000
44.58618164,-87.82395000
44.61669922,-91.35397000
44.64721680,-93.66577000
44.67773438,-91.27835000
44.70825195,-92.77055000
44.73876953,-101.25110000
44.76928711,-90.95250000
44.79980469,-85.39803000
44.83032227,-83.79016000
44.86083984,-85.08418000
44.89135742,-89.69310000
44.92187500,-90.57401000
44.95239258,-84.92774000
44.98291016,-82.62502000
45.01342773,-82.68214000
45.04394531,-83.99552000
45.07446289,-85.51677000
45.10498047,-87.33171000
45.13549805,-90.75005000
45.16601563,-96.44551000
45.19653320,-115.86640000
45.22705078,-92.63406000
45.25756836,-86.23311000
45.28808594,-84.16122000
45.31860352,-83.10234000
45.34912109,-81.81335000
45.37963867,-81.42559000
45.41015625,-82.33356000
45.44067383,-83.94067000
45.47119141,-84.48558000
45.50170898,-83.45901000
45.53222656,-82.70192000
45.56274414,-82.97012000
45.59326172,-84.68766000
45.62377930,-88.28732000
45.65429688,-89.43027000
45.68481445,-86.14559000
45.71533203,-85.24135000
45.74584961,-87.24060000
45.77636719,-88.89881000
45.80688477,-86.54273000
45.83740234,-85.30777000
45.86791992,-85.68688000
45.89843750,-86.39590000
45.92895508,-87.61292000
45.95947266,-92.67643000
45.98999023,-102.85980000
46.02050781,-89.88234000
46.05102539,-87.90346000
46.08154297,-88.68712000
46.11206055,-91.42690000
46.14257813,-94.83031000
46.17309570,-86.01508000
46.20361328,-82.27084000
46.23413086,-82.16881000
46.26464844,-84.67642000
46.29516602,-89.20165000
46.32568359,-90.87147000
46.35620117,-86.34317000
46.38671875,-83.91219000
46.41723633,-84.09868000
46.44775391,-86.24895000
46.47827148,-88.92376000
46.50878906,-89.72821000
46.53930664,-88.28432000
46.56982422,-87.07897000
46.60034180,-87.18792000
46.63085938,-87.16537000
46.66137695,-85.73022000
46.69189453,-84.89345000
46.72241211,-86.22098000
46.75292969,-91.26237000
46.78344727,-105.04530000
46.81396484,-94.96690000
46.84448242,-95.84319000
46.87500000,-104.61570000
46.90551758,-93.13775000
46.93603516,-88.31321000
46.96655273,-85.39151000
46.99707031,-83.75801000
47.02758789,-83.83285000
47.05810547,-86.36605000
47.08862305,-91.12286000
47.11914063,-92.25185000
47.14965820,-92.33028000
47.18017578,-93.38609000
47.21069336,-92.92205000
47.24121094,-91.36712000
47.27172852,-94.61593000
47.30224609,-96.52481000
47.33276367,-86.91521000
47.36328125,-84.89608000
47.39379883,-86.48998000
47.42431641,-89.40735000
47.45483398,-91.80817000
47.48535156,-90.38374000
47.51586914,-88.46236000
47.54638672,-94.85547000
47.57690430,-90.91006000
47.60742188,-84.67462000
47.63793945,-84.66052000
47.66845703,-86.49003000
47.69897461,-84.61221000
47.72949219,-82.07690000
47.76000977,-81.85418000
47.79052734,-84.78433000
47.82104492,-92.73874000
47.85156250,-114.70080000
47.88208008,-98.48042000
47.91259766,-94.76334000
47.94311523,-89.00471000
47.97363281,-83.14675000
48.00415039,-80.32066000
48.03466797,-80.65312000
48.06518555,-84.84534000
48.09570313,-105.12290000
48.12622070,-87.29448000
48.15673828,-82.50302000
48.18725586,-81.17428000
48.21777344,-81.35761000
48.24829102,-82.54254000
48.27880859,-84.46557000
48.30932617,-87.19907000
48.33984375,-90.50543000
48.37036133,-92.07287000
48.40087891,-92.01378000
48.43139648,-89.25476000
48.46191406,-86.73218000
48.49243164,-85.53318000
48.52294922,-85.01430000
48.55346680,-85.78971000
48.58398438,-88.30148000
48.61450195,-92.15154000
48.64501953,-94.94599000
48.67553711,-91.30944000
48.70605469,-88.73040000
48.73657227,-89.77255000
48.76708984,-96.57904000
48.79760742,-94.92059000
48.82812500,-87.19073000
48.85864258,-82.94781000
48.88916016,-80.45459000
48.91967773,-79.50042000
48.95019531,-79.86204000
48.98071289,-80.79436000
49.01123047,-81.31921000
49.04174805,-82.26283000
49.07226563,-85.12684000
49.10278320,-91.52116000
49.13330078,-97.92275000
49.16381836,-91.07001000
49.19433594,-86.99110000
49.22485352,-83.98762000
49.25537109,-83.06276000
49.28588867,-85.56068000
49.31640625,-99.00487000
49.34692383,-87.56836000
49.37744141,-81.25890000
49.40795898,-79.61166000
49.43847656,-80.58971000
49.46899414,-82.73230000
49.49951172,-85.23299000
49.53002930,-90.11305000
49.56054688,-96.69775000
49.59106445,-92.81432000
49.62158203,-86.53079000
49.65209961,-84.69241000
49.68261719,-87.41142000
49.71313477,-95.37296000
49.74365234,-102.41650000
49.77416992,-91.89386000
49.80468750,-87.56293000
49.83520508,-87.64690000
49.86572266,-89.72634000
49.89624023,-87.20790000
49.92675781,-84.01588000
49.95727539,-82.53930000
49.98779297,-82.44342000
50.01831055,-84.06327000
