Frequency,Channel A
(MHz),(dBu)

0.00000000,-14.46516000
0.03051758,-14.91826000
0.06103516,-20.48112000
0.09155273,-31.78651000
0.12207031,-47.39860000
0.15258789,-44.73185000
0.18310547,-46.83036000
0.21362305,-47.05757000
0.24414063,-48.57356000
0.27465820,-50.45309000
0.30517578,-51.13322000
0.33569336,-51.90749000
0.36621094,-52.15841000
0.39672852,-51.08326000
0.42724609,-50.19387000
0.45776367,-50.16499000
0.48828125,-50.73677000
0.51879883,-51.47764000
0.54931641,-52.03297000
0.57983398,-52.25636000
0.61035156,-52.58667000
0.64086914,-53.55383000
0.67138672,-55.30993000
0.70190430,-56.75117000
0.73242188,-55.83208000
0.76293945,-53.40591000
0.79345703,-51.54593000
0.82397461,-50.82212000
0.85449219,-51.06879000
0.88500977,-51.81034000
0.91552734,-52.21130000
0.94604492,-51.89571000
0.97656250,-51.41067000
1.00708008,-51.48903000
1.03759766,-52.49111000
1.06811523,-53.76678000
1.09863281,-53.90557000
1.12915039,-53.31311000
1.15966797,-52.48416000
1.19018555,-51.83730000
1.22070313,-52.11932000
1.25122070,-53.31810000
1.28173828,-54.95461000
1.31225586,-56.09487000
1.34277344,-55.55936000
1.37329102,-54.47950000
1.40380859,-54.37176000
1.43432617,-55.06639000
1.46484375,-55.56779000
1.49536133,-55.56970000
1.52587891,-55.83707000
1.55639648,-56.97221000
1.58691406,-58.71339000
1.61743164,-59.81089000
1.64794922,-59.02596000
1.67846680,-57.02862000
1.70898438,-55.23425000
1.73950195,-54.33972000
1.77001953,-54.35197000
1.80053711,-54.83688000
1.83105469,-55.23543000
1.86157227,-55.34381000
1.89208984,-55.40852000
1.92260742,-55.65239000
1.95312500,-55.99558000
1.98364258,-56.28744000
2.01416016,-56.58457000
2.04467773,-57.09234000
2.07519531,-57.79424000
2.10571289,-58.06995000
2.13623047,-57.71645000
2.16674805,-57.42413000
2.19726563,-57.29571000
2.22778320,-57.22813000
2.25830078,-57.35296000
2.28881836,-57.30301000
2.31933594,-57.01350000
2.34985352,-57.05811000
2.38037109,-57.18494000
2.41088867,-56.74447000
2.44140625,-56.28006000
2.47192383,-56.51197000
2.50244141,-57.44705000
2.53295898,-58.41168000
2.56347656,-58.58727000
2.59399414,-58.27497000
2.62451172,-58.09541000
2.65502930,-58.02603000
2.68554688,-57.83481000
2.71606445,-57.68834000
2.74658203,-57.96202000
2.77709961,-58.73560000
2.80761719,-59.78837000
2.83813477,-60.62824000
2.86865234,-60.50655000
2.89916992,-59.72367000
2.92968750,-59.21539000
2.96020508,-58.99685000
2.99072266,-58.40993000
3.02124023,-57.24094000
3.05175781,-56.33289000
3.08227539,-56.42936000
3.11279297,-57.44049000
3.14331055,-58.53492000
3.17382813,-58.87551000
3.20434570,-58.30834000
3.23486328,-57.57799000
3.26538086,-57.57177000
3.29589844,-58.16854000
3.32641602,-58.29697000
3.35693359,-57.47311000
3.38745117,-56.28477000
3.41796875,-55.16367000
3.44848633,-54.22462000
3.47900391,-53.52139000
3.50952148,-53.06591000
3.54003906,-52.73117000
3.57055664,-52.34792000
3.60107422,-51.88690000
3.63159180,-51.38183000
3.66210938,-50.82072000
3.69262695,-50.26417000
3.72314453,-49.86748000
3.75366211,-49.72629000
3.78417969,-49.84724000
3.81469727,-50.14481000
3.84521484,-50.43960000
3.87573242,-50.62640000
3.90625000,-50.73649000
3.93676758,-50.70694000
3.96728516,-50.37379000
3.99780273,-49.83101000
4.02832031,-49.45337000
4.05883789,-49.50322000
4.08935547,-49.93332000
4.11987305,-50.51888000
4.15039063,-51.07596000
4.18090820,-51.52245000
4.21142578,-51.83405000
4.24194336,-52.04590000
4.27246094,-52.25878000
4.30297852,-52.58142000
4.33349609,-53.03452000
4.36401367,-53.51865000
4.39453125,-53.86786000
4.42504883,-53.95873000
4.45556641,-53.83940000
4.48608398,-53.69691000
4.51660156,-53.71671000
4.54711914,-54.00075000
4.57763672,-54.49210000
4.60815430,-54.97932000
4.63867188,-55.30223000
4.66918945,-55.48941000
4.69970703,-55.59164000
4.73022461,-55.57913000
4.76074219,-55.48933000
4.79125977,-55.50567000
4.82177734,-55.76664000
4.85229492,-56.20827000
4.88281250,-56.70292000
4.91333008,-57.19719000
4.94384766,-57.56619000
4.97436523,-57.62648000
5.00488281,-57.36353000
5.03540039,-56.94164000
5.06591797,-56.71975000
5.09643555,-56.92367000
5.12695313,-57.33322000
5.15747070,-57.56153000
5.18798828,-57.43863000
5.21850586,-57.11199000
5.24902344,-56.90785000
5.27954102,-57.03568000
5.31005859,-57.46080000
5.34057617,-57.97758000
5.37109375,-58.17845000
5.40161133,-57.66488000
5.43212891,-56.64932000
5.46264648,-55.64989000
5.49316406,-55.01434000
5.52368164,-55.02878000
5.55419922,-55.86018000
5.58471680,-57.20887000
5.61523438,-58.09465000
5.64575195,-57.86291000
5.67626953,-57.23651000
5.70678711,-57.09393000
5.73730469,-57.71917000
5.76782227,-58.78052000
5.79833984,-59.19080000
5.82885742,-58.00291000
5.85937500,-56.24042000
5.88989258,-55.10360000
5.92041016,-54.80891000
5.95092773,-55.13404000
5.98144531,-55.62498000
6.01196289,-55.59067000
6.04248047,-54.76799000
6.07299805,-53.67619000
6.10351563,-52.84587000
6.13403320,-52.50022000
6.16455078,-52.69560000
6.19506836,-53.38682000
6.22558594,-54.27106000
6.25610352,-54.69068000
6.28662109,-54.25655000
6.31713867,-53.45663000
6.34765625,-52.97538000
6.37817383,-53.11418000
6.40869141,-53.87856000
6.43920898,-55.13276000
6.46972656,-56.55552000
6.50024414,-57.58541000
6.53076172,-57.88467000
6.56127930,-57.76059000
6.59179688,-57.63441000
6.62231445,-57.80642000
6.65283203,-58.53294000
6.68334961,-59.83423000
6.71386719,-61.44675000
6.74438477,-63.04047000
6.77490234,-64.33047000
6.80541992,-65.07803000
6.83593750,-64.90935000
6.86645508,-64.11703000
6.89697266,-64.05823000
6.92749023,-65.90261000
6.95800781,-70.59424000
6.98852539,-79.00037000
7.01904297,-80.09947000
7.04956055,-72.88588000
7.08007813,-68.71021000
7.11059570,-67.05357000
7.14111328,-67.42018000
7.17163086,-69.54849000
7.20214844,-72.58434000
7.23266602,-74.06465000
7.26318359,-73.35730000
7.29370117,-72.74341000
7.32421875,-73.87292000
7.35473633,-77.58590000
7.38525391,-80.47771000
7.41577148,-78.24176000
7.44628906,-78.52937000
7.47680664,-83.24325000
7.50732422,-93.38197000
7.53784180,-105.22000000
7.56835938,-84.36194000
7.59887695,-78.91932000
7.62939453,-78.97427000
7.65991211,-81.95914000
7.69042969,-81.77505000
7.72094727,-81.34034000
7.75146484,-84.00975000
7.78198242,-90.04210000
7.81250000,-101.13440000
7.84301758,-86.17065000
7.87353516,-77.39012000
7.90405273,-72.62104000
7.93457031,-70.59116000
7.96508789,-70.99521000
7.99560547,-74.01769000
8.02612305,-80.18471000
8.05664063,-85.14838000
8.08715820,-81.46369000
8.11767578,-78.31275000
8.14819336,-78.05277000
8.17871094,-78.71114000
8.20922852,-76.01814000
8.23974609,-74.31153000
8.27026367,-73.72540000
8.30078125,-73.00811000
8.33129883,-72.35725000
8.36181641,-71.32901000
8.39233398,-70.00770000
8.42285156,-69.29320000
8.45336914,-69.65942000
8.48388672,-71.05581000
8.51440430,-72.91436000
8.54492188,-73.95443000
8.57543945,-73.30626000
8.60595703,-72.00879000
8.63647461,-71.32596000
8.66699219,-71.41929000
8.69750977,-71.67835000
8.72802734,-71.83949000
8.75854492,-72.35609000
8.78906250,-73.38524000
8.81958008,-74.85694000
8.85009766,-76.95670000
8.88061523,-79.10616000
8.91113281,-78.82266000
8.94165039,-77.62200000
8.97216797,-78.71263000
9.00268555,-82.92949000
9.03320313,-86.17816000
9.06372070,-89.12838000
9.09423828,-85.94425000
9.12475586,-78.94257000
9.15527344,-76.77702000
9.18579102,-78.33124000
9.21630859,-84.32725000
9.24682617,-94.61870000
9.27734375,-88.77178000
9.30786133,-80.60080000
9.33837891,-76.91122000
9.36889648,-76.55149000
9.39941406,-78.31569000
9.42993164,-80.18952000
9.46044922,-80.48397000
9.49096680,-80.90389000
9.52148438,-80.83099000
9.55200195,-79.32536000
9.58251953,-77.27100000
9.61303711,-75.87844000
9.64355469,-75.23165000
9.67407227,-74.79016000
9.70458984,-75.67499000
9.73510742,-80.16815000
9.76562500,-99.17714000
9.79614258,-78.66006000
9.82666016,-73.78104000
9.85717773,-72.66755000
9.88769531,-75.54703000
9.91821289,-91.15404000
9.94873047,-78.86935000
9.97924805,-75.32732000
10.00976563,-75.09007000
10.04028320,-74.30918000
10.07080078,-75.27187000
10.10131836,-80.53519000
10.13183594,-85.10860000
10.16235352,-77.75050000
10.19287109,-74.94858000
10.22338867,-75.21882000
10.25390625,-77.59666000
10.28442383,-79.19929000
10.31494141,-78.43559000
10.34545898,-78.00462000
10.37597656,-78.09844000
10.40649414,-78.82563000
10.43701172,-80.84141000
10.46752930,-82.18047000
10.49804688,-79.54509000
10.52856445,-77.53836000
10.55908203,-75.86401000
10.58959961,-73.62537000
10.62011719,-72.06856000
10.65063477,-72.57001000
10.68115234,-76.03477000
10.71166992,-79.07724000
10.74218750,-75.82030000
10.77270508,-74.12765000
10.80322266,-74.51257000
10.83374023,-75.51654000
10.86425781,-74.33776000
10.89477539,-70.57832000
10.92529297,-67.12704000
10.95581055,-65.73344000
10.98632813,-67.20779000
11.01684570,-73.09563000
11.04736328,-91.76018000
11.07788086,-81.31487000
11.10839844,-85.98077000
11.13891602,-76.20598000
11.16943359,-70.55688000
11.19995117,-67.60138000
11.23046875,-65.98947000
11.26098633,-65.85053000
11.29150391,-67.51399000
11.32202148,-70.51524000
11.35253906,-72.17960000
11.38305664,-73.29875000
11.41357422,-76.55489000
11.44409180,-75.44613000
11.47460938,-73.10936000
11.50512695,-73.86259000
11.53564453,-76.99240000
11.56616211,-77.71388000
11.59667969,-74.84322000
11.62719727,-73.00774000
11.65771484,-72.30698000
11.68823242,-73.48431000
11.71875000,-76.57510000
11.74926758,-76.11444000
11.77978516,-72.03327000
11.81030273,-69.86957000
11.84082031,-70.21536000
11.87133789,-71.95567000
11.90185547,-73.04987000
11.93237305,-75.35308000
11.96289063,-82.61768000
11.99340820,-81.73700000
12.02392578,-81.44547000
12.05444336,-86.45796000
12.08496094,-82.20006000
12.11547852,-83.10428000
12.14599609,-77.53011000
12.17651367,-73.87544000
12.20703125,-73.87901000
12.23754883,-74.37267000
12.26806641,-72.98263000
12.29858398,-71.33156000
12.32910156,-70.18543000
12.35961914,-70.16368000
12.39013672,-72.62317000
12.42065430,-80.87808000
12.45117188,-84.58365000
12.48168945,-78.08939000
12.51220703,-79.70502000
12.54272461,-92.33102000
12.57324219,-81.35002000
12.60375977,-73.83274000
12.63427734,-70.71816000
12.66479492,-70.64081000
12.69531250,-73.17475000
12.72583008,-75.10352000
12.75634766,-74.17734000
12.78686523,-73.96130000
12.81738281,-74.39469000
12.84790039,-74.33389000
12.87841797,-73.46715000
12.90893555,-72.35978000
12.93945313,-71.82782000
12.96997070,-72.37547000
13.00048828,-73.88314000
13.03100586,-75.26456000
13.06152344,-75.35040000
13.09204102,-74.51936000
13.12255859,-74.52917000
13.15307617,-76.78423000
13.18359375,-80.53372000
13.21411133,-81.09351000
13.24462891,-80.18803000
13.27514648,-80.00371000
13.30566406,-81.61377000
13.33618164,-81.73672000
13.36669922,-78.07999000
13.39721680,-76.48804000
13.42773438,-76.49844000
13.45825195,-77.26854000
13.48876953,-75.99055000
13.51928711,-69.53620000
13.54980469,-66.33658000
13.58032227,-66.80648000
13.61083984,-70.59217000
13.64135742,-77.30847000
13.67187500,-86.18204000
13.70239258,-96.96205000
13.73291016,-88.98831000
13.76342773,-83.69374000
13.79394531,-80.28816000
13.82446289,-78.96529000
13.85498047,-79.59687000
13.88549805,-81.60847000
13.91601563,-83.81237000
13.94653320,-83.76885000
13.97705078,-82.18678000
14.00756836,-82.60434000
14.03808594,-84.66032000
14.06860352,-81.59339000
14.09912109,-78.31227000
14.12963867,-78.17902000
14.16015625,-80.77487000
14.19067383,-82.32586000
14.22119141,-80.52432000
14.25170898,-78.84290000
14.28222656,-77.96014000
14.31274414,-77.80714000
14.34326172,-78.59570000
14.37377930,-80.03436000
14.40429688,-80.13000000
14.43481445,-78.52309000
14.46533203,-77.51493000
14.49584961,-78.78468000
14.52636719,-82.88010000
14.55688477,-89.36517000
14.58740234,-94.46593000
14.61791992,-89.65137000
14.64843750,-88.08158000
14.67895508,-84.06941000
14.70947266,-79.43872000
14.73999023,-77.33952000
14.77050781,-77.16623000
14.80102539,-77.06334000
14.83154297,-75.78719000
14.86206055,-75.19599000
14.89257813,-76.37312000
14.92309570,-78.44323000
14.95361328,-77.66470000
14.98413086,-75.44263000
15.01464844,-75.45608000
15.04516602,-78.07985000
15.07568359,-81.43211000
15.10620117,-81.26006000
15.13671875,-79.57625000
15.16723633,-80.11967000
15.19775391,-79.93736000
15.22827148,-78.32455000
15.25878906,-80.20247000
15.28930664,-83.57510000
15.31982422,-78.67260000
15.35034180,-75.45147000
15.38085938,-75.20467000
15.41137695,-77.55727000
15.44189453,-80.81717000
15.47241211,-81.41518000
15.50292969,-80.52154000
15.53344727,-79.71598000
15.56396484,-79.40978000
15.59448242,-81.04619000
15.62500000,-89.37455000
15.65551758,-86.30605000
15.68603516,-81.09561000
15.71655273,-82.39219000
15.74707031,-82.94955000
15.77758789,-79.95711000
15.80810547,-79.78999000
15.83862305,-82.41349000
15.86914063,-85.35349000
15.89965820,-83.75096000
15.93017578,-81.37313000
15.96069336,-81.44207000
15.99121094,-84.83231000
16.02172852,-93.00871000
16.05224609,-98.83861000
16.08276367,-97.28897000
16.11328125,-97.76604000
16.14379883,-94.65630000
16.17431641,-91.58588000
16.20483398,-88.93876000
16.23535156,-86.76421000
16.26586914,-84.14993000
16.29638672,-82.07813000
16.32690430,-81.84223000
16.35742188,-83.25629000
16.38793945,-83.77188000
16.41845703,-82.61574000
16.44897461,-82.54124000
16.47949219,-82.31096000
16.51000977,-81.68842000
16.54052734,-82.54041000
16.57104492,-83.48900000
16.60156250,-82.87541000
16.63208008,-81.07048000
16.66259766,-80.04147000
16.69311523,-80.46478000
16.72363281,-81.25250000
16.75415039,-81.66705000
16.78466797,-81.86377000
16.81518555,-81.60217000
16.84570313,-80.76895000
16.87622070,-79.77256000
16.90673828,-79.09344000
16.93725586,-79.14602000
16.96777344,-80.23235000
16.99829102,-82.73907000
17.02880859,-86.34887000
17.05932617,-86.99445000
17.08984375,-85.57350000
17.12036133,-84.23283000
17.15087891,-83.19945000
17.18139648,-83.83266000
17.21191406,-87.85915000
17.24243164,-106.01070000
17.27294922,-88.78335000
17.30346680,-81.17512000
17.33398438,-77.55204000
17.36450195,-76.73644000
17.39501953,-78.03074000
17.42553711,-80.62892000
17.45605469,-83.61214000
17.48657227,-86.37826000
17.51708984,-89.94838000
17.54760742,-91.21938000
17.57812500,-87.47417000
17.60864258,-85.58333000
17.63916016,-86.85954000
17.66967773,-81.34945000
17.70019531,-74.15440000
17.73071289,-71.11115000
17.76123047,-70.35586000
17.79174805,-69.75920000
17.82226563,-69.64668000
17.85278320,-71.67926000
17.88330078,-76.49078000
17.91381836,-83.60045000
17.94433594,-89.38567000
17.97485352,-92.76206000
18.00537109,-110.81320000
18.03588867,-89.90613000
18.06640625,-84.97566000
18.09692383,-84.37914000
18.12744141,-86.12006000
18.15795898,-87.95288000
18.18847656,-89.54381000
18.21899414,-93.18481000
18.24951172,-92.96034000
18.28002930,-89.42287000
18.31054688,-87.53277000
18.34106445,-86.66086000
18.37158203,-86.67106000
18.40209961,-87.61118000
18.43261719,-88.90344000
18.46313477,-89.50769000
18.49365234,-88.13683000
18.52416992,-85.84843000
18.55468750,-83.99209000
18.58520508,-82.59144000
18.61572266,-81.36890000
18.64624023,-80.47217000
18.67675781,-80.43975000
18.70727539,-82.20889000
18.73779297,-88.25002000
18.76831055,-89.86554000
18.79882813,-81.73965000
18.82934570,-78.82144000
18.85986328,-78.22734000
18.89038086,-79.34447000
18.92089844,-82.23735000
18.95141602,-87.32137000
18.98193359,-88.66980000
19.01245117,-82.90373000
19.04296875,-80.73462000
19.07348633,-82.26609000
19.10400391,-88.49977000
19.13452148,-95.79190000
19.16503906,-92.89764000
19.19555664,-89.52608000
19.22607422,-84.83913000
19.25659180,-84.45632000
19.28710938,-85.40961000
19.31762695,-82.65113000
19.34814453,-80.83432000
19.37866211,-80.55960000
19.40917969,-80.25803000
19.43969727,-79.37592000
19.47021484,-78.92373000
19.50073242,-79.55400000
19.53125000,-80.67123000
19.56176758,-81.50051000
19.59228516,-82.91482000
19.62280273,-85.83259000
19.65332031,-90.64556000
19.68383789,-98.46780000
19.71435547,-94.44833000
19.74487305,-88.12727000
19.77539063,-85.53204000
19.80590820,-85.63320000
19.83642578,-86.80672000
19.86694336,-86.70129000
19.89746094,-87.06505000
19.92797852,-89.07676000
19.95849609,-90.78803000
19.98901367,-92.87637000
20.01953125,-90.79437000
20.05004883,-85.34631000
20.08056641,-84.37605000
20.11108398,-88.30382000
20.14160156,-98.59776000
20.17211914,-93.13605000
20.20263672,-91.99666000
20.23315430,-99.06849000
20.26367188,-93.14942000
20.29418945,-86.83871000
20.32470703,-88.70773000
20.35522461,-92.74747000
20.38574219,-85.79391000
20.41625977,-84.69741000
20.44677734,-86.90697000
20.47729492,-87.23492000
20.50781250,-85.78572000
20.53833008,-87.50418000
20.56884766,-92.09244000
20.59936523,-94.11395000
20.62988281,-93.29596000
20.66040039,-89.10123000
20.69091797,-84.55041000
20.72143555,-81.71642000
20.75195313,-81.19182000
20.78247070,-83.06533000
20.81298828,-84.76541000
20.84350586,-82.79955000
20.87402344,-82.14996000
20.90454102,-85.60880000
20.93505859,-96.95255000
20.96557617,-90.97765000
20.99609375,-90.55435000
21.02661133,-94.51110000
21.05712891,-97.63004000
21.08764648,-89.60213000
21.11816406,-83.82552000
21.14868164,-81.52966000
21.17919922,-81.57800000
21.20971680,-83.08860000
21.24023438,-84.46663000
21.27075195,-85.34015000
21.30126953,-87.34129000
21.33178711,-90.13460000
21.36230469,-94.47148000
21.39282227,-116.77520000
21.42333984,-92.60477000
21.45385742,-88.13475000
21.48437500,-89.32746000
21.51489258,-105.64830000
21.54541016,-89.80576000
21.57592773,-84.52895000
21.60644531,-82.45146000
21.63696289,-81.17865000
21.66748047,-80.78887000
21.69799805,-82.16277000
21.72851563,-86.65730000
21.75903320,-90.97665000
21.78955078,-83.83401000
21.82006836,-81.17931000
21.85058594,-81.49947000
21.88110352,-82.80083000
21.91162109,-83.06344000
21.94213867,-82.52254000
21.97265625,-81.94817000
22.00317383,-81.45768000
22.03369141,-81.50406000
22.06420898,-82.84919000
22.09472656,-85.75314000
22.12524414,-88.82092000
22.15576172,-90.39016000
22.18627930,-91.69324000
22.21679688,-92.27180000
22.24731445,-90.02504000
22.27783203,-86.25136000
22.30834961,-83.72936000
22.33886719,-83.66570000
22.36938477,-86.49787000
22.39990234,-92.35429000
22.43041992,-94.11331000
22.46093750,-89.35483000
22.49145508,-85.60265000
22.52197266,-83.62160000
22.55249023,-84.81396000
22.58300781,-92.90932000
22.61352539,-92.67010000
22.64404297,-85.32182000
22.67456055,-84.05616000
22.70507813,-84.28253000
22.73559570,-84.18922000
22.76611328,-85.03732000
22.79663086,-88.81199000
22.82714844,-90.84207000
22.85766602,-84.91919000
22.88818359,-81.94039000
22.91870117,-81.19099000
22.94921875,-81.93056000
22.97973633,-83.55898000
23.01025391,-85.09072000
23.04077148,-85.94154000
23.07128906,-87.84923000
23.10180664,-92.57263000
23.13232422,-95.55379000
23.16284180,-90.27632000
23.19335938,-85.56841000
23.22387695,-83.51040000
23.25439453,-83.79844000
23.28491211,-85.82175000
23.31542969,-87.32904000
23.34594727,-85.45020000
23.37646484,-82.89032000
23.40698242,-81.85435000
23.43750000,-82.32135000
23.46801758,-83.20152000
23.49853516,-83.31245000
23.52905273,-82.43775000
23.55957031,-81.56133000
23.59008789,-81.83701000
23.62060547,-84.04601000
23.65112305,-88.77174000
23.68164063,-94.27827000
23.71215820,-99.46288000
23.74267578,-96.60348000
23.77319336,-88.02122000
23.80371094,-85.03511000
23.83422852,-83.14726000
23.86474609,-81.84303000
23.89526367,-83.13101000
23.92578125,-88.51955000
23.95629883,-94.85828000
23.98681641,-92.78261000
24.01733398,-89.46164000
24.04785156,-86.54785000
24.07836914,-86.21693000
24.10888672,-86.96248000
24.13940430,-87.06537000
24.16992188,-88.11856000
24.20043945,-89.34398000
24.23095703,-86.57899000
24.26147461,-83.89251000
24.29199219,-83.03603000
24.32250977,-83.63374000
24.35302734,-84.42484000
24.38354492,-83.22206000
24.41406250,-81.29895000
24.44458008,-80.97561000
24.47509766,-83.00436000
24.50561523,-88.35338000
24.53613281,-105.16010000
24.56665039,-90.48801000
24.59716797,-87.66265000
24.62768555,-90.65491000
24.65820313,-109.37110000
24.68872070,-90.79627000
24.71923828,-86.33775000
24.74975586,-85.27610000
24.78027344,-85.20979000
24.81079102,-85.43112000
24.84130859,-86.97350000
24.87182617,-90.50304000
24.90234375,-93.17662000
24.93286133,-92.66979000
24.96337891,-92.97439000
24.99389648,-94.56686000
25.02441406,-96.05269000
25.05493164,-95.23843000
25.08544922,-92.79053000
25.11596680,-90.50574000
25.14648438,-89.03332000
25.17700195,-88.48331000
25.20751953,-88.48199000
25.23803711,-88.11726000
25.26855469,-89.35367000
25.29907227,-96.72470000
25.32958984,-91.52260000
25.36010742,-88.29106000
25.39062500,-91.86794000
25.42114258,-101.05880000
25.45166016,-104.10760000
25.48217773,-97.32957000
25.51269531,-88.48492000
25.54321289,-86.07658000
25.57373047,-86.84843000
25.60424805,-88.34851000
25.63476563,-90.02364000
25.66528320,-94.62433000
25.69580078,-96.49373000
25.72631836,-92.06127000
25.75683594,-89.37941000
25.78735352,-88.03452000
25.81787109,-88.32948000
25.84838867,-91.70708000
25.87890625,-104.97940000
25.90942383,-92.69833000
25.93994141,-88.68027000
25.97045898,-87.80059000
26.00097656,-87.51196000
26.03149414,-86.20812000
26.06201172,-84.36547000
26.09252930,-84.80816000
26.12304688,-89.46136000
26.15356445,-104.84540000
26.18408203,-100.32750000
26.21459961,-95.76398000
26.24511719,-95.76859000
26.27563477,-98.29848000
26.30615234,-88.60765000
26.33666992,-84.18353000
26.36718750,-83.22447000
26.39770508,-84.31325000
26.42822266,-84.11420000
26.45874023,-81.69129000
26.48925781,-80.50896000
26.51977539,-81.09822000
26.55029297,-82.42105000
26.58081055,-82.94559000
26.61132813,-82.48828000
26.64184570,-82.09365000
26.67236328,-82.04914000
26.70288086,-82.16357000
26.73339844,-82.83118000
26.76391602,-83.41090000
26.79443359,-82.10779000
26.82495117,-80.02594000
26.85546875,-78.10952000
26.88598633,-76.49574000
26.91650391,-75.71272000
26.94702148,-76.50964000
26.97753906,-79.57020000
27.00805664,-86.39865000
27.03857422,-100.32680000
27.06909180,-88.15456000
27.09960938,-86.19458000
27.13012695,-87.17571000
27.16064453,-88.74925000
27.19116211,-91.69959000
27.22167969,-94.60872000
27.25219727,-91.48345000
27.28271484,-90.77271000
27.31323242,-92.19288000
27.34375000,-94.16011000
27.37426758,-96.21796000
27.40478516,-95.97693000
27.43530273,-91.94299000
27.46582031,-88.02983000
27.49633789,-86.74873000
27.52685547,-89.49195000
27.55737305,-110.37270000
27.58789063,-89.70601000
27.61840820,-85.73407000
27.64892578,-86.57336000
27.67944336,-89.72302000
27.70996094,-91.35326000
27.74047852,-89.65601000
27.77099609,-88.94817000
27.80151367,-87.80852000
27.83203125,-85.64941000
27.86254883,-86.59364000
27.89306641,-90.94061000
27.92358398,-92.64027000
27.95410156,-94.55099000
27.98461914,-98.50626000
28.01513672,-102.28740000
28.04565430,-95.01855000
28.07617188,-89.89288000
28.10668945,-89.03851000
28.13720703,-92.22314000
28.16772461,-89.14085000
28.19824219,-84.39144000
28.22875977,-83.39504000
28.25927734,-84.90939000
28.28979492,-87.48444000
28.32031250,-89.13127000
28.35083008,-89.15248000
28.38134766,-87.47638000
28.41186523,-84.82913000
28.44238281,-82.81029000
28.47290039,-81.80195000
28.50341797,-81.77985000
28.53393555,-82.98859000
28.56445313,-86.06419000
28.59497070,-92.75204000
28.62548828,-106.53260000
28.65600586,-89.33131000
28.68652344,-84.49233000
28.71704102,-83.66860000
28.74755859,-85.10063000
28.77807617,-84.82530000
28.80859375,-84.54649000
28.83911133,-86.75381000
28.86962891,-88.76952000
28.90014648,-88.93085000
28.93066406,-89.81666000
28.96118164,-91.93185000
28.99169922,-90.92213000
29.02221680,-88.00186000
29.05273438,-87.88848000
29.08325195,-87.99850000
29.11376953,-88.57555000
29.14428711,-94.52020000
29.17480469,-99.32634000
29.20532227,-92.80173000
29.23583984,-93.30681000
29.26635742,-88.19096000
29.29687500,-83.95027000
29.32739258,-83.05515000
29.35791016,-84.79309000
29.38842773,-88.24918000
29.41894531,-91.19994000
29.44946289,-92.66479000
29.47998047,-92.98923000
29.51049805,-89.48367000
29.54101563,-87.22655000
29.57153320,-87.93404000
29.60205078,-90.31816000
29.63256836,-90.67632000
29.66308594,-90.25896000
29.69360352,-91.43259000
29.72412109,-91.65696000
29.75463867,-92.25667000
29.78515625,-96.44646000
29.81567383,-95.80562000
29.84619141,-87.71121000
29.87670898,-85.40562000
29.90722656,-87.81013000
29.93774414,-84.37727000
29.96826172,-81.21098000
29.99877930,-81.79918000
30.02929688,-84.23776000
30.05981445,-85.55668000
30.09033203,-84.93375000
30.12084961,-84.97371000
30.15136719,-87.56493000
30.18188477,-92.21230000
30.21240234,-93.08897000
30.24291992,-91.29593000
30.27343750,-89.15368000
30.30395508,-89.31754000
30.33447266,-93.29247000
30.36499023,-98.31743000
30.39550781,-96.35448000
30.42602539,-96.22133000
30.45654297,-95.54176000
30.48706055,-92.58022000
30.51757813,-91.79691000
30.54809570,-96.54095000
30.57861328,-100.61740000
30.60913086,-93.73288000
30.63964844,-93.92354000
30.67016602,-97.20986000
30.70068359,-98.67023000
30.73120117,-90.34811000
30.76171875,-85.87813000
30.79223633,-85.24739000
30.82275391,-86.81164000
30.85327148,-86.25870000
30.88378906,-83.70393000
30.91430664,-82.51720000
30.94482422,-83.41161000
30.97534180,-85.93309000
31.00585938,-87.77556000
31.03637695,-88.58415000
31.06689453,-91.82811000
31.09741211,-89.34474000
31.12792969,-84.90157000
31.15844727,-85.41144000
31.18896484,-91.57836000
31.21948242,-106.18440000
31.25000000,-93.64375000
31.28051758,-87.53699000
31.31103516,-84.84221000
31.34155273,-85.97850000
31.37207031,-91.84551000
31.40258789,-91.86226000
31.43310547,-87.48679000
31.46362305,-85.88907000
31.49414063,-84.46506000
31.52465820,-82.84145000
31.55517578,-82.27377000
31.58569336,-83.56325000
31.61621094,-87.05635000
31.64672852,-93.43616000
31.67724609,-96.12110000
31.70776367,-93.25716000
31.73828125,-93.95810000
31.76879883,-94.86887000
31.79931641,-91.69524000
31.82983398,-87.90805000
31.86035156,-86.05736000
31.89086914,-86.00285000
31.92138672,-86.57729000
31.95190430,-87.35046000
31.98242188,-91.07444000
32.01293945,-104.88880000
32.04345703,-91.84200000
32.07397461,-90.79022000
32.10449219,-94.17867000
32.13500977,-89.26739000
32.16552734,-85.91232000
32.19604492,-85.76633000
32.22656250,-87.73899000
32.25708008,-91.78464000
32.28759766,-97.28954000
32.31811523,-93.76968000
32.34863281,-90.25848000
32.37915039,-88.31193000
32.40966797,-86.08667000
32.44018555,-85.28511000
32.47070313,-87.08916000
32.50122070,-90.54332000
32.53173828,-88.63605000
32.56225586,-84.06425000
32.59277344,-82.54347000
32.62329102,-84.84599000
32.65380859,-94.21208000
32.68432617,-88.91953000
32.71484375,-85.20763000
32.74536133,-86.93304000
32.77587891,-92.00629000
32.80639648,-98.49013000
32.83691406,-93.40575000
32.86743164,-91.09999000
32.89794922,-96.64888000
32.92846680,-98.45303000
32.95898438,-88.95096000
32.98950195,-86.00197000
33.02001953,-85.35580000
33.05053711,-85.56523000
33.08105469,-84.41107000
33.11157227,-82.77045000
33.14208984,-82.59777000
33.17260742,-83.91177000
33.20312500,-85.71725000
33.23364258,-86.43494000
33.26416016,-85.39235000
33.29467773,-84.05492000
33.32519531,-83.76404000
33.35571289,-84.22023000
33.38623047,-84.55257000
33.41674805,-85.12236000
33.44726563,-86.72615000
33.47778320,-88.82397000
33.50830078,-89.62152000
33.53881836,-88.35442000
33.56933594,-85.75145000
33.59985352,-83.33958000
33.63037109,-82.14374000
33.66088867,-82.67219000
33.69140625,-85.39954000
33.72192383,-90.40977000
33.75244141,-91.38448000
33.78295898,-89.54522000
33.81347656,-90.32127000
33.84399414,-96.55521000
33.87451172,-98.25139000
33.90502930,-88.50591000
33.93554688,-86.00845000
33.96606445,-85.87498000
33.99658203,-87.31186000
34.02709961,-90.38911000
34.05761719,-89.77726000
34.08813477,-86.20403000
34.11865234,-84.79292000
34.14916992,-85.09914000
34.17968750,-85.93376000
34.21020508,-86.39575000
34.24072266,-85.35549000
34.27124023,-84.68564000
34.30175781,-87.18932000
34.33227539,-91.49971000
34.36279297,-86.95100000
34.39331055,-84.43841000
34.42382813,-84.53258000
34.45434570,-85.97115000
34.48486328,-86.74603000
34.51538086,-86.14221000
34.54589844,-86.39445000
34.57641602,-87.62450000
34.60693359,-87.75021000
34.63745117,-85.78483000
34.66796875,-83.57323000
34.69848633,-82.53017000
34.72900391,-82.86246000
34.75952148,-83.90575000
34.79003906,-84.05679000
34.82055664,-83.53944000
34.85107422,-83.60793000
34.88159180,-84.14612000
34.91210938,-85.24822000
34.94262695,-87.15058000
34.97314453,-89.67477000
35.00366211,-94.75938000
35.03417969,-107.43530000
35.06469727,-97.38082000
35.09521484,-95.95563000
35.12573242,-94.68730000
35.15625000,-92.62115000
35.18676758,-94.17675000
35.21728516,-105.00320000
35.24780273,-92.65147000
35.27832031,-87.23576000
35.30883789,-85.09613000
35.33935547,-84.83407000
35.36987305,-86.47361000
35.40039063,-90.50441000
35.43090820,-95.96951000
35.46142578,-93.53357000
35.49194336,-91.29581000
35.52246094,-89.06506000
35.55297852,-85.32967000
35.58349609,-82.57526000
35.61401367,-80.91691000
35.64453125,-79.93114000
35.67504883,-79.83529000
35.70556641,-81.09064000
35.73608398,-83.54118000
35.76660156,-85.84688000
35.79711914,-86.38757000
35.82763672,-85.89217000
35.85815430,-87.12914000
35.88867188,-92.68805000
35.91918945,-112.91610000
35.94970703,-96.92836000
35.98022461,-97.12384000
36.01074219,-94.79896000
36.04125977,-92.81050000
36.07177734,-94.15811000
36.10229492,-91.70384000
36.13281250,-89.16340000
36.16333008,-90.71655000
36.19384766,-102.35120000
36.22436523,-91.72124000
36.25488281,-86.36749000
36.28540039,-85.79292000
36.31591797,-87.61118000
36.34643555,-89.72492000
36.37695313,-90.74241000
36.40747070,-87.77442000
36.43798828,-85.86175000
36.46850586,-87.02773000
36.49902344,-90.22966000
36.52954102,-95.49124000
36.56005859,-100.33070000
36.59057617,-93.50458000
36.62109375,-89.18160000
36.65161133,-86.25121000
36.68212891,-85.20321000
36.71264648,-85.41223000
36.74316406,-85.06784000
36.77368164,-86.10291000
36.80419922,-89.27850000
36.83471680,-84.22682000
36.86523438,-80.96191000
36.89575195,-80.74611000
36.92626953,-81.91430000
36.95678711,-83.64726000
36.98730469,-86.18163000
37.01782227,-89.22401000
37.04833984,-95.00816000
37.07885742,-97.70043000
37.10937500,-91.30569000
37.13989258,-91.11769000
37.17041016,-94.56639000
37.20092773,-98.16064000
37.23144531,-95.13968000
37.26196289,-90.43651000
37.29248047,-86.54208000
37.32299805,-84.79547000
37.35351563,-86.55747000
37.38403320,-88.82172000
37.41455078,-86.40904000
37.44506836,-87.09232000
37.47558594,-90.64874000
37.50610352,-94.08044000
37.53662109,-96.36382000
37.56713867,-87.70722000
37.59765625,-83.55576000
37.62817383,-83.96593000
37.65869141,-89.52466000
37.68920898,-98.60803000
37.71972656,-97.25409000
37.75024414,-113.38430000
37.78076172,-92.53793000
37.81127930,-86.98470000
37.84179688,-85.48362000
37.87231445,-86.66286000
37.90283203,-88.40065000
37.93334961,-85.52803000
37.96386719,-81.35728000
37.99438477,-79.59340000
38.02490234,-80.16631000
38.05541992,-81.63240000
38.08593750,-82.79029000
38.11645508,-86.29082000
38.14697266,-104.45060000
38.17749023,-87.25087000
38.20800781,-83.83519000
38.23852539,-84.80949000
38.26904297,-87.27834000
38.29956055,-88.11997000
38.33007813,-87.43074000
38.36059570,-86.04592000
38.39111328,-83.89014000
38.42163086,-81.68878000
38.45214844,-80.77323000
38.48266602,-81.91277000
38.51318359,-86.12015000
38.54370117,-97.17892000
38.57421875,-94.18501000
38.60473633,-91.69777000
38.63525391,-94.17263000
38.66577148,-99.05051000
38.69628906,-97.48024000
38.72680664,-87.25544000
38.75732422,-81.60332000
38.78784180,-78.46791000
38.81835938,-77.51517000
38.84887695,-78.82544000
38.87939453,-82.62726000
38.90991211,-88.21266000
38.94042969,-90.43045000
38.97094727,-93.06671000
39.00146484,-88.42882000
39.03198242,-84.50787000
39.06250000,-85.48083000
39.09301758,-90.11352000
39.12353516,-93.08125000
39.15405273,-99.22221000
39.18457031,-97.45451000
39.21508789,-87.82912000
39.24560547,-84.45421000
39.27612305,-83.68700000
39.30664063,-85.56446000
39.33715820,-92.36226000
39.36767578,-99.43774000
39.39819336,-92.13630000
39.42871094,-90.41752000
39.45922852,-89.72706000
39.48974609,-91.27735000
39.52026367,-96.51933000
39.55078125,-96.16264000
39.58129883,-89.36606000
39.61181641,-85.71634000
39.64233398,-84.61569000
39.67285156,-85.97499000
39.70336914,-88.28638000
39.73388672,-87.66415000
39.76440430,-86.18307000
39.79492188,-85.59959000
39.82543945,-88.37276000
39.85595703,-97.23586000
39.88647461,-87.43034000
39.91699219,-84.26251000
39.94750977,-84.58854000
39.97802734,-87.08255000
40.00854492,-90.53371000
40.03906250,-90.90614000
40.06958008,-86.27814000
40.10009766,-82.87041000
40.13061523,-82.62653000
40.16113281,-85.89914000
40.19165039,-94.63898000
40.22216797,-99.10333000
40.25268555,-90.36824000
40.28320313,-86.45995000
40.31372070,-85.34389000
40.34423828,-86.76286000
40.37475586,-90.06633000
40.40527344,-94.98872000
40.43579102,-102.03730000
40.46630859,-89.54159000
40.49682617,-84.76605000
40.52734375,-84.20671000
40.55786133,-87.49153000
40.58837891,-96.45541000
40.61889648,-108.41620000
40.64941406,-97.92073000
40.67993164,-87.62492000
40.71044922,-83.06845000
40.74096680,-82.09408000
40.77148438,-82.83432000
40.80200195,-83.64173000
40.83251953,-85.10017000
40.86303711,-87.19025000
40.89355469,-89.86400000
40.92407227,-91.90285000
40.95458984,-90.00436000
40.98510742,-88.65208000
41.01562500,-88.13793000
41.04614258,-87.34991000
41.07666016,-87.07858000
41.10717773,-89.60272000
41.13769531,-95.63162000
41.16821289,-86.22954000
41.19873047,-82.04457000
41.22924805,-81.86678000
41.25976563,-85.45547000
41.29028320,-94.56878000
41.32080078,-96.73737000
41.35131836,-90.18631000
41.38183594,-84.66962000
41.41235352,-82.96581000
41.44287109,-85.46241000
41.47338867,-90.34348000
41.50390625,-89.77126000
41.53442383,-91.39156000
41.56494141,-97.21976000
41.59545898,-94.56866000
41.62597656,-89.04706000
41.65649414,-86.90050000
41.68701172,-89.49734000
41.71752930,-111.50150000
41.74804688,-92.19509000
41.77856445,-88.25558000
41.80908203,-84.33319000
41.83959961,-81.85691000
41.87011719,-81.81283000
41.90063477,-82.43354000
41.93115234,-82.73072000
41.96166992,-84.28879000
41.99218750,-87.58995000
42.02270508,-91.81921000
42.05322266,-97.58376000
42.08374023,-105.07650000
42.11425781,-96.11278000
42.14477539,-91.54568000
42.17529297,-89.06891000
42.20581055,-89.14285000
42.23632813,-91.83929000
42.26684570,-94.06126000
42.29736328,-97.36744000
42.32788086,-93.31096000
42.35839844,-86.77266000
42.38891602,-84.92732000
42.41943359,-85.80025000
42.44995117,-87.08955000
42.48046875,-87.23055000
42.51098633,-88.00206000
42.54150391,-91.29532000
42.57202148,-91.80416000
42.60253906,-86.36345000
42.63305664,-83.47891000
42.66357422,-82.24094000
42.69409180,-81.85531000
42.72460938,-82.10717000
42.75512695,-83.12558000
42.78564453,-85.36055000
42.81616211,-87.26562000
42.84667969,-86.68794000
42.87719727,-87.10640000
42.90771484,-90.10563000
42.93823242,-93.50598000
42.96875000,-92.93805000
42.99926758,-92.92106000
43.02978516,-105.11460000
43.06030273,-91.87653000
43.09082031,-86.00058000
43.12133789,-83.70268000
43.15185547,-82.45258000
43.18237305,-83.63506000
43.21289063,-88.63541000
43.24340820,-93.00479000
43.27392578,-89.72942000
43.30444336,-92.01225000
43.33496094,-93.11919000
43.36547852,-83.40981000
43.39599609,-80.80792000
43.42651367,-81.33267000
43.45703125,-82.93151000
43.48754883,-84.60313000
43.51806641,-87.76336000
43.54858398,-96.49380000
43.57910156,-95.84820000
43.60961914,-89.84262000
43.64013672,-86.10955000
43.67065430,-83.84854000
43.70117188,-83.95000000
43.73168945,-85.82307000
43.76220703,-88.00678000
43.79272461,-89.77364000
43.82324219,-92.17775000
43.85375977,-100.30700000
43.88427734,-94.27932000
43.91479492,-88.45955000
43.94531250,-87.73777000
43.97583008,-90.59645000
44.00634766,-97.00768000
44.03686523,-96.55839000
44.06738281,-89.56728000
44.09790039,-85.31159000
44.12841797,-83.28996000
44.15893555,-83.47536000
44.18945313,-85.90832000
44.21997070,-91.08934000
44.25048828,-99.95102000
44.28100586,-87.52821000
44.31152344,-82.28175000
44.34204102,-80.93484000
44.37255859,-82.39552000
44.40307617,-83.75958000
44.43359375,-82.89162000
44.46411133,-84.20708000
44.49462891,-89.32854000
44.52514648,-91.56206000
44.55566406,-91.64799000
44.58618164,-90.86571000
44.61669922,-85.40738000
44.64721680,-82.14814000
44.67773438,-80.88929000
44.70825195,-81.32462000
44.73876953,-83.74928000
44.76928711,-89.64471000
44.79980469,-106.21020000
44.83032227,-90.33527000
44.86083984,-87.60728000
44.89135742,-86.97398000
44.92187500,-85.84135000
44.95239258,-84.92702000
44.98291016,-84.30031000
45.01342773,-84.34700000
45.04394531,-86.07545000
45.07446289,-89.98005000
45.10498047,-94.36777000
45.13549805,-98.67935000
45.16601563,-90.66265000
45.19653320,-86.88596000
45.22705078,-88.22746000
45.25756836,-95.98787000
45.28808594,-96.23856000
45.31860352,-87.97123000
45.34912109,-83.39889000
45.37963867,-80.40763000
45.41015625,-79.41924000
45.44067383,-80.82240000
45.47119141,-84.30537000
45.50170898,-87.31679000
45.53222656,-87.30409000
45.56274414,-86.87522000
45.59326172,-88.61202000
45.62377930,-93.63792000
45.65429688,-84.02889000
45.68481445,-78.43855000
45.71533203,-76.55389000
45.74584961,-77.22224000
45.77636719,-79.60526000
45.80688477,-82.54081000
45.83740234,-84.96857000
45.86791992,-85.74409000
45.89843750,-85.30733000
45.92895508,-85.67326000
45.95947266,-85.79291000
45.98999023,-82.67944000
46.02050781,-79.50513000
46.05102539,-78.68259000
46.08154297,-80.98876000
46.11206055,-87.60888000
46.14257813,-96.28192000
46.17309570,-96.28986000
46.20361328,-92.01752000
46.23413086,-87.87315000
46.26464844,-87.87100000
46.29516602,-91.97937000
46.32568359,-88.36925000
46.35620117,-82.83569000
46.38671875,-81.58609000
46.41723633,-82.62479000
46.44775391,-81.91738000
46.47827148,-80.53697000
46.50878906,-80.40096000
46.53930664,-80.79523000
46.56982422,-81.32867000
46.60034180,-83.07196000
46.63085938,-86.50882000
46.66137695,-85.99034000
46.69189453,-83.73657000
46.72241211,-83.49303000
46.75292969,-82.96973000
46.78344727,-81.57718000
46.81396484,-80.56221000
46.84448242,-79.91092000
46.87500000,-80.20615000
46.90551758,-81.93619000
46.93603516,-84.53896000
46.96655273,-86.65292000
46.99707031,-86.14821000
47.02758789,-82.52814000
47.05810547,-80.75623000
47.08862305,-82.32784000
47.11914063,-86.86382000
47.14965820,-88.73322000
47.18017578,-86.34385000
47.21069336,-84.52859000
47.24121094,-82.81940000
47.27172852,-81.18370000
47.30224609,-79.68408000
47.33276367,-78.40201000
47.36328125,-78.26194000
47.39379883,-80.46937000
47.42431641,-86.95062000
47.45483398,-100.86220000
47.48535156,-103.77840000
47.51586914,-92.55890000
47.54638672,-84.94289000
47.57690430,-84.11778000
47.60742188,-87.26396000
47.63793945,-87.39594000
47.66845703,-84.02582000
47.69897461,-81.99533000
47.72949219,-81.60984000
47.76000977,-82.96563000
47.79052734,-85.11715000
47.82104492,-87.73090000
47.85156250,-94.29776000
47.88208008,-102.04680000
47.91259766,-94.09612000
47.94311523,-91.18179000
47.97363281,-84.47203000
48.00415039,-80.65907000
48.03466797,-79.33321000
48.06518555,-79.07169000
48.09570313,-79.57373000
48.12622070,-81.64687000
48.15673828,-85.62192000
48.18725586,-90.67664000
48.21777344,-94.79167000
48.24829102,-94.10766000
48.27880859,-89.50661000
48.30932617,-86.02311000
48.33984375,-84.73868000
48.37036133,-85.22353000
48.40087891,-86.96725000
48.43139648,-90.46604000
48.46191406,-89.44308000
48.49243164,-85.37755000
48.52294922,-84.14670000
48.55346680,-84.26255000
48.58398438,-83.89137000
48.61450195,-83.05017000
48.64501953,-82.86736000
48.67553711,-82.71310000
48.70605469,-81.41717000
48.73657227,-81.14391000
48.76708984,-83.13465000
48.79760742,-86.09711000
48.82812500,-85.78996000
48.85864258,-84.58572000
48.88916016,-85.63570000
48.91967773,-90.35759000
48.95019531,-106.77990000
48.98071289,-91.80128000
49.01123047,-86.18452000
49.04174805,-82.79460000
49.07226563,-80.86811000
49.10278320,-80.93510000
49.13330078,-83.80600000
49.16381836,-89.76761000
49.19433594,-90.10255000
49.22485352,-89.14305000
49.25537109,-89.94820000
49.28588867,-88.39883000
49.31640625,-87.55276000
49.34692383,-90.36551000
49.37744141,-104.42380000
49.40795898,-93.20710000
49.43847656,-87.52460000
49.46899414,-86.27479000
49.49951172,-87.52180000
49.53002930,-89.72688000
49.56054688,-90.22725000
49.59106445,-90.30685000
49.62158203,-91.74937000
49.65209961,-92.80373000
49.68261719,-92.17994000
49.71313477,-93.78037000
49.74365234,-102.45190000
49.77416992,-94.37231000
49.80468750,-89.62614000
49.83520508,-87.29752000
49.86572266,-85.44389000
49.89624023,-85.39162000
49.92675781,-86.48334000
49.95727539,-85.39437000
49.98779297,-84.33590000
50.01831055,-85.40272000
