Frequency,Channel A
(MHz),(dBu)

0.00000000,-23.47350000
0.03051758,-23.88336000
0.06103516,-29.23393000
0.09155273,-39.52572000
0.12207031,-61.42632000
0.15258789,-63.39441000
0.18310547,-67.58828000
0.21362305,-67.85292000
0.24414063,-74.05119000
0.27465820,-72.72121000
0.30517578,-72.04276000
0.33569336,-81.63919000
0.36621094,-68.87427000
0.39672852,-64.27712000
0.42724609,-65.93367000
0.45776367,-65.49200000
0.48828125,-59.36871000
0.51879883,-57.02534000
0.54931641,-57.19844000
0.57983398,-58.84654000
0.61035156,-62.75464000
0.64086914,-77.71496000
0.67138672,-66.13068000
0.70190430,-62.24067000
0.73242188,-62.35768000
0.76293945,-64.18877000
0.79345703,-67.56828000
0.82397461,-67.16109000
0.85449219,-64.33740000
0.88500977,-63.45869000
0.91552734,-63.62648000
0.94604492,-63.99981000
0.97656250,-63.86172000
1.00708008,-63.08152000
1.03759766,-62.50159000
1.06811523,-62.75909000
1.09863281,-63.71878000
1.12915039,-65.29571000
1.15966797,-68.82943000
1.19018555,-76.57958000
1.22070313,-95.58044000
1.25122070,-89.73059000
1.28173828,-82.97993000
1.31225586,-81.06159000
1.34277344,-83.29391000
1.37329102,-82.11495000
1.40380859,-76.23448000
1.43432617,-71.11337000
1.46484375,-69.39905000
1.49536133,-68.96022000
1.52587891,-67.77293000
1.55639648,-65.99815000
1.58691406,-65.13600000
1.61743164,-65.93513000
1.64794922,-68.64694000
1.67846680,-74.13792000
1.70898438,-82.11205000
1.73950195,-79.98585000
1.77001953,-75.55357000
1.80053711,-73.16295000
1.83105469,-73.54558000
1.86157227,-75.76325000
1.89208984,-78.15869000
1.92260742,-84.17023000
1.95312500,-78.68990000
1.98364258,-71.64908000
2.01416016,-70.19375000
2.04467773,-71.40459000
2.07519531,-73.82719000
2.10571289,-77.90403000
2.13623047,-83.05779000
2.16674805,-77.72999000
2.19726563,-75.94558000
2.22778320,-78.92641000
2.25830078,-84.21722000
2.28881836,-82.92973000
2.31933594,-75.93609000
2.34985352,-73.04450000
2.38037109,-73.71439000
2.41088867,-78.25753000
2.44140625,-85.44809000
2.47192383,-87.36435000
2.50244141,-87.96803000
2.53295898,-81.82919000
2.56347656,-79.39502000
2.59399414,-77.99076000
2.62451172,-79.02383000
2.65502930,-77.38669000
2.68554688,-73.43781000
2.71606445,-72.39744000
2.74658203,-75.36789000
2.77709961,-84.07054000
2.80761719,-87.06532000
2.83813477,-90.28711000
2.86865234,-97.79158000
2.89916992,-95.20935000
2.92968750,-82.93541000
2.96020508,-76.33881000
2.99072266,-72.99519000
3.02124023,-71.52175000
3.05175781,-71.65285000
3.08227539,-72.65663000
3.11279297,-73.39928000
3.14331055,-73.20166000
3.17382813,-73.35165000
3.20434570,-75.28481000
3.23486328,-81.94447000
3.26538086,-84.13742000
3.29589844,-81.29839000
3.32641602,-78.79813000
3.35693359,-75.30199000
3.38745117,-76.50582000
3.41796875,-80.85777000
3.44848633,-87.00134000
3.47900391,-90.61609000
3.50952148,-88.21656000
3.54003906,-82.29600000
3.57055664,-80.22529000
3.60107422,-80.96317000
3.63159180,-80.88777000
3.66210938,-76.96861000
3.69262695,-75.94125000
3.72314453,-80.38901000
3.75366211,-84.46306000
3.78417969,-82.08869000
3.81469727,-82.78519000
3.84521484,-87.62391000
3.87573242,-79.00734000
3.90625000,-79.32242000
3.93676758,-90.58797000
3.96728516,-87.38600000
3.99780273,-83.65493000
4.02832031,-76.26109000
4.05883789,-76.28567000
4.08935547,-78.03310000
4.11987305,-78.53568000
4.15039063,-79.54739000
4.18090820,-79.88376000
4.21142578,-79.10922000
4.24194336,-78.04977000
4.27246094,-79.07594000
4.30297852,-79.87594000
4.33349609,-80.59296000
4.36401367,-84.75209000
4.39453125,-82.90096000
4.42504883,-77.17260000
4.45556641,-75.84039000
4.48608398,-78.24839000
4.51660156,-83.86490000
4.54711914,-87.44270000
4.57763672,-84.51012000
4.60815430,-88.07198000
4.63867188,-88.93188000
4.66918945,-88.85650000
4.69970703,-86.60329000
4.73022461,-90.21745000
4.76074219,-88.33187000
4.79125977,-82.77841000
4.82177734,-83.98441000
4.85229492,-79.84174000
4.88281250,-77.53625000
4.91333008,-77.16241000
4.94384766,-78.38580000
4.97436523,-83.64289000
5.00488281,-95.99806000
5.03540039,-98.13168000
5.06591797,-89.05013000
5.09643555,-81.50109000
5.12695313,-78.19009000
5.15747070,-78.12149000
5.18798828,-77.19775000
5.21850586,-77.65639000
5.24902344,-84.45586000
5.27954102,-86.49684000
5.31005859,-89.87422000
5.34057617,-80.68763000
5.37109375,-79.46636000
5.40161133,-85.57648000
5.43212891,-84.41476000
5.46264648,-82.93633000
5.49316406,-85.80693000
5.52368164,-87.48273000
5.55419922,-80.42955000
5.58471680,-80.87004000
5.61523438,-90.60444000
5.64575195,-90.18138000
5.67626953,-80.14909000
5.70678711,-76.64557000
5.73730469,-80.17621000
5.76782227,-83.96341000
5.79833984,-82.94936000
5.82885742,-86.16825000
5.85937500,-79.94173000
5.88989258,-86.44471000
5.92041016,-82.13577000
5.95092773,-82.60454000
5.98144531,-87.69835000
6.01196289,-89.77227000
6.04248047,-85.36592000
6.07299805,-79.38411000
6.10351563,-84.17398000
6.13403320,-98.37083000
6.16455078,-89.71184000
6.19506836,-78.56507000
6.22558594,-76.98613000
6.25610352,-79.15842000
6.28662109,-80.57121000
6.31713867,-84.46484000
6.34765625,-81.42120000
6.37817383,-79.74630000
6.40869141,-79.19211000
6.43920898,-84.25259000
6.46972656,-83.73816000
6.50024414,-78.48034000
6.53076172,-79.47242000
6.56127930,-80.16193000
6.59179688,-83.97649000
6.62231445,-98.99964000
6.65283203,-88.54651000
6.68334961,-83.64008000
6.71386719,-79.81333000
6.74438477,-77.22060000
6.77490234,-77.32180000
6.80541992,-80.40714000
6.83593750,-82.97456000
6.86645508,-83.72079000
6.89697266,-82.11605000
6.92749023,-81.29632000
6.95800781,-84.56822000
6.98852539,-92.21557000
7.01904297,-83.52340000
7.04956055,-79.77097000
7.08007813,-79.55167000
7.11059570,-81.46949000
7.14111328,-83.41255000
7.17163086,-83.26138000
7.20214844,-82.63719000
7.23266602,-82.45881000
7.26318359,-83.35967000
7.29370117,-85.37291000
7.32421875,-83.22585000
7.35473633,-79.14664000
7.38525391,-77.75831000
7.41577148,-79.22565000
7.44628906,-83.11768000
7.47680664,-86.89496000
7.50732422,-85.41547000
7.53784180,-81.90544000
7.56835938,-80.59113000
7.59887695,-82.17194000
7.62939453,-85.98801000
7.65991211,-90.87170000
7.69042969,-104.52020000
7.72094727,-90.88310000
7.75146484,-84.43061000
7.78198242,-82.04480000
7.81250000,-81.96122000
7.84301758,-83.53561000
7.87353516,-86.85764000
7.90405273,-93.36993000
7.93457031,-96.95689000
7.96508789,-88.20870000
7.99560547,-86.01479000
8.02612305,-87.17011000
8.05664063,-91.82103000
8.08715820,-105.03710000
8.11767578,-95.55956000
8.14819336,-94.92977000
8.17871094,-96.72764000
8.20922852,-93.21841000
8.23974609,-88.00721000
8.27026367,-86.22539000
8.30078125,-87.36316000
8.33129883,-90.66293000
8.36181641,-94.29880000
8.39233398,-90.72441000
8.42285156,-84.88006000
8.45336914,-81.71809000
8.48388672,-81.35864000
8.51440430,-83.50727000
8.54492188,-87.60770000
8.57543945,-91.47836000
8.60595703,-90.80764000
8.63647461,-89.09844000
8.66699219,-90.23375000
8.69750977,-96.24794000
8.72802734,-104.46630000
8.75854492,-97.18399000
8.78906250,-91.07718000
8.81958008,-89.34238000
8.85009766,-92.83611000
8.88061523,-93.69683000
8.91113281,-89.24915000
8.94165039,-88.96526000
8.97216797,-90.37042000
9.00268555,-91.54474000
9.03320313,-88.93825000
9.06372070,-84.77385000
9.09423828,-83.58720000
9.12475586,-86.08010000
9.15527344,-92.33108000
9.18579102,-92.03757000
9.21630859,-90.70369000
9.24682617,-91.42341000
9.27734375,-97.15018000
9.30786133,-98.63999000
9.33837891,-89.83285000
9.36889648,-86.99548000
9.39941406,-83.84971000
9.42993164,-82.89906000
9.46044922,-85.23240000
9.49096680,-90.83067000
9.52148438,-93.74550000
9.55200195,-91.96861000
9.58251953,-97.32942000
9.61303711,-86.95201000
9.64355469,-82.70897000
9.67407227,-83.58331000
9.70458984,-88.31264000
9.73510742,-91.30388000
9.76562500,-96.10806000
9.79614258,-96.50860000
9.82666016,-87.76468000
9.85717773,-86.05674000
9.88769531,-87.08333000
9.91821289,-88.26987000
9.94873047,-86.11316000
9.97924805,-83.31639000
10.00976563,-82.31393000
10.04028320,-83.41354000
10.07080078,-87.30594000
10.10131836,-93.97034000
10.13183594,-84.61292000
10.16235352,-80.68986000
10.19287109,-80.49863000
10.22338867,-82.82152000
10.25390625,-86.86816000
10.28442383,-89.60743000
10.31494141,-87.42136000
10.34545898,-83.46678000
10.37597656,-81.98063000
10.40649414,-84.70290000
10.43701172,-90.39903000
10.46752930,-87.14878000
10.49804688,-87.68530000
10.52856445,-94.20503000
10.55908203,-88.61137000
10.58959961,-89.12427000
10.62011719,-99.20974000
10.65063477,-85.92860000
10.68115234,-83.13284000
10.71166992,-85.47591000
10.74218750,-89.89484000
10.77270508,-91.91865000
10.80322266,-90.63686000
10.83374023,-87.31046000
10.86425781,-92.07111000
10.89477539,-86.70097000
10.92529297,-82.54146000
10.95581055,-85.52936000
10.98632813,-89.01572000
11.01684570,-82.71581000
11.04736328,-82.02213000
11.07788086,-85.09836000
11.10839844,-92.43105000
11.13891602,-88.48794000
11.16943359,-81.94415000
11.19995117,-80.77953000
11.23046875,-83.93067000
11.26098633,-90.65055000
11.29150391,-88.40723000
11.32202148,-86.65004000
11.35253906,-87.08102000
11.38305664,-84.48503000
11.41357422,-81.65964000
11.44409180,-81.25421000
11.47460938,-83.50335000
11.50512695,-85.36720000
11.53564453,-82.02400000
11.56616211,-79.82312000
11.59667969,-78.81025000
11.62719727,-78.00329000
11.65771484,-77.92822000
11.68823242,-78.77837000
11.71875000,-80.29297000
11.74926758,-82.07393000
11.77978516,-84.11829000
11.81030273,-86.86135000
11.84082031,-86.33997000
11.87133789,-83.93202000
11.90185547,-82.11884000
11.93237305,-80.30249000
11.96289063,-80.04250000
11.99340820,-83.51575000
12.02392578,-95.17064000
12.05444336,-89.65119000
12.08496094,-86.73489000
12.11547852,-86.52238000
12.14599609,-86.12540000
12.17651367,-89.47179000
12.20703125,-89.75653000
12.23754883,-83.35643000
12.26806641,-82.20196000
12.29858398,-85.19426000
12.32910156,-85.51049000
12.35961914,-80.13211000
12.39013672,-77.38509000
12.42065430,-77.58546000
12.45117188,-81.07997000
12.48168945,-88.08822000
12.51220703,-94.62318000
12.54272461,-87.46510000
12.57324219,-84.59584000
12.60375977,-84.53978000
12.63427734,-82.62497000
12.66479492,-78.68347000
12.69531250,-75.95094000
12.72583008,-75.20010000
12.75634766,-76.40863000
12.78686523,-79.34926000
12.81738281,-82.23322000
12.84790039,-82.10878000
12.87841797,-83.87071000
12.90893555,-87.77753000
12.93945313,-84.03601000
12.96997070,-81.36384000
13.00048828,-78.59758000
13.03100586,-76.69453000
13.06152344,-77.85547000
13.09204102,-82.60071000
13.12255859,-82.38863000
13.15307617,-79.76108000
13.18359375,-78.87363000
13.21411133,-76.65620000
13.24462891,-74.92690000
13.27514648,-75.84447000
13.30566406,-80.21294000
13.33618164,-87.53879000
13.36669922,-100.91290000
13.39721680,-88.18651000
13.42773438,-81.53029000
13.45825195,-80.17671000
13.48876953,-78.39993000
13.51928711,-70.89193000
13.54980469,-66.74722000
13.58032227,-65.91956000
13.61083984,-67.24507000
13.64135742,-68.81307000
13.67187500,-69.18655000
13.70239258,-69.77241000
13.73291016,-71.69155000
13.76342773,-74.64040000
13.79394531,-78.77432000
13.82446289,-87.04671000
13.85498047,-92.75917000
13.88549805,-82.86325000
13.91601563,-81.96376000
13.94653320,-88.78809000
13.97705078,-87.78367000
14.00756836,-79.65501000
14.03808594,-78.13849000
14.06860352,-80.52871000
14.09912109,-87.84888000
14.12963867,-95.44856000
14.16015625,-95.46212000
14.19067383,-83.38292000
14.22119141,-78.34077000
14.25170898,-76.68343000
14.28222656,-76.32265000
14.31274414,-75.62647000
14.34326172,-75.50610000
14.37377930,-77.38017000
14.40429688,-81.80673000
14.43481445,-91.96702000
14.46533203,-83.62395000
14.49584961,-78.65153000
14.52636719,-78.38333000
14.55688477,-82.21060000
14.58740234,-84.47696000
14.61791992,-80.23617000
14.64843750,-78.70182000
14.67895508,-78.08261000
14.70947266,-77.55974000
14.73999023,-77.75581000
14.77050781,-79.35198000
14.80102539,-83.23632000
14.83154297,-88.39746000
14.86206055,-85.68764000
14.89257813,-80.79765000
14.92309570,-78.60464000
14.95361328,-79.47811000
14.98413086,-82.75542000
15.01464844,-85.54130000
15.04516602,-84.38660000
15.07568359,-81.46903000
15.10620117,-80.28520000
15.13671875,-81.06927000
15.16723633,-82.12121000
15.19775391,-80.43034000
15.22827148,-78.02234000
15.25878906,-77.74599000
15.28930664,-80.39333000
15.31982422,-85.91446000
15.35034180,-86.85037000
15.38085938,-81.40152000
15.41137695,-78.55486000
15.44189453,-78.15747000
15.47241211,-78.99049000
15.50292969,-79.03043000
15.53344727,-77.52122000
15.56396484,-76.07353000
15.59448242,-76.35589000
15.62500000,-79.35067000
15.65551758,-84.54689000
15.68603516,-86.31115000
15.71655273,-85.65863000
15.74707031,-84.64590000
15.77758789,-85.28772000
15.80810547,-91.80286000
15.83862305,-93.45323000
15.86914063,-85.84702000
15.89965820,-86.17730000
15.93017578,-92.00344000
15.96069336,-93.73765000
15.99121094,-93.21414000
16.02172852,-91.88152000
16.05224609,-85.36565000
16.08276367,-83.76212000
16.11328125,-85.88700000
16.14379883,-88.90771000
16.17431641,-87.08759000
16.20483398,-84.18906000
16.23535156,-83.50900000
16.26586914,-85.35007000
16.29638672,-88.32515000
16.32690430,-88.72672000
16.35742188,-86.31241000
16.38793945,-86.09438000
16.41845703,-92.06166000
16.44897461,-94.95846000
16.47949219,-84.84615000
16.51000977,-82.67829000
16.54052734,-84.32732000
16.57104492,-88.77795000
16.60156250,-91.41251000
16.63208008,-90.48331000
16.66259766,-90.95267000
16.69311523,-97.41537000
16.72363281,-91.06767000
16.75415039,-84.52229000
16.78466797,-83.13933000
16.81518555,-85.64053000
16.84570313,-90.75417000
16.87622070,-91.96782000
16.90673828,-88.60763000
16.93725586,-86.03886000
16.96777344,-86.26854000
16.99829102,-88.21432000
17.02880859,-90.20969000
17.05932617,-91.64338000
17.08984375,-91.31702000
17.12036133,-91.34102000
17.15087891,-97.52053000
17.18139648,-102.08000000
17.21191406,-95.56115000
17.24243164,-101.27560000
17.27294922,-92.69706000
17.30346680,-88.89149000
17.33398438,-89.29432000
17.36450195,-89.77309000
17.39501953,-88.07273000
17.42553711,-88.02048000
17.45605469,-90.40591000
17.48657227,-93.76518000
17.51708984,-101.93310000
17.54760742,-98.27310000
17.57812500,-93.99864000
17.60864258,-93.00108000
17.63916016,-93.10307000
17.66967773,-98.43562000
17.70019531,-88.79115000
17.73071289,-83.61915000
17.76123047,-81.02401000
17.79174805,-79.19615000
17.82226563,-79.05399000
17.85278320,-82.00209000
17.88330078,-89.92944000
17.91381836,-101.99820000
17.94433594,-103.94960000
17.97485352,-100.05360000
18.00537109,-98.26909000
18.03588867,-107.77880000
18.06640625,-97.83498000
18.09692383,-93.22193000
18.12744141,-93.81197000
18.15795898,-99.01888000
18.18847656,-104.00810000
18.21899414,-98.81158000
18.24951172,-93.99232000
18.28002930,-92.51120000
18.31054688,-92.62842000
18.34106445,-92.21667000
18.37158203,-91.01955000
18.40209961,-89.54597000
18.43261719,-88.91319000
18.46313477,-89.32236000
18.49365234,-90.27422000
18.52416992,-92.21980000
18.55468750,-96.23094000
18.58520508,-101.53500000
18.61572266,-101.91650000
18.64624023,-94.85139000
18.67675781,-89.13907000
18.70727539,-86.11711000
18.73779297,-85.52715000
18.76831055,-86.93363000
18.79882813,-88.72955000
18.82934570,-88.63366000
18.85986328,-87.41852000
18.89038086,-87.11747000
18.92089844,-89.08382000
18.95141602,-92.86839000
18.98193359,-94.27071000
19.01245117,-95.06512000
19.04296875,-98.62708000
19.07348633,-107.00880000
19.10400391,-103.96450000
19.13452148,-94.75880000
19.16503906,-92.03394000
19.19555664,-92.49107000
19.22607422,-94.05595000
19.25659180,-94.55916000
19.28710938,-96.10942000
19.31762695,-104.04350000
19.34814453,-105.14660000
19.37866211,-97.86053000
19.40917969,-96.17210000
19.43969727,-96.33185000
19.47021484,-96.66180000
19.50073242,-94.35997000
19.53125000,-90.52335000
19.56176758,-88.08250000
19.59228516,-87.80745000
19.62280273,-89.91398000
19.65332031,-93.56676000
19.68383789,-92.00636000
19.71435547,-88.60428000
19.74487305,-86.61201000
19.77539063,-85.49146000
19.80590820,-85.08698000
19.83642578,-85.46379000
19.86694336,-86.41570000
19.89746094,-87.43042000
19.92797852,-87.84161000
19.95849609,-87.54093000
19.98901367,-87.28031000
20.01953125,-88.17002000
20.05004883,-90.32569000
20.08056641,-91.52664000
20.11108398,-91.13426000
20.14160156,-91.02878000
20.17211914,-91.55437000
20.20263672,-93.43230000
20.23315430,-94.03613000
20.26367188,-88.62281000
20.29418945,-85.41862000
20.32470703,-84.70849000
20.35522461,-84.65892000
20.38574219,-83.91290000
20.41625977,-82.99557000
20.44677734,-82.54114000
20.47729492,-82.89302000
20.50781250,-83.48425000
20.53833008,-83.92913000
20.56884766,-85.14238000
20.59936523,-87.08866000
20.62988281,-87.75433000
20.66040039,-86.54949000
20.69091797,-85.51071000
20.72143555,-85.92110000
20.75195313,-88.01879000
20.78247070,-90.84855000
20.81298828,-92.06195000
20.84350586,-91.61958000
20.87402344,-91.19157000
20.90454102,-91.82188000
20.93505859,-93.16331000
20.96557617,-93.43284000
20.99609375,-92.98814000
21.02661133,-95.37325000
21.05712891,-104.44350000
21.08764648,-98.54401000
21.11816406,-93.07433000
21.14868164,-87.87670000
21.17919922,-85.58946000
21.20971680,-86.18087000
21.24023438,-88.46332000
21.27075195,-90.79219000
21.30126953,-91.72863000
21.33178711,-90.36038000
21.36230469,-88.08310000
21.39282227,-86.56750000
21.42333984,-86.28403000
21.45385742,-87.08038000
21.48437500,-87.82729000
21.51489258,-87.76470000
21.54541016,-87.45383000
21.57592773,-87.32062000
21.60644531,-88.12989000
21.63696289,-90.66177000
21.66748047,-95.05695000
21.69799805,-98.54850000
21.72851563,-92.30650000
21.75903320,-89.35245000
21.78955078,-89.83672000
21.82006836,-92.39780000
21.85058594,-94.58804000
21.88110352,-92.09421000
21.91162109,-89.35921000
21.94213867,-88.66013000
21.97265625,-89.84273000
22.00317383,-92.52739000
22.03369141,-95.87131000
22.06420898,-97.97684000
22.09472656,-97.01462000
22.12524414,-95.42461000
22.15576172,-96.10243000
22.18627930,-99.76617000
22.21679688,-102.77920000
22.24731445,-99.43204000
22.27783203,-100.59210000
22.30834961,-107.48810000
22.33886719,-93.09147000
22.36938477,-88.65887000
22.39990234,-87.13609000
22.43041992,-86.37466000
22.46093750,-86.07238000
22.49145508,-87.64967000
22.52197266,-92.80923000
22.55249023,-103.45600000
22.58300781,-97.48668000
22.61352539,-96.71134000
22.64404297,-104.12640000
22.67456055,-101.12110000
22.70507813,-98.44807000
22.73559570,-102.26320000
22.76611328,-92.97665000
22.79663086,-89.99637000
22.82714844,-91.14542000
22.85766602,-95.52193000
22.88818359,-101.47460000
22.91870117,-96.82029000
22.94921875,-94.75981000
22.97973633,-94.55093000
23.01025391,-92.83126000
23.04077148,-94.33041000
23.07128906,-102.20390000
23.10180664,-93.78882000
23.13232422,-92.39455000
23.16284180,-100.25770000
23.19335938,-98.92680000
23.22387695,-92.03647000
23.25439453,-91.13509000
23.28491211,-92.48656000
23.31542969,-94.37852000
23.34594727,-94.79143000
23.37646484,-96.32864000
23.40698242,-105.48910000
23.43750000,-100.35230000
23.46801758,-95.76684000
23.49853516,-97.01135000
23.52905273,-102.04810000
23.55957031,-107.82570000
23.59008789,-104.40480000
23.62060547,-100.77020000
23.65112305,-99.40583000
23.68164063,-98.77968000
23.71215820,-96.88055000
23.74267578,-93.78094000
23.77319336,-91.17281000
23.80371094,-90.06644000
23.83422852,-90.60452000
23.86474609,-92.66338000
23.89526367,-96.85437000
23.92578125,-101.28640000
23.95629883,-95.70338000
23.98681641,-93.78015000
24.01733398,-95.57677000
24.04785156,-97.07951000
24.07836914,-94.90477000
24.10888672,-91.59135000
24.13940430,-89.02113000
24.16992188,-88.31580000
24.20043945,-90.43687000
24.23095703,-95.38689000
24.26147461,-90.88907000
24.29199219,-87.08352000
24.32250977,-86.63298000
24.35302734,-88.52505000
24.38354492,-91.63136000
24.41406250,-93.58635000
24.44458008,-92.70087000
24.47509766,-91.51472000
24.50561523,-92.82320000
24.53613281,-99.66492000
24.56665039,-105.03530000
24.59716797,-95.38375000
24.62768555,-92.89513000
24.65820313,-91.86603000
24.68872070,-90.65522000
24.71923828,-89.89499000
24.74975586,-90.47042000
24.78027344,-90.33069000
24.81079102,-89.12840000
24.84130859,-89.55979000
24.87182617,-92.50927000
24.90234375,-96.72974000
24.93286133,-95.99141000
24.96337891,-93.31572000
24.99389648,-91.26847000
25.02441406,-89.80669000
25.05493164,-88.92121000
25.08544922,-88.34274000
25.11596680,-88.42228000
25.14648438,-90.47595000
25.17700195,-95.38666000
25.20751953,-96.98465000
25.23803711,-97.22459000
25.26855469,-101.64140000
25.29907227,-101.65240000
25.32958984,-99.22955000
25.36010742,-98.37676000
25.39062500,-98.57278000
25.42114258,-99.01302000
25.45166016,-96.37863000
25.48217773,-95.19105000
25.51269531,-96.18687000
25.54321289,-92.62955000
25.57373047,-88.72461000
25.60424805,-86.46841000
25.63476563,-85.21286000
25.66528320,-85.15173000
25.69580078,-86.70827000
25.72631836,-89.68733000
25.75683594,-92.95463000
25.78735352,-95.18904000
25.81787109,-97.01240000
25.84838867,-99.34100000
25.87890625,-100.78660000
25.90942383,-101.39790000
25.93994141,-102.03710000
25.97045898,-97.96370000
26.00097656,-94.30177000
26.03149414,-91.37164000
26.06201172,-89.43401000
26.09252930,-89.69353000
26.12304688,-91.77068000
26.15356445,-93.15804000
26.18408203,-93.83271000
26.21459961,-90.70859000
26.24511719,-85.64977000
26.27563477,-82.90913000
26.30615234,-82.50009000
26.33666992,-84.20541000
26.36718750,-87.56212000
26.39770508,-90.58223000
26.42822266,-91.15241000
26.45874023,-90.04752000
26.48925781,-88.87627000
26.51977539,-88.81487000
26.55029297,-90.09326000
26.58081055,-92.84443000
26.61132813,-98.14653000
26.64184570,-107.18360000
26.67236328,-107.97060000
26.70288086,-105.15510000
26.73339844,-104.81010000
26.76391602,-120.28350000
26.79443359,-104.72350000
26.82495117,-103.91050000
26.85546875,-118.31350000
26.88598633,-98.68605000
26.91650391,-92.89017000
26.94702148,-89.52248000
26.97753906,-87.39771000
27.00805664,-86.28235000
27.03857422,-85.82407000
27.06909180,-85.76601000
27.09960938,-85.84756000
27.13012695,-85.97467000
27.16064453,-86.41687000
27.19116211,-87.15478000
27.22167969,-87.64296000
27.25219727,-87.74431000
27.28271484,-87.74483000
27.31323242,-87.59175000
27.34375000,-87.19672000
27.37426758,-86.59241000
27.40478516,-86.03927000
27.43530273,-86.05789000
27.46582031,-87.08991000
27.49633789,-89.06834000
27.52685547,-91.06338000
27.55737305,-91.77071000
27.58789063,-90.88853000
27.61840820,-88.93970000
27.64892578,-86.81321000
27.67944336,-85.59974000
27.70996094,-86.04034000
27.74047852,-88.24808000
27.77099609,-91.13021000
27.80151367,-92.17505000
27.83203125,-91.48148000
27.86254883,-91.98215000
27.89306641,-95.12597000
27.92358398,-100.96270000
27.95410156,-109.97960000
27.98461914,-105.81960000
28.01513672,-96.75984000
28.04565430,-90.86117000
28.07617188,-86.76095000
28.10668945,-84.26555000
28.13720703,-83.03925000
28.16772461,-82.66239000
28.19824219,-82.89657000
28.22875977,-83.54524000
28.25927734,-84.10947000
28.28979492,-83.94626000
28.32031250,-83.12227000
28.35083008,-82.35793000
28.38134766,-82.13164000
28.41186523,-82.35470000
28.44238281,-82.65195000
28.47290039,-82.85066000
28.50341797,-83.13908000
28.53393555,-83.81738000
28.56445313,-84.95590000
28.59497070,-86.38927000
28.62548828,-88.18485000
28.65600586,-90.76946000
28.68652344,-94.22143000
28.71704102,-96.79610000
28.74755859,-97.21122000
28.77807617,-98.49034000
28.80859375,-100.14280000
28.83911133,-105.64750000
28.86962891,-102.85250000
28.90014648,-92.74459000
28.93066406,-88.84915000
28.96118164,-87.14047000
28.99169922,-86.54494000
29.02221680,-86.87562000
29.05273438,-88.25389000
29.08325195,-90.75898000
29.11376953,-91.92494000
29.14428711,-89.91747000
29.17480469,-88.43402000
29.20532227,-88.24123000
29.23583984,-88.65608000
29.26635742,-89.65833000
29.29687500,-92.07388000
29.32739258,-95.96890000
29.35791016,-99.22851000
29.38842773,-97.48244000
29.41894531,-92.30240000
29.44946289,-88.45531000
29.47998047,-86.65112000
29.51049805,-86.46737000
29.54101563,-87.02788000
29.57153320,-87.02049000
29.60205078,-85.81947000
29.63256836,-84.55074000
29.66308594,-84.56639000
29.69360352,-86.16475000
29.72412109,-88.10864000
29.75463867,-88.56915000
29.78515625,-88.42228000
29.81567383,-89.43910000
29.84619141,-92.51289000
29.87670898,-97.11658000
29.90722656,-98.14201000
29.93774414,-94.87285000
29.96826172,-91.49309000
29.99877930,-88.40092000
30.02929688,-86.51480000
30.05981445,-86.51152000
30.09033203,-89.01897000
30.12084961,-96.21822000
30.15136719,-103.85320000
30.18188477,-92.67776000
30.21240234,-89.31687000
30.24291992,-87.88711000
30.27343750,-87.20486000
30.30395508,-86.69635000
30.33447266,-86.17996000
30.36499023,-85.96515000
30.39550781,-86.46184000
30.42602539,-87.43546000
30.45654297,-87.55251000
30.48706055,-86.30281000
30.51757813,-85.20001000
30.54809570,-85.39034000
30.57861328,-87.06937000
30.60913086,-89.40002000
30.63964844,-89.24012000
30.67016602,-86.26904000
30.70068359,-84.42598000
30.73120117,-84.84542000
30.76171875,-87.30094000
30.79223633,-90.25143000
30.82275391,-91.32821000
30.85327148,-91.71661000
30.88378906,-92.75486000
30.91430664,-92.67085000
30.94482422,-93.44410000
30.97534180,-97.07382000
31.00585938,-94.73799000
31.03637695,-89.88463000
31.06689453,-87.53017000
31.09741211,-87.21280000
31.12792969,-88.40476000
31.15844727,-90.06832000
31.18896484,-90.62340000
31.21948242,-90.85870000
31.25000000,-93.10468000
31.28051758,-98.43765000
31.31103516,-97.89162000
31.34155273,-94.48131000
31.37207031,-94.99272000
31.40258789,-102.80910000
31.43310547,-97.65819000
31.46362305,-91.79875000
31.49414063,-90.38960000
31.52465820,-89.68327000
31.55517578,-87.99094000
31.58569336,-86.05156000
31.61621094,-84.52773000
31.64672852,-83.64021000
31.67724609,-83.44489000
31.70776367,-83.96463000
31.73828125,-85.20058000
31.76879883,-86.80200000
31.79931641,-87.32074000
31.82983398,-85.87074000
31.86035156,-84.42355000
31.89086914,-84.07979000
31.92138672,-84.59503000
31.95190430,-85.47318000
31.98242188,-86.54816000
32.01293945,-87.79559000
32.04345703,-89.29161000
32.07397461,-91.75849000
32.10449219,-95.10467000
32.13500977,-94.28116000
32.16552734,-92.60016000
32.19604492,-93.63731000
32.22656250,-97.12074000
32.25708008,-99.92966000
32.28759766,-97.12543000
32.31811523,-94.71333000
32.34863281,-92.27363000
32.37915039,-89.07686000
32.40966797,-86.72827000
32.44018555,-86.20273000
32.47070313,-87.32330000
32.50122070,-89.17584000
32.53173828,-90.36056000
32.56225586,-90.45757000
32.59277344,-90.69862000
32.62329102,-91.49712000
32.65380859,-91.61429000
32.68432617,-89.96692000
32.71484375,-87.72537000
32.74536133,-86.34352000
32.77587891,-86.20602000
32.80639648,-87.06151000
32.83691406,-88.38232000
32.86743164,-89.40955000
32.89794922,-89.75923000
32.92846680,-90.23326000
32.95898438,-91.21894000
32.98950195,-91.40028000
33.02001953,-91.06002000
33.05053711,-90.50988000
33.08105469,-89.23232000
33.11157227,-87.77568000
33.14208984,-86.07906000
33.17260742,-84.81281000
33.20312500,-84.80739000
33.23364258,-86.21980000
33.26416016,-88.78392000
33.29467773,-91.82623000
33.32519531,-95.24418000
33.35571289,-99.43446000
33.38623047,-100.58550000
33.41674805,-102.72010000
33.44726563,-115.59850000
33.47778320,-96.58063000
33.50830078,-92.11662000
33.53881836,-91.61948000
33.56933594,-93.41136000
33.59985352,-95.42393000
33.63037109,-95.48096000
33.66088867,-94.33519000
33.69140625,-93.37409000
33.72192383,-92.31386000
33.75244141,-90.12969000
33.78295898,-87.22985000
33.81347656,-84.68446000
33.84399414,-82.87984000
33.87451172,-81.95305000
33.90502930,-81.99173000
33.93554688,-82.89226000
33.96606445,-84.21434000
33.99658203,-85.31943000
34.02709961,-85.96539000
34.05761719,-86.54890000
34.08813477,-87.57635000
34.11865234,-88.82814000
34.14916992,-88.72630000
34.17968750,-86.91576000
34.21020508,-85.12123000
34.24072266,-84.16429000
34.27124023,-84.03527000
34.30175781,-84.38190000
34.33227539,-84.61712000
34.36279297,-84.07639000
34.39331055,-82.87886000
34.42382813,-81.90217000
34.45434570,-81.76545000
34.48486328,-82.64281000
34.51538086,-84.30978000
34.54589844,-86.10791000
34.57641602,-87.32120000
34.60693359,-87.88570000
34.63745117,-88.12257000
34.66796875,-88.28323000
34.69848633,-88.51181000
34.72900391,-88.55327000
34.75952148,-88.10928000
34.79003906,-87.60308000
34.82055664,-87.52926000
34.85107422,-87.80510000
34.88159180,-87.96189000
34.91210938,-87.82951000
34.94262695,-87.67022000
34.97314453,-87.41439000
35.00366211,-86.65857000
35.03417969,-85.69797000
35.06469727,-85.14126000
35.09521484,-85.07110000
35.12573242,-85.29227000
35.15625000,-85.61481000
35.18676758,-86.12885000
35.21728516,-87.22900000
35.24780273,-88.99571000
35.27832031,-90.72160000
35.30883789,-90.74440000
35.33935547,-88.90700000
35.36987305,-87.68860000
35.40039063,-88.33572000
35.43090820,-90.34531000
35.46142578,-91.41017000
35.49194336,-90.15535000
35.52246094,-88.40639000
35.55297852,-87.15443000
35.58349609,-86.45290000
35.61401367,-86.46840000
35.64453125,-87.18520000
35.67504883,-87.76566000
35.70556641,-87.31586000
35.73608398,-86.09435000
35.76660156,-84.93186000
35.79711914,-84.39598000
35.82763672,-84.21977000
35.85815430,-83.85273000
35.88867188,-83.28877000
35.91918945,-83.00029000
35.94970703,-83.49477000
35.98022461,-85.02437000
36.01074219,-87.35650000
36.04125977,-89.70416000
36.07177734,-91.43696000
36.10229492,-92.34866000
36.13281250,-92.22385000
36.16333008,-91.81310000
36.19384766,-91.88949000
36.22436523,-92.67616000
36.25488281,-94.32913000
36.28540039,-96.99255000
36.31591797,-100.83700000
36.34643555,-102.61430000
36.37695313,-97.31709000
36.40747070,-92.00176000
36.43798828,-88.19595000
36.46850586,-86.19004000
36.49902344,-85.72440000
36.52954102,-86.35934000
36.56005859,-87.96800000
36.59057617,-90.77266000
36.62109375,-94.12622000
36.65161133,-94.49025000
36.68212891,-92.55809000
36.71264648,-91.42789000
36.74316406,-92.10855000
36.77368164,-94.56166000
36.80419922,-97.50313000
36.83471680,-98.57079000
36.86523438,-96.32623000
36.89575195,-93.68935000
36.92626953,-92.83041000
36.95678711,-93.58987000
36.98730469,-93.71970000
37.01782227,-91.66040000
37.04833984,-89.85619000
37.07885742,-90.20067000
37.10937500,-93.53992000
37.13989258,-101.41490000
37.17041016,-104.10460000
37.20092773,-100.81310000
37.23144531,-102.09280000
37.26196289,-97.97601000
37.29248047,-95.31621000
37.32299805,-97.88484000
37.35351563,-102.85690000
37.38403320,-97.99464000
37.41455078,-96.51138000
37.44506836,-97.31140000
37.47558594,-98.09235000
37.50610352,-97.22958000
37.53662109,-94.74628000
37.56713867,-91.96642000
37.59765625,-89.80941000
37.62817383,-88.36295000
37.65869141,-87.64070000
37.68920898,-87.87772000
37.71972656,-89.10954000
37.75024414,-90.81201000
37.78076172,-92.31004000
37.81127930,-93.87664000
37.84179688,-95.56464000
37.87231445,-94.45761000
37.90283203,-90.27341000
37.93334961,-86.67401000
37.96386719,-84.87571000
37.99438477,-85.17243000
38.02490234,-87.45393000
38.05541992,-90.48163000
38.08593750,-91.32277000
38.11645508,-89.26805000
38.14697266,-87.16328000
38.17749023,-86.28461000
38.20800781,-86.47224000
38.23852539,-87.29134000
38.26904297,-88.41938000
38.29956055,-89.74179000
38.33007813,-91.15181000
38.36059570,-93.14546000
38.39111328,-95.60287000
38.42163086,-96.06952000
38.45214844,-96.27616000
38.48266602,-99.24005000
38.51318359,-105.74780000
38.54370117,-100.41930000
38.57421875,-95.06614000
38.60473633,-92.03363000
38.63525391,-90.73811000
38.66577148,-91.10603000
38.69628906,-92.77740000
38.72680664,-94.09038000
38.75732422,-93.70522000
38.78784180,-92.90955000
38.81835938,-92.75153000
38.84887695,-94.10224000
38.87939453,-97.08701000
38.90991211,-96.81184000
38.94042969,-93.68501000
38.97094727,-93.46773000
39.00146484,-99.06925000
39.03198242,-99.49372000
39.06250000,-93.74632000
39.09301758,-94.12113000
39.12353516,-95.72083000
39.15405273,-93.56046000
39.18457031,-92.13536000
39.21508789,-92.34538000
39.24560547,-92.03910000
39.27612305,-89.70879000
39.30664063,-88.22940000
39.33715820,-89.12495000
39.36767578,-92.83907000
39.39819336,-99.87762000
39.42871094,-106.04970000
39.45922852,-105.08770000
39.48974609,-96.44345000
39.52026367,-89.94709000
39.55078125,-87.35324000
39.58129883,-86.04560000
39.61181641,-84.30119000
39.64233398,-82.80780000
39.67285156,-82.75563000
39.70336914,-84.70153000
39.73388672,-88.77280000
39.76440430,-95.31518000
39.79492188,-96.96185000
39.82543945,-93.59377000
39.85595703,-93.40153000
39.88647461,-93.42690000
39.91699219,-90.30107000
39.94750977,-85.24693000
39.97802734,-81.87495000
40.00854492,-81.36359000
40.03906250,-83.98666000
40.06958008,-88.85751000
40.10009766,-89.05087000
40.13061523,-86.85052000
40.16113281,-85.56937000
40.19165039,-85.09010000
40.22216797,-85.61497000
40.25268555,-86.67945000
40.28320313,-84.78642000
40.31372070,-81.36521000
40.34423828,-79.95287000
40.37475586,-81.09937000
40.40527344,-84.81828000
40.43579102,-90.23797000
40.46630859,-92.32339000
40.49682617,-89.03194000
40.52734375,-85.95946000
40.55786133,-85.33386000
40.58837891,-86.84173000
40.61889648,-88.21755000
40.64941406,-86.89411000
40.67993164,-85.29872000
40.71044922,-85.72289000
40.74096680,-88.18974000
40.77148438,-91.54875000
40.80200195,-93.87169000
40.83251953,-94.98008000
40.86303711,-96.76740000
40.89355469,-96.90753000
40.92407227,-93.30777000
40.95458984,-88.68972000
40.98510742,-85.06696000
41.01562500,-83.51961000
41.04614258,-84.42814000
41.07666016,-87.48244000
41.10717773,-91.01192000
41.13769531,-94.19923000
41.16821289,-100.58480000
41.19873047,-106.01660000
41.22924805,-100.36340000
41.25976563,-102.57300000
41.29028320,-94.94800000
41.32080078,-85.34779000
41.35131836,-81.39122000
41.38183594,-81.37262000
41.41235352,-85.27161000
41.44287109,-90.18945000
41.47338867,-85.85430000
41.50390625,-84.04026000
41.53442383,-85.60594000
41.56494141,-90.80077000
41.59545898,-89.64504000
41.62597656,-83.13235000
41.65649414,-79.67901000
41.68701172,-78.87238000
41.71752930,-80.59802000
41.74804688,-84.33021000
41.77856445,-87.75726000
41.80908203,-89.28529000
41.83959961,-91.63739000
41.87011719,-95.85191000
41.90063477,-95.99323000
41.93115234,-91.49032000
41.96166992,-86.55579000
41.99218750,-82.47012000
42.02270508,-80.61871000
42.05322266,-81.66496000
42.08374023,-86.09527000
42.11425781,-97.92369000
42.14477539,-92.11364000
42.17529297,-85.12660000
42.20581055,-82.47591000
42.23632813,-81.92709000
42.26684570,-82.27769000
42.29736328,-82.02856000
42.32788086,-80.59754000
42.35839844,-79.30098000
42.38891602,-79.52028000
42.41943359,-81.88760000
42.44995117,-86.71650000
42.48046875,-91.05109000
42.51098633,-87.71269000
42.54150391,-84.61163000
42.57202148,-84.09094000
42.60253906,-86.13293000
42.63305664,-86.44413000
42.66357422,-82.74352000
42.69409180,-80.25740000
42.72460938,-79.90852000
42.75512695,-81.63680000
42.78564453,-85.19436000
42.81616211,-90.38326000
42.84667969,-91.50209000
42.87719727,-88.50572000
42.90771484,-88.81898000
42.93823242,-91.88051000
42.96875000,-94.98930000
42.99926758,-89.16238000
43.02978516,-85.02715000
43.06030273,-85.02990000
43.09082031,-88.92640000
43.12133789,-97.03278000
43.15185547,-97.94091000
43.18237305,-91.29001000
43.21289063,-87.77411000
43.24340820,-86.56391000
43.27392578,-86.71252000
43.30444336,-86.79001000
43.33496094,-85.81855000
43.36547852,-84.57581000
43.39599609,-84.56871000
43.42651367,-86.41138000
43.45703125,-90.00771000
43.48754883,-97.88116000
43.51806641,-90.35126000
43.54858398,-84.38915000
43.57910156,-82.79156000
43.60961914,-83.10398000
43.64013672,-83.30894000
43.67065430,-83.08892000
43.70117188,-83.35222000
43.73168945,-84.13570000
43.76220703,-85.96115000
43.79272461,-90.82043000
43.82324219,-101.22640000
43.85375977,-92.68544000
43.88427734,-89.12971000
43.91479492,-88.82928000
43.94531250,-90.61649000
43.97583008,-92.37402000
44.00634766,-90.33920000
44.03686523,-87.89791000
44.06738281,-88.09487000
44.09790039,-92.36107000
44.12841797,-110.83020000
44.15893555,-95.14548000
44.18945313,-90.84851000
44.21997070,-90.53210000
44.25048828,-92.70844000
44.28100586,-95.00510000
44.31152344,-93.90243000
44.34204102,-91.24940000
44.37255859,-89.60265000
44.40307617,-90.68999000
44.43359375,-96.05014000
44.46411133,-97.03772000
44.49462891,-92.43035000
44.52514648,-91.28524000
44.55566406,-91.70901000
44.58618164,-92.57025000
44.61669922,-92.72803000
44.64721680,-92.58748000
44.67773438,-92.96616000
44.70825195,-92.01169000
44.73876953,-91.03115000
44.76928711,-91.67245000
44.79980469,-92.90684000
44.83032227,-94.30894000
44.86083984,-92.72980000
44.89135742,-87.36835000
44.92187500,-84.62457000
44.95239258,-85.27984000
44.98291016,-89.51080000
45.01342773,-93.91915000
45.04394531,-90.68637000
45.07446289,-88.76447000
45.10498047,-89.90897000
45.13549805,-95.74238000
45.16601563,-100.13530000
45.19653320,-92.51347000
45.22705078,-90.93232000
45.25756836,-93.23345000
45.28808594,-99.53127000
45.31860352,-106.46120000
45.34912109,-98.62977000
45.37963867,-91.71989000
45.41015625,-90.26581000
45.44067383,-94.35504000
45.47119141,-104.55730000
45.50170898,-94.32022000
45.53222656,-91.26822000
45.56274414,-90.84232000
45.59326172,-93.02522000
45.62377930,-101.31030000
45.65429688,-105.36970000
45.68481445,-100.38120000
45.71533203,-109.56870000
45.74584961,-98.51440000
45.77636719,-93.89442000
45.80688477,-94.82888000
45.83740234,-102.88790000
45.86791992,-99.87598000
45.89843750,-93.09738000
45.92895508,-90.75902000
45.95947266,-89.87550000
45.98999023,-89.12624000
46.02050781,-88.58505000
46.05102539,-89.01257000
46.08154297,-91.08830000
46.11206055,-94.79912000
46.14257813,-98.80873000
46.17309570,-100.56290000
46.20361328,-93.83334000
46.23413086,-89.32451000
46.26464844,-89.36622000
46.29516602,-94.85327000
46.32568359,-104.81410000
46.35620117,-101.44390000
46.38671875,-109.96290000
46.41723633,-101.66170000
46.44775391,-97.52998000
46.47827148,-97.32761000
46.50878906,-99.16223000
46.53930664,-96.57610000
46.56982422,-92.43822000
46.60034180,-91.65019000
46.63085938,-94.40384000
46.66137695,-99.27443000
46.69189453,-98.60658000
46.72241211,-94.62056000
46.75292969,-92.83645000
46.78344727,-94.70383000
46.81396484,-99.19981000
46.84448242,-95.18042000
46.87500000,-91.18290000
46.90551758,-89.55110000
46.93603516,-89.95245000
46.96655273,-92.30649000
46.99707031,-94.98482000
47.02758789,-97.53730000
47.05810547,-97.20889000
47.08862305,-93.27804000
47.11914063,-92.81602000
47.14965820,-95.21156000
47.18017578,-97.84100000
47.21069336,-97.44910000
47.24121094,-94.45271000
47.27172852,-92.81134000
47.30224609,-93.31768000
47.33276367,-94.24574000
47.36328125,-93.32721000
47.39379883,-91.29607000
47.42431641,-90.42671000
47.45483398,-91.26511000
47.48535156,-93.70827000
47.51586914,-101.10860000
47.54638672,-98.84164000
47.57690430,-89.38735000
47.60742188,-86.60631000
47.63793945,-87.26330000
47.66845703,-90.36198000
47.69897461,-93.70345000
47.72949219,-94.11514000
47.76000977,-93.99819000
47.79052734,-97.15282000
47.82104492,-97.57353000
47.85156250,-91.10303000
47.88208008,-87.43202000
47.91259766,-85.72067000
47.94311523,-85.88097000
47.97363281,-88.00641000
48.00415039,-91.29666000
48.03466797,-94.42903000
48.06518555,-96.65677000
48.09570313,-94.15038000
48.12622070,-92.87798000
48.15673828,-95.01973000
48.18725586,-98.11043000
48.21777344,-95.10281000
48.24829102,-91.24098000
48.27880859,-88.79662000
48.30932617,-88.42406000
48.33984375,-90.20249000
48.37036133,-93.30891000
48.40087891,-96.23298000
48.43139648,-99.15183000
48.46191406,-105.09950000
48.49243164,-125.78430000
48.52294922,-113.68330000
48.55346680,-108.53920000
48.58398438,-103.40150000
48.61450195,-101.76940000
48.64501953,-107.78990000
48.67553711,-103.07880000
48.70605469,-97.42747000
48.73657227,-97.13017000
48.76708984,-100.92870000
48.79760742,-111.89680000
48.82812500,-98.67456000
48.85864258,-95.80051000
48.88916016,-97.34589000
48.91967773,-91.35913000
48.95019531,-87.63478000
48.98071289,-88.25850000
49.01123047,-92.95666000
49.04174805,-100.77700000
49.07226563,-102.59320000
49.10278320,-97.33545000
49.13330078,-95.21690000
49.16381836,-97.12235000
49.19433594,-104.15220000
49.22485352,-112.15850000
49.25537109,-98.68619000
49.28588867,-93.09254000
49.31640625,-89.67910000
49.34692383,-88.58205000
49.37744141,-90.47221000
49.40795898,-95.89791000
49.43847656,-100.77300000
49.46899414,-99.53305000
49.49951172,-96.18486000
49.53002930,-92.37099000
49.56054688,-89.22751000
49.59106445,-87.13557000
49.62158203,-87.44539000
49.65209961,-92.76382000
49.68261719,-104.56300000
49.71313477,-92.13713000
49.74365234,-91.99113000
49.77416992,-95.77895000
49.80468750,-98.51936000
49.83520508,-96.54186000
49.86572266,-94.26322000
49.89624023,-92.14744000
49.92675781,-88.49744000
49.95727539,-86.31238000
49.98779297,-87.23148000
50.01831055,-90.74731000
