Frequency,Channel A
(MHz),(dBu)

0.00000000,-41.73769000
0.03051758,-42.36301000
0.06103516,-48.72705000
0.09155273,-65.30560000
0.12207031,-64.29376000
0.15258789,-63.72884000
0.18310547,-63.32458000
0.21362305,-63.18352000
0.24414063,-66.12695000
0.27465820,-74.57364000
0.30517578,-76.07160000
0.33569336,-71.28336000
0.36621094,-71.54575000
0.39672852,-67.53986000
0.42724609,-66.74583000
0.45776367,-69.67448000
0.48828125,-67.57622000
0.51879883,-63.50460000
0.54931641,-64.30182000
0.57983398,-71.23434000
0.61035156,-87.45306000
0.64086914,-72.40827000
0.67138672,-68.64967000
0.70190430,-68.82288000
0.73242188,-69.45867000
0.76293945,-71.20904000
0.79345703,-70.18150000
0.82397461,-69.06651000
0.85449219,-81.60229000
0.88500977,-68.99819000
0.91552734,-64.82397000
0.94604492,-64.85206000
0.97656250,-64.32198000
1.00708008,-63.92348000
1.03759766,-64.84309000
1.06811523,-68.25082000
1.09863281,-79.59512000
1.12915039,-77.41080000
1.15966797,-75.28754000
1.19018555,-81.86258000
1.22070313,-77.84891000
1.25122070,-72.06715000
1.28173828,-71.59267000
1.31225586,-75.70632000
1.34277344,-79.21574000
1.37329102,-75.80362000
1.40380859,-76.51677000
1.43432617,-83.78389000
1.46484375,-91.71894000
1.49536133,-84.87711000
1.52587891,-74.74624000
1.55639648,-71.04243000
1.58691406,-70.51566000
1.61743164,-71.85062000
1.64794922,-71.35153000
1.67846680,-69.77054000
1.70898438,-71.65643000
1.73950195,-74.93282000
1.77001953,-73.79163000
1.80053711,-72.98692000
1.83105469,-71.21693000
1.86157227,-69.17846000
1.89208984,-69.22353000
1.92260742,-73.79939000
1.95312500,-83.30711000
1.98364258,-73.23800000
2.01416016,-72.74998000
2.04467773,-78.77835000
2.07519531,-91.85863000
2.10571289,-86.70220000
2.13623047,-84.88525000
2.16674805,-77.20595000
2.19726563,-75.36684000
2.22778320,-79.35308000
2.25830078,-80.47593000
2.28881836,-75.42751000
2.31933594,-76.37801000
2.34985352,-80.12463000
2.38037109,-79.75890000
2.41088867,-84.07500000
2.44140625,-88.25874000
2.47192383,-81.28468000
2.50244141,-77.03037000
2.53295898,-76.44666000
2.56347656,-81.33971000
2.59399414,-88.31851000
2.62451172,-78.55368000
2.65502930,-72.81669000
2.68554688,-69.54872000
2.71606445,-69.36574000
2.74658203,-73.13483000
2.77709961,-75.91682000
2.80761719,-74.37657000
2.83813477,-75.22383000
2.86865234,-75.53415000
2.89916992,-79.07720000
2.92968750,-91.77856000
2.96020508,-78.10091000
2.99072266,-78.42858000
3.02124023,-80.13299000
3.05175781,-76.15765000
3.08227539,-77.28802000
3.11279297,-80.32899000
3.14331055,-77.73004000
3.17382813,-74.86053000
3.20434570,-73.10941000
3.23486328,-74.67444000
3.26538086,-78.81757000
3.29589844,-75.74370000
3.32641602,-75.43004000
3.35693359,-85.18482000
3.38745117,-78.48550000
3.41796875,-73.60532000
3.44848633,-75.14104000
3.47900391,-78.28059000
3.50952148,-77.32368000
3.54003906,-78.63481000
3.57055664,-77.09303000
3.60107422,-73.49976000
3.63159180,-70.74191000
3.66210938,-69.99765000
3.69262695,-72.60864000
3.72314453,-77.79250000
3.75366211,-84.29585000
3.78417969,-84.37080000
3.81469727,-75.61674000
3.84521484,-76.41238000
3.87573242,-76.81710000
3.90625000,-71.63200000
3.93676758,-71.42706000
3.96728516,-77.84860000
3.99780273,-80.57298000
4.02832031,-74.07449000
4.05883789,-75.75826000
4.08935547,-85.48352000
4.11987305,-88.62988000
4.15039063,-86.05576000
4.18090820,-87.71884000
4.21142578,-80.96187000
4.24194336,-76.50510000
4.27246094,-75.32520000
4.30297852,-75.45035000
4.33349609,-77.66446000
4.36401367,-84.93653000
4.39453125,-82.58136000
4.42504883,-79.17895000
4.45556641,-81.04804000
4.48608398,-93.23029000
4.51660156,-79.79475000
4.54711914,-75.81258000
4.57763672,-76.98567000
4.60815430,-78.92715000
4.63867188,-81.19827000
4.66918945,-82.11435000
4.69970703,-78.95744000
4.73022461,-76.07446000
4.76074219,-74.40829000
4.79125977,-75.46126000
4.82177734,-77.65135000
4.85229492,-77.03754000
4.88281250,-76.58063000
4.91333008,-77.74637000
4.94384766,-77.24374000
4.97436523,-77.78261000
5.00488281,-79.67416000
5.03540039,-74.91866000
5.06591797,-72.31908000
5.09643555,-72.74462000
5.12695313,-75.32632000
5.15747070,-79.33910000
5.18798828,-82.80885000
5.21850586,-83.17512000
5.24902344,-80.49925000
5.27954102,-76.92138000
5.31005859,-74.21306000
5.34057617,-72.95513000
5.37109375,-73.16174000
5.40161133,-73.79714000
5.43212891,-73.51525000
5.46264648,-73.99757000
5.49316406,-76.98172000
5.52368164,-81.46964000
5.55419922,-84.57111000
5.58471680,-84.43282000
5.61523438,-78.87258000
5.64575195,-74.48026000
5.67626953,-73.00296000
5.70678711,-72.74417000
5.73730469,-71.57323000
5.76782227,-71.57192000
5.79833984,-74.99358000
5.82885742,-84.22884000
5.85937500,-90.86543000
5.88989258,-78.34035000
5.92041016,-72.20023000
5.95092773,-70.86388000
5.98144531,-71.92265000
6.01196289,-72.49078000
6.04248047,-72.15373000
6.07299805,-72.33511000
6.10351563,-74.06957000
6.13403320,-78.44662000
6.16455078,-82.96814000
6.19506836,-81.06525000
6.22558594,-76.65913000
6.25610352,-73.41588000
6.28662109,-72.24188000
6.31713867,-72.45589000
6.34765625,-74.06137000
6.37817383,-77.12565000
6.40869141,-78.58503000
6.43920898,-77.46911000
6.46972656,-76.20492000
6.50024414,-76.27745000
6.53076172,-77.96437000
6.56127930,-79.57721000
6.59179688,-77.46564000
6.62231445,-76.45692000
6.65283203,-77.95403000
6.68334961,-80.36801000
6.71386719,-82.45103000
6.74438477,-83.25539000
6.77490234,-81.31390000
6.80541992,-81.22656000
6.83593750,-84.50135000
6.86645508,-84.41510000
6.89697266,-82.88192000
6.92749023,-84.45008000
6.95800781,-88.19968000
6.98852539,-90.89355000
7.01904297,-86.02734000
7.04956055,-81.33736000
7.08007813,-78.85501000
7.11059570,-78.07916000
7.14111328,-79.63361000
7.17163086,-83.89190000
7.20214844,-89.15338000
7.23266602,-91.70539000
7.26318359,-92.21266000
7.29370117,-94.11235000
7.32421875,-93.48604000
7.35473633,-87.30473000
7.38525391,-82.47932000
7.41577148,-81.57932000
7.44628906,-85.47879000
7.47680664,-91.14110000
7.50732422,-87.96002000
7.53784180,-90.13394000
7.56835938,-92.66405000
7.59887695,-95.38155000
7.62939453,-97.06990000
7.65991211,-86.32025000
7.69042969,-83.09544000
7.72094727,-81.90233000
7.75146484,-81.74926000
7.78198242,-84.18645000
7.81250000,-91.48273000
7.84301758,-110.20330000
7.87353516,-94.84825000
7.90405273,-87.40031000
7.93457031,-83.14317000
7.96508789,-82.38380000
7.99560547,-85.39613000
8.02612305,-95.14063000
8.05664063,-87.24618000
8.08715820,-82.66656000
8.11767578,-82.47775000
8.14819336,-85.22285000
8.17871094,-88.30772000
8.20922852,-86.41466000
8.23974609,-85.30846000
8.27026367,-86.50768000
8.30078125,-86.89674000
8.33129883,-85.75223000
8.36181641,-84.60440000
8.39233398,-83.93241000
8.42285156,-84.99091000
8.45336914,-85.74150000
8.48388672,-83.56279000
8.51440430,-82.97874000
8.54492188,-84.57375000
8.57543945,-87.04589000
8.60595703,-89.61059000
8.63647461,-91.23569000
8.66699219,-89.83369000
8.69750977,-90.03065000
8.72802734,-99.31545000
8.75854492,-90.21394000
8.78906250,-84.75844000
8.81958008,-84.17469000
8.85009766,-86.64595000
8.88061523,-87.68446000
8.91113281,-83.95613000
8.94165039,-81.01426000
8.97216797,-79.28645000
9.00268555,-78.85106000
9.03320313,-80.56178000
9.06372070,-85.98403000
9.09423828,-90.78642000
9.12475586,-88.22952000
9.15527344,-88.79490000
9.18579102,-85.01125000
9.21630859,-82.35230000
9.24682617,-82.49027000
9.27734375,-84.37278000
9.30786133,-86.03280000
9.33837891,-85.99176000
9.36889648,-86.92468000
9.39941406,-91.12568000
9.42993164,-88.09697000
9.46044922,-84.32216000
9.49096680,-85.44774000
9.52148438,-92.47013000
9.55200195,-97.16853000
9.58251953,-93.03725000
9.61303711,-92.81805000
9.64355469,-88.48181000
9.67407227,-84.11772000
9.70458984,-82.87186000
9.73510742,-85.07759000
9.76562500,-90.91939000
9.79614258,-89.91925000
9.82666016,-86.23354000
9.85717773,-85.15906000
9.88769531,-85.23546000
9.91821289,-84.44038000
9.94873047,-82.22823000
9.97924805,-81.03031000
10.00976563,-82.46539000
10.04028320,-86.68587000
10.07080078,-84.54572000
10.10131836,-81.36898000
10.13183594,-81.60556000
10.16235352,-83.98331000
10.19287109,-85.62712000
10.22338867,-86.44888000
10.25390625,-88.95134000
10.28442383,-86.28326000
10.31494141,-81.99291000
10.34545898,-80.14426000
10.37597656,-80.09491000
10.40649414,-81.40160000
10.43701172,-82.13711000
10.46752930,-81.27179000
10.49804688,-82.27962000
10.52856445,-85.25578000
10.55908203,-80.94409000
10.58959961,-78.04821000
10.62011719,-79.01824000
10.65063477,-84.40612000
10.68115234,-93.68520000
10.71166992,-88.45253000
10.74218750,-85.78658000
10.77270508,-81.57481000
10.80322266,-77.87615000
10.83374023,-76.16689000
10.86425781,-76.17400000
10.89477539,-77.38218000
10.92529297,-79.83339000
10.95581055,-84.60968000
10.98632813,-90.79338000
11.01684570,-84.00589000
11.04736328,-80.58791000
11.07788086,-80.61353000
11.10839844,-83.87248000
11.13891602,-95.06840000
11.16943359,-90.75946000
11.19995117,-85.24949000
11.23046875,-83.99510000
11.26098633,-82.26566000
11.29150391,-80.32964000
11.32202148,-80.22089000
11.35253906,-83.25179000
11.38305664,-89.81293000
11.41357422,-95.77763000
11.44409180,-90.08824000
11.47460938,-85.27813000
11.50512695,-82.59639000
11.53564453,-81.66676000
11.56616211,-80.81528000
11.59667969,-78.40858000
11.62719727,-77.43031000
11.65771484,-79.01984000
11.68823242,-80.58163000
11.71875000,-79.40605000
11.74926758,-79.01416000
11.77978516,-79.62738000
11.81030273,-80.44331000
11.84082031,-80.85472000
11.87133789,-78.99803000
11.90185547,-75.94318000
11.93237305,-74.43559000
11.96289063,-75.74985000
11.99340820,-80.98705000
12.02392578,-95.16936000
12.05444336,-93.95972000
12.08496094,-93.85324000
12.11547852,-103.34910000
12.14599609,-94.33453000
12.17651367,-90.86102000
12.20703125,-92.51505000
12.23754883,-111.57700000
12.26806641,-88.04130000
12.29858398,-83.10802000
12.32910156,-83.12794000
12.35961914,-86.21880000
12.39013672,-88.10112000
12.42065430,-87.75260000
12.45117188,-83.57887000
12.48168945,-81.61201000
12.51220703,-83.08971000
12.54272461,-83.11600000
12.57324219,-81.25214000
12.60375977,-80.30518000
12.63427734,-79.95853000
12.66479492,-80.92482000
12.69531250,-82.83165000
12.72583008,-82.92039000
12.75634766,-82.22649000
12.78686523,-82.67680000
12.81738281,-84.26472000
12.84790039,-84.88905000
12.87841797,-82.35605000
12.90893555,-78.89123000
12.93945313,-76.37149000
12.96997070,-75.94353000
13.00048828,-77.38345000
13.03100586,-79.98481000
13.06152344,-83.42966000
13.09204102,-85.06813000
13.12255859,-83.53464000
13.15307617,-81.84766000
13.18359375,-80.75500000
13.21411133,-81.79233000
13.24462891,-87.52356000
13.27514648,-84.15425000
13.30566406,-79.57240000
13.33618164,-80.95498000
13.36669922,-91.50502000
13.39721680,-81.70646000
13.42773438,-77.78220000
13.45825195,-77.88017000
13.48876953,-73.21181000
13.51928711,-67.02425000
13.54980469,-64.39761000
13.58032227,-65.77879000
13.61083984,-73.45624000
13.64135742,-80.05100000
13.67187500,-73.77213000
13.70239258,-76.40672000
13.73291016,-81.52144000
13.76342773,-81.87457000
13.79394531,-80.91310000
13.82446289,-79.44951000
13.85498047,-79.03452000
13.88549805,-81.26373000
13.91601563,-83.92554000
13.94653320,-81.34014000
13.97705078,-80.29698000
14.00756836,-83.44550000
14.03808594,-94.03769000
14.06860352,-84.78227000
14.09912109,-81.15050000
14.12963867,-80.56462000
14.16015625,-80.28027000
14.19067383,-79.34315000
14.22119141,-78.63522000
14.25170898,-79.31918000
14.28222656,-80.91521000
14.31274414,-82.02231000
14.34326172,-84.99168000
14.37377930,-95.58058000
14.40429688,-95.60467000
14.43481445,-92.66791000
14.46533203,-87.25320000
14.49584961,-81.70441000
14.52636719,-79.30506000
14.55688477,-78.74509000
14.58740234,-79.72690000
14.61791992,-83.08487000
14.64843750,-90.88944000
14.67895508,-102.11440000
14.70947266,-93.45999000
14.73999023,-96.80385000
14.77050781,-90.55450000
14.80102539,-86.02602000
14.83154297,-83.75658000
14.86206055,-81.84739000
14.89257813,-81.71173000
14.92309570,-85.95345000
14.95361328,-92.73121000
14.98413086,-80.83843000
15.01464844,-77.72710000
15.04516602,-78.07021000
15.07568359,-80.99413000
15.10620117,-87.35217000
15.13671875,-100.97180000
15.16723633,-87.51204000
15.19775391,-81.91336000
15.22827148,-79.47429000
15.25878906,-79.46837000
15.28930664,-80.81271000
15.31982422,-80.16722000
15.35034180,-78.25981000
15.38085938,-77.96608000
15.41137695,-79.55701000
15.44189453,-82.50914000
15.47241211,-86.39130000
15.50292969,-88.95079000
15.53344727,-86.05759000
15.56396484,-85.23988000
15.59448242,-89.39915000
15.62500000,-91.87431000
15.65551758,-88.40260000
15.68603516,-88.80332000
15.71655273,-91.23742000
15.74707031,-94.01611000
15.77758789,-91.17959000
15.80810547,-89.09676000
15.83862305,-88.71596000
15.86914063,-89.49258000
15.89965820,-92.77940000
15.93017578,-92.76146000
15.96069336,-88.61642000
15.99121094,-87.87197000
16.02172852,-88.96389000
16.05224609,-90.53743000
16.08276367,-92.18970000
16.11328125,-91.64528000
16.14379883,-91.09413000
16.17431641,-92.32813000
16.20483398,-90.38136000
16.23535156,-88.13038000
16.26586914,-87.71091000
16.29638672,-88.97972000
16.32690430,-92.66629000
16.35742188,-94.31346000
16.38793945,-91.46082000
16.41845703,-92.10143000
16.44897461,-94.00695000
16.47949219,-94.80450000
16.51000977,-93.50501000
16.54052734,-91.85754000
16.57104492,-89.77283000
16.60156250,-87.11530000
16.63208008,-85.56476000
16.66259766,-83.96133000
16.69311523,-83.66719000
16.72363281,-85.75268000
16.75415039,-90.23678000
16.78466797,-100.11380000
16.81518555,-97.28199000
16.84570313,-89.01917000
16.87622070,-86.92689000
16.90673828,-89.27445000
16.93725586,-101.97820000
16.96777344,-91.34258000
16.99829102,-86.56281000
17.02880859,-85.62194000
17.05932617,-86.44171000
17.08984375,-89.81714000
17.12036133,-97.14230000
17.15087891,-108.85640000
17.18139648,-94.96194000
17.21191406,-89.72573000
17.24243164,-90.52022000
17.27294922,-99.85558000
17.30346680,-97.16176000
17.33398438,-92.05165000
17.36450195,-92.15903000
17.39501953,-93.11174000
17.42553711,-94.39828000
17.45605469,-93.97470000
17.48657227,-90.61589000
17.51708984,-90.53146000
17.54760742,-96.36076000
17.57812500,-95.77331000
17.60864258,-92.80036000
17.63916016,-97.66628000
17.66967773,-89.39366000
17.70019531,-83.95969000
17.73071289,-87.56351000
17.76123047,-85.39781000
17.79174805,-75.73512000
17.82226563,-73.42845000
17.85278320,-74.95139000
17.88330078,-79.38778000
17.91381836,-86.24229000
17.94433594,-98.48120000
17.97485352,-98.60529000
18.00537109,-95.99506000
18.03588867,-102.09680000
18.06640625,-97.53375000
18.09692383,-95.01884000
18.12744141,-97.23895000
18.15795898,-102.49800000
18.18847656,-96.23744000
18.21899414,-93.40106000
18.24951172,-96.24121000
18.28002930,-94.61738000
18.31054688,-91.22687000
18.34106445,-94.17194000
18.37158203,-94.90914000
18.40209961,-89.38156000
18.43261719,-87.82314000
18.46313477,-87.78386000
18.49365234,-87.90119000
18.52416992,-89.58681000
18.55468750,-95.70866000
18.58520508,-100.59330000
18.61572266,-95.68168000
18.64624023,-97.00369000
18.67675781,-105.29240000
18.70727539,-101.58760000
18.73779297,-96.10169000
18.76831055,-97.04017000
18.79882813,-101.90010000
18.82934570,-104.13580000
18.85986328,-99.37927000
18.89038086,-95.00777000
18.92089844,-94.86305000
18.95141602,-95.04245000
18.98193359,-94.28722000
19.01245117,-97.68748000
19.04296875,-104.66640000
19.07348633,-96.60194000
19.10400391,-95.01598000
19.13452148,-99.56605000
19.16503906,-120.44590000
19.19555664,-99.87042000
19.22607422,-95.12658000
19.25659180,-94.09702000
19.28710938,-95.96178000
19.31762695,-97.65670000
19.34814453,-97.12508000
19.37866211,-95.14621000
19.40917969,-93.46104000
19.43969727,-93.27200000
19.47021484,-93.57856000
19.50073242,-93.38341000
19.53125000,-93.29948000
19.56176758,-92.63826000
19.59228516,-90.48244000
19.62280273,-89.31541000
19.65332031,-91.14772000
19.68383789,-97.70554000
19.71435547,-111.39730000
19.74487305,-110.76560000
19.77539063,-111.62960000
19.80590820,-100.65500000
19.83642578,-92.41757000
19.86694336,-88.64521000
19.89746094,-86.77964000
19.92797852,-85.79051000
19.95849609,-86.16472000
19.98901367,-87.39181000
20.01953125,-89.47677000
20.05004883,-93.25477000
20.08056641,-91.56427000
20.11108398,-90.83307000
20.14160156,-93.89221000
20.17211914,-96.20607000
20.20263672,-94.23486000
20.23315430,-91.14434000
20.26367188,-89.01546000
20.29418945,-89.41235000
20.32470703,-91.55580000
20.35522461,-91.16522000
20.38574219,-91.91257000
20.41625977,-93.54569000
20.44677734,-92.78869000
20.47729492,-97.06575000
20.50781250,-105.26430000
20.53833008,-95.70619000
20.56884766,-96.64391000
20.59936523,-99.90823000
20.62988281,-96.33246000
20.66040039,-94.94175000
20.69091797,-95.94311000
20.72143555,-98.13452000
20.75195313,-100.33160000
20.78247070,-101.99230000
20.81298828,-102.01270000
20.84350586,-97.99562000
20.87402344,-94.06083000
20.90454102,-91.38602000
20.93505859,-90.53934000
20.96557617,-93.18534000
20.99609375,-106.89910000
21.02661133,-97.26271000
21.05712891,-94.20213000
21.08764648,-95.80316000
21.11816406,-96.02944000
21.14868164,-96.57540000
21.17919922,-94.99471000
21.20971680,-93.82515000
21.24023438,-99.64032000
21.27075195,-103.49540000
21.30126953,-96.26990000
21.33178711,-97.45454000
21.36230469,-94.62636000
21.39282227,-93.28062000
21.42333984,-92.96516000
21.45385742,-90.59357000
21.48437500,-92.14794000
21.51489258,-97.10693000
21.54541016,-90.49068000
21.57592773,-88.42576000
21.60644531,-91.98212000
21.63696289,-108.05150000
21.66748047,-97.66512000
21.69799805,-96.04237000
21.72851563,-96.09992000
21.75903320,-94.28543000
21.78955078,-92.29350000
21.82006836,-91.17148000
21.85058594,-90.97495000
21.88110352,-94.78161000
21.91162109,-106.60400000
21.94213867,-92.41673000
21.97265625,-89.79497000
22.00317383,-90.82924000
22.03369141,-92.99559000
22.06420898,-95.74971000
22.09472656,-100.64630000
22.12524414,-104.21670000
22.15576172,-107.78270000
22.18627930,-97.91542000
22.21679688,-94.08757000
22.24731445,-93.69640000
22.27783203,-98.33736000
22.30834961,-104.60740000
22.33886719,-98.05495000
22.36938477,-99.21902000
22.39990234,-106.68300000
22.43041992,-99.50362000
22.46093750,-95.01306000
22.49145508,-100.01410000
22.52197266,-98.05911000
22.55249023,-91.98520000
22.58300781,-93.34950000
22.61352539,-103.70050000
22.64404297,-102.87340000
22.67456055,-103.37300000
22.70507813,-102.12360000
22.73559570,-92.30833000
22.76611328,-89.31969000
22.79663086,-88.45184000
22.82714844,-88.33586000
22.85766602,-89.19470000
22.88818359,-91.76196000
22.91870117,-97.69477000
22.94921875,-102.38900000
22.97973633,-96.07624000
23.01025391,-93.56680000
23.04077148,-95.21488000
23.07128906,-102.02100000
23.10180664,-112.74870000
23.13232422,-108.38180000
23.16284180,-106.20560000
23.19335938,-121.30230000
23.22387695,-101.12210000
23.25439453,-96.88577000
23.28491211,-96.38969000
23.31542969,-95.83221000
23.34594727,-97.30559000
23.37646484,-105.74690000
23.40698242,-101.43490000
23.43750000,-100.83350000
23.46801758,-103.97080000
23.49853516,-100.39400000
23.52905273,-101.84630000
23.55957031,-107.36700000
23.59008789,-108.53020000
23.62060547,-98.78137000
23.65112305,-95.91574000
23.68164063,-102.12360000
23.71215820,-98.19620000
23.74267578,-89.76600000
23.77319336,-87.17485000
23.80371094,-86.68559000
23.83422852,-87.12627000
23.86474609,-88.33485000
23.89526367,-90.18238000
23.92578125,-93.19493000
23.95629883,-98.70232000
23.98681641,-101.05040000
24.01733398,-101.51380000
24.04785156,-95.69806000
24.07836914,-91.09897000
24.10888672,-91.29732000
24.13940430,-95.31944000
24.16992188,-96.31718000
24.20043945,-96.07545000
24.23095703,-99.69680000
24.26147461,-109.32100000
24.29199219,-99.31229000
24.32250977,-95.77968000
24.35302734,-95.33932000
24.38354492,-95.06204000
24.41406250,-96.78242000
24.44458008,-113.12390000
24.47509766,-96.61877000
24.50561523,-92.39583000
24.53613281,-94.10496000
24.56665039,-100.11870000
24.59716797,-104.19460000
24.62768555,-104.18690000
24.65820313,-106.65640000
24.68872070,-120.67680000
24.71923828,-104.20430000
24.74975586,-98.04103000
24.78027344,-97.49188000
24.81079102,-99.73846000
24.84130859,-102.03930000
24.87182617,-117.64430000
24.90234375,-102.71580000
24.93286133,-102.39880000
24.96337891,-99.03123000
24.99389648,-95.95554000
25.02441406,-97.18431000
25.05493164,-95.71312000
25.08544922,-94.23393000
25.11596680,-96.09898000
25.14648438,-100.95070000
25.17700195,-99.91995000
25.20751953,-96.63853000
25.23803711,-96.67451000
25.26855469,-98.58691000
25.29907227,-99.04426000
25.32958984,-94.18089000
25.36010742,-90.77285000
25.39062500,-90.52397000
25.42114258,-93.67561000
25.45166016,-100.38060000
25.48217773,-107.67490000
25.51269531,-105.77220000
25.54321289,-95.65578000
25.57373047,-92.07552000
25.60424805,-92.16267000
25.63476563,-95.95808000
25.66528320,-103.27400000
25.69580078,-104.91270000
25.72631836,-98.73870000
25.75683594,-94.67128000
25.78735352,-94.22921000
25.81787109,-98.49926000
25.84838867,-109.57580000
25.87890625,-104.15780000
25.90942383,-97.46751000
25.93994141,-97.05619000
25.97045898,-99.25209000
26.00097656,-98.76065000
26.03149414,-105.16040000
26.06201172,-94.87305000
26.09252930,-90.63717000
26.12304688,-91.61386000
26.15356445,-97.63986000
26.18408203,-110.32040000
26.21459961,-109.11610000
26.24511719,-97.79443000
26.27563477,-94.59361000
26.30615234,-93.59000000
26.33666992,-93.41361000
26.36718750,-96.31774000
26.39770508,-109.07990000
26.42822266,-101.98290000
26.45874023,-97.25594000
26.48925781,-95.88605000
26.51977539,-95.45166000
26.55029297,-97.33944000
26.58081055,-98.40836000
26.61132813,-93.76971000
26.64184570,-90.37132000
26.67236328,-89.33755000
26.70288086,-90.84679000
26.73339844,-94.49654000
26.76391602,-96.28296000
26.79443359,-96.95978000
26.82495117,-101.17070000
26.85546875,-103.98660000
26.88598633,-97.06376000
26.91650391,-91.99883000
26.94702148,-88.47707000
26.97753906,-86.55831000
27.00805664,-86.54784000
27.03857422,-88.97750000
27.06909180,-95.60339000
27.09960938,-111.13060000
27.13012695,-100.78470000
27.16064453,-102.33550000
27.19116211,-101.69010000
27.22167969,-100.47880000
27.25219727,-99.75228000
27.28271484,-95.62165000
27.31323242,-92.54166000
27.34375000,-93.34296000
27.37426758,-99.45503000
27.40478516,-99.31930000
27.43530273,-95.74367000
27.46582031,-95.14102000
27.49633789,-93.13943000
27.52685547,-90.39011000
27.55737305,-90.28502000
27.58789063,-94.17771000
27.61840820,-99.21855000
27.64892578,-93.96995000
27.67944336,-91.96761000
27.70996094,-92.65125000
27.74047852,-95.20065000
27.77099609,-98.77850000
27.80151367,-99.80016000
27.83203125,-99.96983000
27.86254883,-97.37010000
27.89306641,-95.98386000
27.92358398,-97.94684000
27.95410156,-100.75680000
27.98461914,-98.85197000
28.01513672,-94.71829000
28.04565430,-94.33972000
28.07617188,-99.14407000
28.10668945,-106.90530000
28.13720703,-97.22954000
28.16772461,-95.87486000
28.19824219,-98.44726000
28.22875977,-99.85582000
28.25927734,-96.63810000
28.28979492,-93.95168000
28.32031250,-91.90170000
28.35083008,-90.22119000
28.38134766,-90.41146000
28.41186523,-93.65841000
28.44238281,-101.51090000
28.47290039,-99.91055000
28.50341797,-95.94978000
28.53393555,-95.63194000
28.56445313,-99.35104000
28.59497070,-114.77200000
28.62548828,-97.52613000
28.65600586,-94.85239000
28.68652344,-94.60069000
28.71704102,-95.68284000
28.74755859,-103.45870000
28.77807617,-101.12880000
28.80859375,-94.15467000
28.83911133,-92.88467000
28.86962891,-94.46682000
28.90014648,-97.56479000
28.93066406,-98.56063000
28.96118164,-98.88061000
28.99169922,-96.17858000
29.02221680,-91.61703000
29.05273438,-89.69298000
29.08325195,-90.76011000
29.11376953,-95.20051000
29.14428711,-101.96460000
29.17480469,-100.36390000
29.20532227,-98.66700000
29.23583984,-97.52728000
29.26635742,-96.19527000
29.29687500,-95.24094000
29.32739258,-93.69485000
29.35791016,-91.59828000
29.38842773,-90.32999000
29.41894531,-91.39177000
29.44946289,-94.73241000
29.47998047,-92.71522000
29.51049805,-90.29159000
29.54101563,-91.52352000
29.57153320,-96.67953000
29.60205078,-104.46540000
29.63256836,-102.15290000
29.66308594,-93.66144000
29.69360352,-88.88086000
29.72412109,-87.55878000
29.75463867,-89.21329000
29.78515625,-93.89565000
29.81567383,-102.03080000
29.84619141,-108.00420000
29.87670898,-102.09550000
29.90722656,-96.36428000
29.93774414,-91.98337000
29.96826172,-88.57011000
29.99877930,-86.47574000
30.02929688,-86.10821000
30.05981445,-87.43542000
30.09033203,-89.62720000
30.12084961,-91.31337000
30.15136719,-92.57079000
30.18188477,-93.62050000
30.21240234,-93.15415000
30.24291992,-92.30161000
30.27343750,-91.59895000
30.30395508,-89.77911000
30.33447266,-87.56683000
30.36499023,-86.78917000
30.39550781,-88.57643000
30.42602539,-93.73269000
30.45654297,-102.66210000
30.48706055,-98.00175000
30.51757813,-92.67860000
30.54809570,-92.31731000
30.57861328,-97.54147000
30.60913086,-122.94070000
30.63964844,-103.55280000
30.67016602,-93.51563000
30.70068359,-87.74743000
30.73120117,-85.98721000
30.76171875,-87.12475000
30.79223633,-89.78186000
30.82275391,-92.14080000
30.85327148,-94.19369000
30.88378906,-95.05103000
30.91430664,-94.78636000
30.94482422,-95.29915000
30.97534180,-95.36324000
31.00585938,-91.50452000
31.03637695,-87.58276000
31.06689453,-86.34787000
31.09741211,-87.89915000
31.12792969,-91.95183000
31.15844727,-97.63754000
31.18896484,-103.01370000
31.21948242,-104.00480000
31.25000000,-100.59140000
31.28051758,-96.03374000
31.31103516,-92.36311000
31.34155273,-90.06073000
31.37207031,-89.34422000
31.40258789,-90.82168000
31.43310547,-94.44348000
31.46362305,-97.45591000
31.49414063,-101.60690000
31.52465820,-116.73550000
31.55517578,-107.50960000
31.58569336,-101.22850000
31.61621094,-94.97682000
31.64672852,-92.60123000
31.67724609,-92.78248000
31.70776367,-93.99077000
31.73828125,-94.69118000
31.76879883,-95.93761000
31.79931641,-98.54282000
31.82983398,-99.63763000
31.86035156,-96.69632000
31.89086914,-93.65831000
31.92138672,-92.26283000
31.95190430,-93.41240000
31.98242188,-100.71720000
32.01293945,-105.47800000
32.04345703,-99.79491000
32.07397461,-101.50440000
32.10449219,-100.42270000
32.13500977,-106.59580000
32.16552734,-103.04670000
32.19604492,-94.63014000
32.22656250,-92.10290000
32.25708008,-93.07516000
32.28759766,-95.75379000
32.31811523,-98.26045000
32.34863281,-108.03290000
32.37915039,-102.25620000
32.40966797,-96.14312000
32.44018555,-94.75539000
32.47070313,-96.07825000
32.50122070,-101.50950000
32.53173828,-103.77060000
32.56225586,-96.23969000
32.59277344,-94.56847000
32.62329102,-96.02632000
32.65380859,-94.84376000
32.68432617,-90.63277000
32.71484375,-88.07881000
32.74536133,-87.42212000
32.77587891,-88.20543000
32.80639648,-89.60926000
32.83691406,-90.78820000
32.86743164,-91.85485000
32.89794922,-94.07307000
32.92846680,-99.33752000
32.95898438,-98.73770000
32.98950195,-93.34305000
33.02001953,-91.96259000
33.05053711,-93.95264000
33.08105469,-95.60872000
33.11157227,-93.07144000
33.14208984,-93.30113000
33.17260742,-98.36530000
33.20312500,-107.57900000
33.23364258,-103.38260000
33.26416016,-104.35280000
33.29467773,-99.37535000
33.32519531,-97.28795000
33.35571289,-102.13400000
33.38623047,-107.74320000
33.41674805,-96.21795000
33.44726563,-92.89792000
33.47778320,-92.36312000
33.50830078,-94.03627000
33.53881836,-97.56980000
33.56933594,-101.38090000
33.59985352,-105.44470000
33.63037109,-114.16150000
33.66088867,-99.29117000
33.69140625,-92.10412000
33.72192383,-88.06007000
33.75244141,-86.35640000
33.78295898,-86.89120000
33.81347656,-89.65255000
33.84399414,-94.25495000
33.87451172,-98.66537000
33.90502930,-100.17680000
33.93554688,-102.34330000
33.96606445,-109.80110000
33.99658203,-101.51880000
34.02709961,-95.20354000
34.05761719,-91.32359000
34.08813477,-89.67777000
34.11865234,-90.87607000
34.14916992,-95.91876000
34.17968750,-104.93410000
34.21020508,-104.61000000
34.24072266,-100.34890000
34.27124023,-95.38402000
34.30175781,-93.99864000
34.33227539,-95.34702000
34.36279297,-97.49169000
34.39331055,-98.27798000
34.42382813,-99.17975000
34.45434570,-103.03760000
34.48486328,-103.85870000
34.51538086,-99.82712000
34.54589844,-97.80446000
34.57641602,-96.30235000
34.60693359,-96.11220000
34.63745117,-97.79665000
34.66796875,-100.59720000
34.69848633,-99.74082000
34.72900391,-96.56666000
34.75952148,-94.26659000
34.79003906,-93.41468000
34.82055664,-93.24208000
34.85107422,-92.97301000
34.88159180,-92.52074000
34.91210938,-92.21262000
34.94262695,-92.88583000
34.97314453,-95.47784000
35.00366211,-100.73370000
35.03417969,-102.72920000
35.06469727,-99.44065000
35.09521484,-96.36970000
35.12573242,-97.34634000
35.15625000,-108.12290000
35.18676758,-103.05560000
35.21728516,-98.99773000
35.24780273,-98.56178000
35.27832031,-99.64403000
35.30883789,-100.72780000
35.33935547,-96.37073000
35.36987305,-93.34117000
35.40039063,-92.12028000
35.43090820,-91.83121000
35.46142578,-92.38193000
35.49194336,-94.24331000
35.52246094,-98.03389000
35.55297852,-103.50370000
35.58349609,-103.62270000
35.61401367,-98.54245000
35.64453125,-93.52766000
35.67504883,-91.64874000
35.70556641,-93.23592000
35.73608398,-97.75572000
35.76660156,-103.36830000
35.79711914,-105.21420000
35.82763672,-102.61650000
35.85815430,-101.90140000
35.88867188,-100.42690000
35.91918945,-98.95855000
35.94970703,-99.26828000
35.98022461,-104.55680000
36.01074219,-112.91830000
36.04125977,-103.11960000
36.07177734,-112.23120000
36.10229492,-98.05790000
36.13281250,-91.99359000
36.16333008,-91.28921000
36.19384766,-93.81241000
36.22436523,-96.67336000
36.25488281,-95.64445000
36.28540039,-93.52483000
36.31591797,-93.03693000
36.34643555,-94.14195000
36.37695313,-96.79898000
36.40747070,-104.00020000
36.43798828,-106.74770000
36.46850586,-97.09624000
36.49902344,-95.10336000
36.52954102,-95.95580000
36.56005859,-95.83517000
36.59057617,-93.93731000
36.62109375,-94.04916000
36.65161133,-97.65923000
36.68212891,-105.66560000
36.71264648,-100.54790000
36.74316406,-96.15406000
36.77368164,-95.20336000
36.80419922,-96.15007000
36.83471680,-97.28156000
36.86523438,-97.74042000
36.89575195,-100.22150000
36.92626953,-108.55980000
36.95678711,-96.59676000
36.98730469,-93.59374000
37.01782227,-96.94489000
37.04833984,-99.52983000
37.07885742,-93.06316000
37.10937500,-91.64053000
37.13989258,-92.76040000
37.17041016,-95.69852000
37.20092773,-103.20910000
37.23144531,-99.58217000
37.26196289,-93.50140000
37.29248047,-91.19560000
37.32299805,-90.96091000
37.35351563,-92.35358000
37.38403320,-94.78175000
37.41455078,-95.93072000
37.44506836,-94.92410000
37.47558594,-94.42593000
37.50610352,-95.42365000
37.53662109,-97.19242000
37.56713867,-97.38103000
37.59765625,-94.73410000
37.62817383,-92.31873000
37.65869141,-91.87392000
37.68920898,-94.50957000
37.71972656,-108.51210000
37.75024414,-95.52223000
37.78076172,-89.31322000
37.81127930,-87.60580000
37.84179688,-88.32446000
37.87231445,-90.94746000
37.90283203,-95.59718000
37.93334961,-94.57643000
37.96386719,-91.41602000
37.99438477,-92.15458000
38.02490234,-97.44398000
38.05541992,-103.63100000
38.08593750,-97.47557000
38.11645508,-95.27705000
38.14697266,-95.08449000
38.17749023,-95.80511000
38.20800781,-96.12916000
38.23852539,-94.97883000
38.26904297,-93.40046000
38.29956055,-92.94448000
38.33007813,-94.04453000
38.36059570,-96.55936000
38.39111328,-100.47260000
38.42163086,-103.93750000
38.45214844,-98.36375000
38.48266602,-94.24672000
38.51318359,-93.92691000
38.54370117,-97.08454000
38.57421875,-103.24310000
38.60473633,-106.62040000
38.63525391,-103.13610000
38.66577148,-102.58640000
38.69628906,-99.47836000
38.72680664,-94.51119000
38.75732422,-92.25002000
38.78784180,-92.43707000
38.81835938,-94.80208000
38.84887695,-99.04736000
38.87939453,-100.52890000
38.90991211,-99.74343000
38.94042969,-94.53498000
38.97094727,-89.17017000
39.00146484,-87.50935000
39.03198242,-89.54233000
39.06250000,-96.51450000
39.09301758,-99.89804000
39.12353516,-93.69682000
39.15405273,-91.55487000
39.18457031,-90.79749000
39.21508789,-90.35760000
39.24560547,-89.87653000
39.27612305,-89.35173000
39.30664063,-89.29523000
39.33715820,-90.91640000
39.36767578,-96.40508000
39.39819336,-125.16130000
39.42871094,-99.64809000
39.45922852,-98.55941000
39.48974609,-100.32060000
39.52026367,-98.20087000
39.55078125,-94.09412000
39.58129883,-90.63797000
39.61181641,-88.74731000
39.64233398,-88.44890000
39.67285156,-89.15206000
39.70336914,-91.25940000
39.73388672,-97.50554000
39.76440430,-99.21294000
39.79492188,-91.11347000
39.82543945,-88.07461000
39.85595703,-88.27325000
39.88647461,-91.51742000
39.91699219,-94.77782000
39.94750977,-92.55070000
39.97802734,-89.30538000
40.00854492,-87.66745000
40.03906250,-87.43021000
40.06958008,-87.30801000
40.10009766,-87.79987000
40.13061523,-90.25535000
40.16113281,-94.58350000
40.19165039,-99.44627000
40.22216797,-104.36970000
40.25268555,-96.74041000
40.28320313,-90.09279000
40.31372070,-86.92222000
40.34423828,-87.18262000
40.37475586,-91.55267000
40.40527344,-94.19043000
40.43579102,-91.21500000
40.46630859,-93.02454000
40.49682617,-97.99834000
40.52734375,-96.89438000
40.55786133,-101.77460000
40.58837891,-91.77141000
40.61889648,-83.90885000
40.64941406,-80.90420000
40.67993164,-81.08772000
40.71044922,-83.97315000
40.74096680,-88.65005000
40.77148438,-92.01789000
40.80200195,-91.68309000
40.83251953,-89.80344000
40.86303711,-88.38081000
40.89355469,-88.38390000
40.92407227,-90.46338000
40.95458984,-90.70486000
40.98510742,-84.97522000
41.01562500,-82.60777000
41.04614258,-84.33381000
41.07666016,-91.43518000
41.10717773,-108.23650000
41.13769531,-96.88797000
41.16821289,-98.83545000
41.19873047,-98.49326000
41.22924805,-93.95340000
41.25976563,-94.03466000
41.29028320,-95.78851000
41.32080078,-89.30817000
41.35131836,-87.83591000
41.38183594,-91.41974000
41.41235352,-92.10820000
41.44287109,-88.96023000
41.47338867,-88.66016000
41.50390625,-91.27739000
41.53442383,-99.19231000
41.56494141,-105.89370000
41.59545898,-103.10790000
41.62597656,-87.50281000
41.65649414,-80.96650000
41.68701172,-78.37498000
41.71752930,-78.49412000
41.74804688,-80.50591000
41.77856445,-82.99320000
41.80908203,-84.10925000
41.83959961,-84.16640000
41.87011719,-85.37643000
41.90063477,-89.67043000
41.93115234,-91.08873000
41.96166992,-84.43046000
41.99218750,-81.16493000
42.02270508,-80.80315000
42.05322266,-83.39080000
42.08374023,-89.06684000
42.11425781,-94.51279000
42.14477539,-91.64951000
42.17529297,-87.25953000
42.20581055,-87.39842000
42.23632813,-95.17775000
42.26684570,-95.28601000
42.29736328,-87.35340000
42.32788086,-84.11029000
42.35839844,-81.97684000
42.38891602,-81.31659000
42.41943359,-82.39934000
42.44995117,-85.25753000
42.48046875,-89.61270000
42.51098633,-95.24747000
42.54150391,-104.85300000
42.57202148,-100.27170000
42.60253906,-92.63519000
42.63305664,-86.54079000
42.66357422,-82.37509000
42.69409180,-80.55726000
42.72460938,-80.91790000
42.75512695,-83.08202000
42.78564453,-86.25874000
42.81616211,-88.69333000
42.84667969,-90.28487000
42.87719727,-93.36699000
42.90771484,-98.43819000
42.93823242,-95.10094000
42.96875000,-89.89996000
42.99926758,-86.94350000
43.02978516,-86.15638000
43.06030273,-87.59106000
43.09082031,-91.70250000
43.12133789,-105.21120000
43.15185547,-95.43214000
43.18237305,-89.47349000
43.21289063,-88.47260000
43.24340820,-90.48908000
43.27392578,-96.83460000
43.30444336,-97.35711000
43.33496094,-87.36169000
43.36547852,-83.52612000
43.39599609,-83.19067000
43.42651367,-85.09982000
43.45703125,-85.88932000
43.48754883,-84.10651000
43.51806641,-81.73329000
43.54858398,-80.40323000
43.57910156,-80.55994000
43.60961914,-81.76523000
43.64013672,-83.71033000
43.67065430,-85.86541000
43.70117188,-85.87421000
43.73168945,-85.37477000
43.76220703,-87.38623000
43.79272461,-92.60347000
43.82324219,-100.62280000
43.85375977,-109.22850000
43.88427734,-108.37600000
43.91479492,-103.21230000
43.94531250,-101.35120000
43.97583008,-99.69434000
44.00634766,-94.88362000
44.03686523,-90.37823000
44.06738281,-88.54653000
44.09790039,-89.09813000
44.12841797,-89.64944000
44.15893555,-87.96844000
44.18945313,-86.50970000
44.21997070,-87.58670000
44.25048828,-92.77818000
44.28100586,-106.69740000
44.31152344,-95.30893000
44.34204102,-89.82670000
44.37255859,-87.33412000
44.40307617,-87.50623000
44.43359375,-90.34035000
44.46411133,-94.17973000
44.49462891,-93.46298000
44.52514648,-89.50490000
44.55566406,-86.47304000
44.58618164,-85.35048000
44.61669922,-86.28519000
44.64721680,-88.89146000
44.67773438,-90.40227000
44.70825195,-90.22585000
44.73876953,-92.56673000
44.76928711,-100.59730000
44.79980469,-107.59500000
44.83032227,-102.45630000
44.86083984,-91.67813000
44.89135742,-87.86244000
44.92187500,-88.53150000
44.95239258,-94.40987000
44.98291016,-98.29388000
45.01342773,-91.07463000
45.04394531,-87.89496000
45.07446289,-86.64841000
45.10498047,-87.26616000
45.13549805,-88.70579000
45.16601563,-89.22283000
45.19653320,-89.01785000
45.22705078,-89.59019000
45.25756836,-92.04402000
45.28808594,-97.12178000
45.31860352,-94.96774000
45.34912109,-90.37515000
45.37963867,-89.40812000
45.41015625,-91.71024000
45.44067383,-99.07655000
45.47119141,-112.53870000
45.50170898,-106.31540000
45.53222656,-100.70400000
45.56274414,-93.80936000
45.59326172,-92.73898000
45.62377930,-95.57130000
45.65429688,-99.34460000
45.68481445,-98.03420000
45.71533203,-94.66733000
45.74584961,-92.63484000
45.77636719,-93.55434000
45.80688477,-93.95084000
45.83740234,-92.81636000
45.86791992,-93.99202000
45.89843750,-93.57954000
45.92895508,-92.80204000
45.95947266,-95.54503000
45.98999023,-100.13970000
46.02050781,-98.17460000
46.05102539,-95.22771000
46.08154297,-93.71673000
46.11206055,-93.67291000
46.14257813,-93.37772000
46.17309570,-92.92805000
46.20361328,-91.24574000
46.23413086,-88.79281000
46.26464844,-88.61163000
46.29516602,-91.22787000
46.32568359,-95.73867000
46.35620117,-100.43330000
46.38671875,-100.79590000
46.41723633,-98.18684000
46.44775391,-97.00478000
46.47827148,-97.28904000
46.50878906,-102.75510000
46.53930664,-104.62440000
46.56982422,-95.77213000
46.60034180,-94.24964000
46.63085938,-96.43033000
46.66137695,-103.54370000
46.69189453,-108.06920000
46.72241211,-96.69023000
46.75292969,-93.26561000
46.78344727,-93.40863000
46.81396484,-95.68169000
46.84448242,-95.96989000
46.87500000,-94.64474000
46.90551758,-93.88834000
46.93603516,-94.87100000
46.96655273,-98.83936000
46.99707031,-99.38003000
47.02758789,-95.66138000
47.05810547,-94.39541000
47.08862305,-94.02589000
47.11914063,-93.26539000
47.14965820,-92.75657000
47.18017578,-93.51349000
47.21069336,-95.78645000
47.24121094,-97.68320000
47.27172852,-96.31407000
47.30224609,-93.98431000
47.33276367,-92.92190000
47.36328125,-92.98802000
47.39379883,-93.37961000
47.42431641,-93.92047000
47.45483398,-94.54718000
47.48535156,-94.47392000
47.51586914,-93.18390000
47.54638672,-91.63987000
47.57690430,-91.10565000
47.60742188,-92.45903000
47.63793945,-95.98357000
47.66845703,-95.83931000
47.69897461,-92.12408000
47.72949219,-90.95248000
47.76000977,-91.72948000
47.79052734,-92.47550000
47.82104492,-91.45889000
47.85156250,-89.67102000
47.88208008,-88.77332000
47.91259766,-89.36271000
47.94311523,-91.48093000
47.97363281,-95.31708000
48.00415039,-100.96300000
48.03466797,-111.83660000
48.06518555,-102.06210000
48.09570313,-95.34784000
48.12622070,-94.21157000
48.15673828,-94.84101000
48.18725586,-95.94380000
48.21777344,-95.83260000
48.24829102,-91.79852000
48.27880859,-90.26409000
48.30932617,-91.80611000
48.33984375,-95.19099000
48.37036133,-97.32652000
48.40087891,-97.03745000
48.43139648,-96.80322000
48.46191406,-98.11481000
48.49243164,-101.22510000
48.52294922,-103.76950000
48.55346680,-102.77440000
48.58398438,-101.20910000
48.61450195,-102.57290000
48.64501953,-112.23250000
48.67553711,-104.59780000
48.70605469,-95.41914000
48.73657227,-91.09024000
48.76708984,-89.42496000
48.79760742,-89.81931000
48.82812500,-90.39410000
48.85864258,-88.15330000
48.88916016,-85.61771000
48.91967773,-84.89236000
48.95019531,-86.28819000
48.98071289,-89.32294000
49.01123047,-91.76205000
49.04174805,-92.36569000
49.07226563,-93.71454000
49.10278320,-98.80069000
49.13330078,-102.79640000
49.16381836,-95.03917000
49.19433594,-94.00489000
49.22485352,-97.61919000
49.25537109,-94.37030000
49.28588867,-89.54151000
49.31640625,-88.26207000
49.34692383,-89.54057000
49.37744141,-92.89694000
49.40795898,-97.79274000
49.43847656,-98.08533000
49.46899414,-96.24837000
49.49951172,-96.90503000
49.53002930,-96.92798000
49.56054688,-93.90198000
49.59106445,-90.41309000
49.62158203,-88.92543000
49.65209961,-89.75883000
49.68261719,-92.01412000
49.71313477,-94.40015000
49.74365234,-95.96307000
49.77416992,-95.42624000
49.80468750,-93.85705000
49.83520508,-93.48137000
49.86572266,-94.00964000
49.89624023,-93.42258000
49.92675781,-92.31149000
49.95727539,-92.53280000
49.98779297,-94.09235000
50.01831055,-94.08000000
