Frequency,Channel A
(MHz),(dBu)

0.00000000,-39.71600000
0.03051758,-40.32508000
0.06103516,-46.59680000
0.09155273,-62.06811000
0.12207031,-63.46889000
0.15258789,-64.65472000
0.18310547,-81.20091000
0.21362305,-68.64420000
0.24414063,-65.22010000
0.27465820,-63.50058000
0.30517578,-61.00649000
0.33569336,-58.84098000
0.36621094,-57.30493000
0.39672852,-56.28178000
0.42724609,-56.52929000
0.45776367,-58.73248000
0.48828125,-61.31622000
0.51879883,-61.09253000
0.54931641,-61.87983000
0.57983398,-66.78458000
0.61035156,-67.10600000
0.64086914,-64.08487000
0.67138672,-63.68330000
0.70190430,-63.48487000
0.73242188,-64.10984000
0.76293945,-66.21948000
0.79345703,-69.27367000
0.82397461,-66.16675000
0.85449219,-63.24558000
0.88500977,-62.96218000
0.91552734,-64.16846000
0.94604492,-66.08226000
0.97656250,-68.37602000
1.00708008,-67.58617000
1.03759766,-64.14174000
1.06811523,-62.74595000
1.09863281,-64.38571000
1.12915039,-68.45824000
1.15966797,-72.05928000
1.19018555,-76.18450000
1.22070313,-78.63187000
1.25122070,-76.27200000
1.28173828,-78.35899000
1.31225586,-78.22473000
1.34277344,-72.08109000
1.37329102,-69.74072000
1.40380859,-71.03456000
1.43432617,-74.58302000
1.46484375,-76.13837000
1.49536133,-71.40634000
1.52587891,-67.50455000
1.55639648,-66.05077000
1.58691406,-65.59877000
1.61743164,-64.84269000
1.64794922,-64.77662000
1.67846680,-67.10038000
1.70898438,-73.08628000
1.73950195,-82.73011000
1.77001953,-81.43601000
1.80053711,-75.26874000
1.83105469,-74.52129000
1.86157227,-74.30894000
1.89208984,-69.94775000
1.92260742,-69.15382000
1.95312500,-72.90978000
1.98364258,-85.69474000
2.01416016,-87.20185000
2.04467773,-101.12080000
2.07519531,-82.95165000
2.10571289,-80.01640000
2.13623047,-79.38149000
2.16674805,-79.99828000
2.19726563,-83.39240000
2.22778320,-84.02061000
2.25830078,-79.90990000
2.28881836,-78.21484000
2.31933594,-79.94303000
2.34985352,-80.35545000
2.38037109,-79.83018000
2.41088867,-81.61867000
2.44140625,-79.21364000
2.47192383,-77.82165000
2.50244141,-79.04133000
2.53295898,-81.16231000
2.56347656,-87.32803000
2.59399414,-79.87263000
2.62451172,-75.52531000
2.65502930,-74.98669000
2.68554688,-76.04237000
2.71606445,-76.38983000
2.74658203,-76.44884000
2.77709961,-84.83351000
2.80761719,-78.46940000
2.83813477,-72.40848000
2.86865234,-73.00499000
2.89916992,-79.83232000
2.92968750,-80.51132000
2.96020508,-78.19783000
2.99072266,-83.12904000
3.02124023,-77.21851000
3.05175781,-74.90264000
3.08227539,-77.45500000
3.11279297,-80.25697000
3.14331055,-76.10107000
3.17382813,-76.87646000
3.20434570,-89.79348000
3.23486328,-76.67442000
3.26538086,-74.57751000
3.29589844,-78.50380000
3.32641602,-90.76154000
3.35693359,-90.03098000
3.38745117,-83.24849000
3.41796875,-79.56105000
3.44848633,-79.87845000
3.47900391,-84.26238000
3.50952148,-87.77915000
3.54003906,-75.97708000
3.57055664,-75.64853000
3.60107422,-86.58520000
3.63159180,-79.33907000
3.66210938,-75.78352000
3.69262695,-78.49357000
3.72314453,-95.42671000
3.75366211,-78.62926000
3.78417969,-74.37769000
3.81469727,-73.06170000
3.84521484,-77.30844000
3.87573242,-77.31604000
3.90625000,-74.28537000
3.93676758,-77.80819000
3.96728516,-76.38515000
3.99780273,-73.72197000
4.02832031,-77.52168000
4.05883789,-79.45950000
4.08935547,-73.81387000
4.11987305,-74.29980000
4.15039063,-80.23135000
4.18090820,-84.12114000
4.21142578,-79.69517000
4.24194336,-77.20609000
4.27246094,-73.39966000
4.30297852,-76.71312000
4.33349609,-89.05742000
4.36401367,-75.55669000
4.39453125,-74.47206000
4.42504883,-78.19220000
4.45556641,-84.57996000
4.48608398,-78.29550000
4.51660156,-75.22840000
4.54711914,-75.96239000
4.57763672,-80.49335000
4.60815430,-82.97248000
4.63867188,-81.14114000
4.66918945,-81.63959000
4.69970703,-91.82900000
4.73022461,-83.05034000
4.76074219,-78.73458000
4.79125977,-79.46596000
4.82177734,-92.54699000
4.85229492,-85.09377000
4.88281250,-87.98959000
4.91333008,-79.46865000
4.94384766,-76.22717000
4.97436523,-79.03285000
5.00488281,-87.24564000
5.03540039,-91.64000000
5.06591797,-83.51807000
5.09643555,-82.65205000
5.12695313,-82.06292000
5.15747070,-85.85186000
5.18798828,-89.11597000
5.21850586,-88.00376000
5.24902344,-84.66393000
5.27954102,-91.97614000
5.31005859,-85.75978000
5.34057617,-84.23967000
5.37109375,-101.45160000
5.40161133,-83.56159000
5.43212891,-82.26342000
5.46264648,-82.99074000
5.49316406,-78.31485000
5.52368164,-76.10742000
5.55419922,-80.63020000
5.58471680,-85.14045000
5.61523438,-77.00676000
5.64575195,-80.19714000
5.67626953,-76.88562000
5.70678711,-75.51200000
5.73730469,-79.91564000
5.76782227,-77.92520000
5.79833984,-73.79655000
5.82885742,-75.03427000
5.85937500,-74.60130000
5.88989258,-72.90897000
5.92041016,-77.41896000
5.95092773,-85.17642000
5.98144531,-77.93002000
6.01196289,-74.42996000
6.04248047,-76.97590000
6.07299805,-79.18795000
6.10351563,-79.83703000
6.13403320,-84.54947000
6.16455078,-81.22163000
6.19506836,-76.11810000
6.22558594,-79.25008000
6.25610352,-87.25326000
6.28662109,-78.00848000
6.31713867,-83.26196000
6.34765625,-88.17590000
6.37817383,-79.92439000
6.40869141,-80.48660000
6.43920898,-83.42300000
6.46972656,-82.46632000
6.50024414,-90.36744000
6.53076172,-88.73963000
6.56127930,-84.95113000
6.59179688,-86.12976000
6.62231445,-94.34694000
6.65283203,-84.99236000
6.68334961,-84.68710000
6.71386719,-97.89011000
6.74438477,-83.15536000
6.77490234,-81.50162000
6.80541992,-81.86684000
6.83593750,-80.65675000
6.86645508,-81.52911000
6.89697266,-89.07716000
6.92749023,-93.63654000
6.95800781,-91.09441000
6.98852539,-93.56973000
7.01904297,-90.64969000
7.04956055,-92.96031000
7.08007813,-94.92382000
7.11059570,-89.40973000
7.14111328,-89.62905000
7.17163086,-92.88163000
7.20214844,-93.05811000
7.23266602,-92.66223000
7.26318359,-92.39310000
7.29370117,-95.78384000
7.32421875,-93.92204000
7.35473633,-88.33266000
7.38525391,-87.33148000
7.41577148,-89.44839000
7.44628906,-86.36647000
7.47680664,-85.96143000
7.50732422,-88.88988000
7.53784180,-89.97334000
7.56835938,-90.19158000
7.59887695,-89.07404000
7.62939453,-89.54128000
7.65991211,-101.11830000
7.69042969,-92.24535000
7.72094727,-90.79227000
7.75146484,-104.49710000
7.78198242,-87.03610000
7.81250000,-82.05936000
7.84301758,-82.64008000
7.87353516,-85.94688000
7.90405273,-88.58513000
7.93457031,-96.79584000
7.96508789,-100.56020000
7.99560547,-96.27236000
8.02612305,-106.12940000
8.05664063,-92.94425000
8.08715820,-89.45328000
8.11767578,-94.47485000
8.14819336,-94.81712000
8.17871094,-89.75178000
8.20922852,-90.49656000
8.23974609,-88.65495000
8.27026367,-86.04303000
8.30078125,-86.74416000
8.33129883,-89.50446000
8.36181641,-92.29195000
8.39233398,-93.61134000
8.42285156,-92.88440000
8.45336914,-89.69812000
8.48388672,-88.61869000
8.51440430,-89.83461000
8.54492188,-91.76457000
8.57543945,-94.53922000
8.60595703,-95.95061000
8.63647461,-95.21184000
8.66699219,-92.94006000
8.69750977,-89.47192000
8.72802734,-86.11539000
8.75854492,-84.72032000
8.78906250,-85.68706000
8.81958008,-90.12675000
8.85009766,-107.01630000
8.88061523,-93.42612000
8.91113281,-90.66326000
8.94165039,-92.92554000
8.97216797,-95.35628000
9.00268555,-89.99528000
9.03320313,-87.73421000
9.06372070,-87.87379000
9.09423828,-91.33320000
9.12475586,-91.51687000
9.15527344,-85.80910000
9.18579102,-83.65475000
9.21630859,-83.80614000
9.24682617,-84.10619000
9.27734375,-85.14415000
9.30786133,-90.16427000
9.33837891,-98.73782000
9.36889648,-89.80450000
9.39941406,-87.06763000
9.42993164,-87.53192000
9.46044922,-91.15874000
9.49096680,-96.62431000
9.52148438,-95.88596000
9.55200195,-92.72052000
9.58251953,-87.89014000
9.61303711,-82.74681000
9.64355469,-81.27827000
9.67407227,-82.20124000
9.70458984,-81.67253000
9.73510742,-80.26595000
9.76562500,-79.98484000
9.79614258,-81.93069000
9.82666016,-86.84753000
9.85717773,-93.40173000
9.88769531,-95.70270000
9.91821289,-90.26931000
9.94873047,-84.96828000
9.97924805,-82.98076000
10.00976563,-82.53398000
10.04028320,-83.58566000
10.07080078,-87.99178000
10.10131836,-94.62218000
10.13183594,-86.72722000
10.16235352,-83.87250000
10.19287109,-83.76046000
10.22338867,-82.27642000
10.25390625,-80.63709000
10.28442383,-82.19326000
10.31494141,-89.23814000
10.34545898,-117.44670000
10.37597656,-98.06467000
10.40649414,-90.04067000
10.43701172,-87.35810000
10.46752930,-86.02126000
10.49804688,-88.02522000
10.52856445,-92.90532000
10.55908203,-85.65423000
10.58959961,-82.52672000
10.62011719,-82.47754000
10.65063477,-83.64534000
10.68115234,-83.73444000
10.71166992,-82.91047000
10.74218750,-83.28638000
10.77270508,-84.94852000
10.80322266,-84.96769000
10.83374023,-83.24416000
10.86425781,-82.67912000
10.89477539,-83.94924000
10.92529297,-86.37213000
10.95581055,-88.64437000
10.98632813,-88.76811000
11.01684570,-88.41733000
11.04736328,-88.00951000
11.07788086,-88.04375000
11.10839844,-88.95145000
11.13891602,-87.14744000
11.16943359,-85.97840000
11.19995117,-86.62785000
11.23046875,-87.26802000
11.26098633,-84.87853000
11.29150391,-84.73687000
11.32202148,-88.48421000
11.35253906,-90.35925000
11.38305664,-84.39980000
11.41357422,-80.76796000
11.44409180,-81.07243000
11.47460938,-89.18240000
11.50512695,-85.43511000
11.53564453,-80.10536000
11.56616211,-79.95918000
11.59667969,-79.20764000
11.62719727,-77.55490000
11.65771484,-76.78192000
11.68823242,-77.43726000
11.71875000,-80.40259000
11.74926758,-86.78960000
11.77978516,-98.04120000
11.81030273,-87.58220000
11.84082031,-82.98064000
11.87133789,-84.33183000
11.90185547,-92.98579000
11.93237305,-95.03730000
11.96289063,-88.19062000
11.99340820,-84.62208000
12.02392578,-82.53448000
12.05444336,-82.58725000
12.08496094,-82.75260000
12.11547852,-81.04729000
12.14599609,-80.15133000
12.17651367,-81.32716000
12.20703125,-86.35696000
12.23754883,-120.22820000
12.26806641,-86.32983000
12.29858398,-79.67722000
12.32910156,-75.86592000
12.35961914,-74.53806000
12.39013672,-75.88379000
12.42065430,-80.26396000
12.45117188,-88.95479000
12.48168945,-98.79967000
12.51220703,-94.03716000
12.54272461,-93.09325000
12.57324219,-90.27312000
12.60375977,-85.15759000
12.63427734,-80.37907000
12.66479492,-79.36861000
12.69531250,-82.56824000
12.72583008,-86.99993000
12.75634766,-84.93709000
12.78686523,-82.62399000
12.81738281,-81.63721000
12.84790039,-83.07102000
12.87841797,-86.46516000
12.90893555,-88.83031000
12.93945313,-88.56276000
12.96997070,-89.37054000
13.00048828,-96.83785000
13.03100586,-91.43172000
13.06152344,-82.72629000
13.09204102,-79.57385000
13.12255859,-79.93729000
13.15307617,-84.20702000
13.18359375,-100.59500000
13.21411133,-86.32237000
13.24462891,-80.50141000
13.27514648,-78.66978000
13.30566406,-80.40157000
13.33618164,-88.64377000
13.36669922,-89.74156000
13.39721680,-83.18021000
13.42773438,-84.78031000
13.45825195,-88.09010000
13.48876953,-75.21938000
13.51928711,-67.99962000
13.54980469,-64.44508000
13.58032227,-63.77737000
13.61083984,-65.35461000
13.64135742,-68.41350000
13.67187500,-72.87391000
13.70239258,-77.81886000
13.73291016,-78.29605000
13.76342773,-80.51650000
13.79394531,-84.77704000
13.82446289,-87.88089000
13.85498047,-99.28531000
13.88549805,-87.69563000
13.91601563,-83.38951000
13.94653320,-82.32576000
13.97705078,-80.32368000
14.00756836,-79.01622000
14.03808594,-79.95770000
14.06860352,-83.80003000
14.09912109,-94.49731000
14.12963867,-96.99291000
14.16015625,-97.04517000
14.19067383,-87.39351000
14.22119141,-80.65218000
14.25170898,-78.64056000
14.28222656,-79.38470000
14.31274414,-82.00405000
14.34326172,-86.98436000
14.37377930,-93.23071000
14.40429688,-91.25302000
14.43481445,-91.26094000
14.46533203,-90.79128000
14.49584961,-88.56922000
14.52636719,-84.79572000
14.55688477,-83.86861000
14.58740234,-86.46088000
14.61791992,-88.00555000
14.64843750,-84.96853000
14.67895508,-84.42520000
14.70947266,-86.73393000
14.73999023,-89.03757000
14.77050781,-91.86269000
14.80102539,-95.09877000
14.83154297,-86.47106000
14.86206055,-84.28900000
14.89257813,-85.23322000
14.92309570,-87.09547000
14.95361328,-90.34671000
14.98413086,-89.55985000
15.01464844,-82.86746000
15.04516602,-80.63923000
15.07568359,-81.82792000
15.10620117,-83.28136000
15.13671875,-83.16138000
15.16723633,-81.76039000
15.19775391,-79.43972000
15.22827148,-79.63937000
15.25878906,-82.96691000
15.28930664,-83.74885000
15.31982422,-84.19662000
15.35034180,-85.76959000
15.38085938,-82.08668000
15.41137695,-81.46394000
15.44189453,-84.37396000
15.47241211,-86.17393000
15.50292969,-89.08061000
15.53344727,-93.58723000
15.56396484,-82.82094000
15.59448242,-78.93897000
15.62500000,-77.78191000
15.65551758,-78.48273000
15.68603516,-80.68263000
15.71655273,-83.07205000
15.74707031,-85.46231000
15.77758789,-86.91489000
15.80810547,-83.59239000
15.83862305,-82.44262000
15.86914063,-83.06915000
15.89965820,-82.59088000
15.93017578,-83.17085000
15.96069336,-86.39510000
15.99121094,-85.18276000
16.02172852,-82.70737000
16.05224609,-81.18587000
16.08276367,-80.44235000
16.11328125,-82.32741000
16.14379883,-87.68421000
16.17431641,-88.89085000
16.20483398,-89.34597000
16.23535156,-87.19661000
16.26586914,-84.92242000
16.29638672,-86.96117000
16.32690430,-93.40862000
16.35742188,-98.08964000
16.38793945,-100.92450000
16.41845703,-94.49008000
16.44897461,-88.64548000
16.47949219,-86.46707000
16.51000977,-85.50706000
16.54052734,-86.38092000
16.57104492,-91.51826000
16.60156250,-117.75610000
16.63208008,-93.94058000
16.66259766,-88.71069000
16.69311523,-87.39218000
16.72363281,-89.80099000
16.75415039,-94.80811000
16.78466797,-92.38327000
16.81518555,-87.39902000
16.84570313,-84.85477000
16.87622070,-84.23138000
16.90673828,-85.02560000
16.93725586,-87.70928000
16.96777344,-94.00233000
16.99829102,-112.96700000
17.02880859,-98.96408000
17.05932617,-91.59842000
17.08984375,-86.87773000
17.12036133,-84.92464000
17.15087891,-86.17272000
17.18139648,-89.97268000
17.21191406,-90.09324000
17.24243164,-89.78217000
17.27294922,-87.48936000
17.30346680,-84.90889000
17.33398438,-85.61220000
17.36450195,-88.80177000
17.39501953,-92.52975000
17.42553711,-98.66901000
17.45605469,-109.95400000
17.48657227,-95.11514000
17.51708984,-89.11658000
17.54760742,-86.37016000
17.57812500,-86.68034000
17.60864258,-89.57355000
17.63916016,-89.98918000
17.66967773,-85.25800000
17.70019531,-82.23843000
17.73071289,-81.46476000
17.76123047,-79.39446000
17.79174805,-75.65434000
17.82226563,-74.31517000
17.85278320,-75.97456000
17.88330078,-80.28398000
17.91381836,-85.94412000
17.94433594,-90.61665000
17.97485352,-93.48244000
18.00537109,-95.52227000
18.03588867,-96.19432000
18.06640625,-95.88416000
18.09692383,-94.40025000
18.12744141,-93.33878000
18.15795898,-95.45987000
18.18847656,-101.28700000
18.21899414,-102.45090000
18.24951172,-96.03432000
18.28002930,-92.67616000
18.31054688,-91.50760000
18.34106445,-91.66388000
18.37158203,-92.80061000
18.40209961,-95.47522000
18.43261719,-99.34225000
18.46313477,-101.09370000
18.49365234,-99.47854000
18.52416992,-96.48216000
18.55468750,-94.96667000
18.58520508,-95.04368000
18.61572266,-94.40634000
18.64624023,-93.40119000
18.67675781,-93.50253000
18.70727539,-95.02259000
18.73779297,-94.26961000
18.76831055,-89.19597000
18.79882813,-86.62835000
18.82934570,-87.23994000
18.85986328,-90.58331000
18.89038086,-96.06858000
18.92089844,-99.74867000
18.95141602,-96.88913000
18.98193359,-96.96693000
19.01245117,-102.61590000
19.04296875,-106.31580000
19.07348633,-100.15210000
19.10400391,-96.56744000
19.13452148,-94.68503000
19.16503906,-95.62568000
19.19555664,-99.47590000
19.22607422,-102.56090000
19.25659180,-104.64350000
19.28710938,-102.34840000
19.31762695,-100.16190000
19.34814453,-103.39520000
19.37866211,-113.62440000
19.40917969,-101.59980000
19.43969727,-96.84480000
19.47021484,-94.02572000
19.50073242,-93.00146000
19.53125000,-95.22223000
19.56176758,-105.09230000
19.59228516,-96.49834000
19.62280273,-91.44250000
19.65332031,-90.46278000
19.68383789,-91.43896000
19.71435547,-93.25905000
19.74487305,-95.41146000
19.77539063,-98.46005000
19.80590820,-100.51410000
19.83642578,-95.54053000
19.86694336,-92.90211000
19.89746094,-94.05463000
19.92797852,-99.15759000
19.95849609,-106.63790000
19.98901367,-107.18290000
20.01953125,-109.72580000
20.05004883,-108.03270000
20.08056641,-103.17020000
20.11108398,-100.08960000
20.14160156,-96.98299000
20.17211914,-94.34407000
20.20263672,-94.15430000
20.23315430,-96.68108000
20.26367188,-98.49415000
20.29418945,-96.78448000
20.32470703,-95.21158000
20.35522461,-96.03371000
20.38574219,-98.06184000
20.41625977,-98.47546000
20.44677734,-97.89297000
20.47729492,-98.26476000
20.50781250,-95.94466000
20.53833008,-91.64491000
20.56884766,-89.76820000
20.59936523,-90.67601000
20.62988281,-91.71784000
20.66040039,-91.38907000
20.69091797,-93.20868000
20.72143555,-97.44019000
20.75195313,-98.65424000
20.78247070,-100.71410000
20.81298828,-103.96610000
20.84350586,-103.81240000
20.87402344,-102.56810000
20.90454102,-100.89130000
20.93505859,-99.68751000
20.96557617,-97.85403000
20.99609375,-96.82822000
21.02661133,-98.75511000
21.05712891,-103.77290000
21.08764648,-104.41730000
21.11816406,-107.59220000
21.14868164,-105.49190000
21.17919922,-95.30687000
21.20971680,-92.15916000
21.24023438,-92.07951000
21.27075195,-93.77846000
21.30126953,-98.42064000
21.33178711,-104.40320000
21.36230469,-96.62465000
21.39282227,-94.35467000
21.42333984,-94.49339000
21.45385742,-95.77692000
21.48437500,-98.44304000
21.51489258,-100.43340000
21.54541016,-99.11523000
21.57592773,-97.70097000
21.60644531,-98.44292000
21.63696289,-100.53560000
21.66748047,-101.03680000
21.69799805,-103.39630000
21.72851563,-114.22410000
21.75903320,-106.69550000
21.78955078,-99.41398000
21.82006836,-93.95442000
21.85058594,-90.83793000
21.88110352,-90.16164000
21.91162109,-91.66691000
21.94213867,-95.14842000
21.97265625,-101.48710000
22.00317383,-114.12880000
22.03369141,-103.12500000
22.06420898,-102.49850000
22.09472656,-108.17910000
22.12524414,-104.08830000
22.15576172,-97.24832000
22.18627930,-93.69299000
22.21679688,-92.81111000
22.24731445,-92.94753000
22.27783203,-93.45132000
22.30834961,-94.49188000
22.33886719,-94.42667000
22.36938477,-93.59605000
22.39990234,-94.59270000
22.43041992,-99.28460000
22.46093750,-107.05020000
22.49145508,-106.97390000
22.52197266,-100.84490000
22.55249023,-98.27217000
22.58300781,-97.04044000
22.61352539,-95.74933000
22.64404297,-97.01865000
22.67456055,-102.78490000
22.70507813,-99.41879000
22.73559570,-93.60529000
22.76611328,-91.46976000
22.79663086,-91.24318000
22.82714844,-91.96544000
22.85766602,-93.08974000
22.88818359,-94.64929000
22.91870117,-97.05298000
22.94921875,-97.95182000
22.97973633,-96.18143000
23.01025391,-96.11477000
23.04077148,-98.93561000
23.07128906,-101.69330000
23.10180664,-98.69623000
23.13232422,-94.98972000
23.16284180,-93.73338000
23.19335938,-94.42146000
23.22387695,-95.28360000
23.25439453,-95.08699000
23.28491211,-95.00095000
23.31542969,-95.45959000
23.34594727,-95.19604000
23.37646484,-94.58157000
23.40698242,-94.38670000
23.43750000,-94.04991000
23.46801758,-93.69071000
23.49853516,-94.34322000
23.52905273,-96.13010000
23.55957031,-97.67017000
23.59008789,-98.31646000
23.62060547,-99.13456000
23.65112305,-101.37330000
23.68164063,-106.50470000
23.71215820,-109.27120000
23.74267578,-102.23630000
23.77319336,-97.39987000
23.80371094,-94.19582000
23.83422852,-93.16212000
23.86474609,-94.37392000
23.89526367,-94.78938000
23.92578125,-92.93555000
23.95629883,-92.49740000
23.98681641,-94.26484000
24.01733398,-97.37820000
24.04785156,-99.81847000
24.07836914,-100.90860000
24.10888672,-101.17630000
24.13940430,-102.79430000
24.16992188,-102.41770000
24.20043945,-95.68023000
24.23095703,-92.33138000
24.26147461,-91.17238000
24.29199219,-91.42900000
24.32250977,-93.96327000
24.35302734,-101.14450000
24.38354492,-108.59080000
24.41406250,-96.42132000
24.44458008,-92.71593000
24.47509766,-92.78285000
24.50561523,-97.27357000
24.53613281,-113.89240000
24.56665039,-99.59029000
24.59716797,-96.88641000
24.62768555,-97.56148000
24.65820313,-96.70196000
24.68872070,-93.49268000
24.71923828,-91.95717000
24.74975586,-92.66379000
24.78027344,-95.47571000
24.81079102,-99.12837000
24.84130859,-95.59864000
24.87182617,-91.43359000
24.90234375,-89.78046000
24.93286133,-90.42393000
24.96337891,-93.18221000
24.99389648,-96.39226000
25.02441406,-95.01424000
25.05493164,-92.24744000
25.08544922,-91.19470000
25.11596680,-91.68433000
25.14648438,-91.49967000
25.17700195,-89.45551000
25.20751953,-88.43471000
25.23803711,-89.94622000
25.26855469,-93.80533000
25.29907227,-96.81403000
25.32958984,-98.79082000
25.36010742,-99.90358000
25.39062500,-96.40010000
25.42114258,-94.88147000
25.45166016,-95.47095000
25.48217773,-94.51488000
25.51269531,-93.23357000
25.54321289,-94.76198000
25.57373047,-99.20090000
25.60424805,-105.05590000
25.63476563,-111.54900000
25.66528320,-108.51320000
25.69580078,-107.81200000
25.72631836,-108.38440000
25.75683594,-100.64370000
25.78735352,-98.25950000
25.81787109,-100.20500000
25.84838867,-101.86890000
25.87890625,-98.31667000
25.90942383,-98.31879000
25.93994141,-107.76600000
25.97045898,-101.89690000
26.00097656,-97.96798000
26.03149414,-97.13477000
26.06201172,-96.66016000
26.09252930,-97.62287000
26.12304688,-98.66293000
26.15356445,-98.68827000
26.18408203,-97.03848000
26.21459961,-95.21837000
26.24511719,-96.13115000
26.27563477,-95.98354000
26.30615234,-93.66624000
26.33666992,-96.04965000
26.36718750,-102.75480000
26.39770508,-96.10570000
26.42822266,-95.20970000
26.45874023,-100.31210000
26.48925781,-111.99720000
26.51977539,-107.05740000
26.55029297,-111.02750000
26.58081055,-106.96690000
26.61132813,-99.53909000
26.64184570,-96.74506000
26.67236328,-97.25198000
26.70288086,-99.67711000
26.73339844,-102.06020000
26.76391602,-107.97520000
26.79443359,-111.39840000
26.82495117,-107.50590000
26.85546875,-106.04540000
26.88598633,-104.01450000
26.91650391,-102.86430000
26.94702148,-110.16440000
26.97753906,-102.01860000
27.00805664,-94.13779000
27.03857422,-91.69819000
27.06909180,-92.07051000
27.09960938,-93.48117000
27.13012695,-95.03458000
27.16064453,-99.49177000
27.19116211,-115.41270000
27.22167969,-106.76020000
27.25219727,-102.90680000
27.28271484,-100.73950000
27.31323242,-101.84120000
27.34375000,-101.25160000
27.37426758,-96.76387000
27.40478516,-96.25619000
27.43530273,-100.47940000
27.46582031,-102.22350000
27.49633789,-95.34911000
27.52685547,-92.39997000
27.55737305,-93.39706000
27.58789063,-99.16501000
27.61840820,-95.46912000
27.64892578,-91.32451000
27.67944336,-89.95444000
27.70996094,-90.16877000
27.74047852,-92.88255000
27.77099609,-96.51738000
27.80151367,-95.43922000
27.83203125,-97.25022000
27.86254883,-105.26660000
27.89306641,-127.16000000
27.92358398,-109.73700000
27.95410156,-101.09610000
27.98461914,-95.74393000
28.01513672,-94.43107000
28.04565430,-96.79352000
28.07617188,-103.01230000
28.10668945,-121.91670000
28.13720703,-98.94234000
28.16772461,-93.22554000
28.19824219,-92.23403000
28.22875977,-95.25652000
28.25927734,-101.45260000
28.28979492,-101.36590000
28.32031250,-99.41466000
28.35083008,-100.31810000
28.38134766,-105.15370000
28.41186523,-101.23840000
28.44238281,-99.60497000
28.47290039,-102.22310000
28.50341797,-100.32760000
28.53393555,-97.09402000
28.56445313,-94.29022000
28.59497070,-91.92578000
28.62548828,-91.25320000
28.65600586,-93.38020000
28.68652344,-98.86711000
28.71704102,-99.18163000
28.74755859,-95.84236000
28.77807617,-95.17857000
28.80859375,-98.26652000
28.83911133,-113.27760000
28.86962891,-103.04560000
28.90014648,-101.17960000
28.93066406,-101.41760000
28.96118164,-97.88951000
28.99169922,-96.42137000
29.02221680,-95.90096000
29.05273438,-95.93747000
29.08325195,-97.87606000
29.11376953,-100.93030000
29.14428711,-98.39713000
29.17480469,-95.19347000
29.20532227,-93.31601000
29.23583984,-93.38109000
29.26635742,-97.10213000
29.29687500,-105.22270000
29.32739258,-93.82239000
29.35791016,-89.28551000
29.38842773,-88.48857000
29.41894531,-90.64005000
29.44946289,-95.04586000
29.47998047,-101.13400000
29.51049805,-119.93170000
29.54101563,-105.22630000
29.57153320,-102.86800000
29.60205078,-100.26560000
29.63256836,-96.40186000
29.66308594,-93.54359000
29.69360352,-91.62891000
29.72412109,-91.64569000
29.75463867,-95.18060000
29.78515625,-102.00330000
29.81567383,-96.97144000
29.84619141,-95.85835000
29.87670898,-100.01950000
29.90722656,-107.36030000
29.93774414,-99.91161000
29.96826172,-96.59683000
29.99877930,-95.99776000
30.02929688,-97.26640000
30.05981445,-99.60923000
30.09033203,-101.47230000
30.12084961,-100.03000000
30.15136719,-95.90363000
30.18188477,-92.84738000
30.21240234,-92.23613000
30.24291992,-93.29227000
30.27343750,-93.59779000
30.30395508,-95.13271000
30.33447266,-103.85350000
30.36499023,-99.55161000
30.39550781,-93.82885000
30.42602539,-92.86574000
30.45654297,-92.69355000
30.48706055,-90.68706000
30.51757813,-89.06741000
30.54809570,-89.92402000
30.57861328,-93.95869000
30.60913086,-97.17863000
30.63964844,-96.07322000
30.67016602,-101.08060000
30.70068359,-98.70203000
30.73120117,-91.28516000
30.76171875,-89.73820000
30.79223633,-91.07479000
30.82275391,-94.03662000
30.85327148,-97.69935000
30.88378906,-97.69533000
30.91430664,-95.06486000
30.94482422,-95.37874000
30.97534180,-101.50960000
31.00585938,-104.12250000
31.03637695,-96.83614000
31.06689453,-98.59386000
31.09741211,-99.34644000
31.12792969,-92.85425000
31.15844727,-92.17915000
31.18896484,-95.82610000
31.21948242,-98.69129000
31.25000000,-97.49818000
31.28051758,-97.59718000
31.31103516,-98.57893000
31.34155273,-100.44220000
31.37207031,-103.25290000
31.40258789,-112.07750000
31.43310547,-100.00260000
31.46362305,-91.09524000
31.49414063,-87.72987000
31.52465820,-87.56676000
31.55517578,-89.86587000
31.58569336,-94.35486000
31.61621094,-100.38040000
31.64672852,-104.48950000
31.67724609,-105.53670000
31.70776367,-107.13870000
31.73828125,-105.07970000
31.76879883,-99.16983000
31.79931641,-96.27830000
31.82983398,-95.24223000
31.86035156,-95.73193000
31.89086914,-97.66190000
31.92138672,-98.63827000
31.95190430,-99.06681000
31.98242188,-103.89920000
32.01293945,-104.03490000
32.04345703,-94.56294000
32.07397461,-90.56553000
32.10449219,-89.52745000
32.13500977,-90.74670000
32.16552734,-90.52021000
32.19604492,-89.40034000
32.22656250,-92.47493000
32.25708008,-99.61618000
32.28759766,-92.06136000
32.31811523,-90.37851000
32.34863281,-92.30650000
32.37915039,-95.41144000
32.40966797,-99.30169000
32.44018555,-106.23620000
32.47070313,-113.29030000
32.50122070,-105.61330000
32.53173828,-95.93686000
32.56225586,-93.42905000
32.59277344,-94.76199000
32.62329102,-98.31277000
32.65380859,-101.16430000
32.68432617,-101.43070000
32.71484375,-100.05960000
32.74536133,-98.74440000
32.77587891,-97.81998000
32.80639648,-96.14850000
32.83691406,-95.20649000
32.86743164,-95.03096000
32.89794922,-94.04198000
32.92846680,-92.74871000
32.95898438,-91.13984000
32.98950195,-89.74145000
33.02001953,-89.58317000
33.05053711,-90.78220000
33.08105469,-92.51855000
33.11157227,-92.76215000
33.14208984,-91.08830000
33.17260742,-89.92583000
33.20312500,-90.77648000
33.23364258,-94.97630000
33.26416016,-104.72680000
33.29467773,-94.94971000
33.32519531,-90.93514000
33.35571289,-91.10420000
33.38623047,-94.81467000
33.41674805,-96.56647000
33.44726563,-92.54909000
33.47778320,-90.99588000
33.50830078,-92.44511000
33.53881836,-97.14108000
33.56933594,-96.70220000
33.59985352,-93.60579000
33.63037109,-93.49770000
33.66088867,-95.15472000
33.69140625,-99.32307000
33.72192383,-101.08190000
33.75244141,-96.08685000
33.78295898,-96.08772000
33.81347656,-102.08000000
33.84399414,-112.84250000
33.87451172,-102.25320000
33.90502930,-99.59792000
33.93554688,-100.15270000
33.96606445,-102.07580000
33.99658203,-98.48312000
34.02709961,-94.29092000
34.05761719,-91.84921000
34.08813477,-90.92863000
34.11865234,-91.55153000
34.14916992,-93.16982000
34.17968750,-93.04886000
34.21020508,-92.34959000
34.24072266,-95.28580000
34.27124023,-111.72500000
34.30175781,-93.94845000
34.33227539,-89.36149000
34.36279297,-88.46869000
34.39331055,-90.10581000
34.42382813,-95.42240000
34.45434570,-103.75940000
34.48486328,-93.82471000
34.51538086,-91.11102000
34.54589844,-91.92484000
34.57641602,-95.67552000
34.60693359,-102.20440000
34.63745117,-102.94930000
34.66796875,-101.24900000
34.69848633,-96.84769000
34.72900391,-92.58658000
34.75952148,-91.48102000
34.79003906,-94.29268000
34.82055664,-108.49970000
34.85107422,-95.15097000
34.88159180,-88.83305000
34.91210938,-86.62837000
34.94262695,-87.25464000
34.97314453,-91.06905000
35.00366211,-101.00700000
35.03417969,-99.60267000
35.06469727,-93.42812000
35.09521484,-91.75415000
35.12573242,-93.99880000
35.15625000,-105.57600000
35.18676758,-94.49872000
35.21728516,-89.32706000
35.24780273,-88.12425000
35.27832031,-89.27728000
35.30883789,-92.35477000
35.33935547,-96.24383000
35.36987305,-97.82112000
35.40039063,-99.89842000
35.43090820,-106.12990000
35.46142578,-102.24300000
35.49194336,-99.84637000
35.52246094,-102.85790000
35.55297852,-103.30120000
35.58349609,-97.38155000
35.61401367,-96.00911000
35.64453125,-98.99616000
35.67504883,-101.79610000
35.70556641,-96.96634000
35.73608398,-95.27731000
35.76660156,-95.24918000
35.79711914,-94.20167000
35.82763672,-93.17237000
35.85815430,-92.94872000
35.88867188,-94.11774000
35.91918945,-98.23672000
35.94970703,-101.19650000
35.98022461,-95.71079000
36.01074219,-94.01985000
36.04125977,-96.72992000
36.07177734,-108.87910000
36.10229492,-99.67491000
36.13281250,-94.82265000
36.16333008,-93.68373000
36.19384766,-93.77593000
36.22436523,-94.05502000
36.25488281,-95.04190000
36.28540039,-94.19929000
36.31591797,-92.13823000
36.34643555,-92.02415000
36.37695313,-93.98671000
36.40747070,-99.23576000
36.43798828,-113.37170000
36.46850586,-96.48720000
36.49902344,-93.72056000
36.52954102,-94.90429000
36.56005859,-95.77112000
36.59057617,-95.88196000
36.62109375,-96.50353000
36.65161133,-92.88720000
36.68212891,-91.56396000
36.71264648,-94.90508000
36.74316406,-101.82850000
36.77368164,-97.77129000
36.80419922,-96.85336000
36.83471680,-99.43697000
36.86523438,-99.22023000
36.89575195,-94.16429000
36.92626953,-91.64590000
36.95678711,-92.22995000
36.98730469,-95.40099000
37.01782227,-97.71255000
37.04833984,-98.31010000
37.07885742,-100.38130000
37.10937500,-100.35510000
37.13989258,-99.27888000
37.17041016,-103.27400000
37.20092773,-106.86150000
37.23144531,-96.22158000
37.26196289,-93.94540000
37.29248047,-96.47323000
37.32299805,-105.14190000
37.35351563,-100.08860000
37.38403320,-95.20110000
37.41455078,-92.94930000
37.44506836,-92.35835000
37.47558594,-93.79295000
37.50610352,-97.15530000
37.53662109,-101.77880000
37.56713867,-111.16360000
37.59765625,-108.03460000
37.62817383,-107.37920000
37.65869141,-107.37370000
37.68920898,-104.09890000
37.71972656,-102.05100000
37.75024414,-97.56927000
37.78076172,-94.01608000
37.81127930,-93.62120000
37.84179688,-97.22987000
37.87231445,-109.96980000
37.90283203,-99.40705000
37.93334961,-94.17329000
37.96386719,-92.05937000
37.99438477,-91.17284000
38.02490234,-91.55850000
38.05541992,-93.64948000
38.08593750,-97.15012000
38.11645508,-98.40186000
38.14697266,-96.18560000
38.17749023,-94.29410000
38.20800781,-93.80388000
38.23852539,-96.26736000
38.26904297,-102.00690000
38.29956055,-95.03124000
38.33007813,-91.94444000
38.36059570,-93.01624000
38.39111328,-97.82278000
38.42163086,-109.18700000
38.45214844,-113.52880000
38.48266602,-108.46480000
38.51318359,-105.59980000
38.54370117,-101.25440000
38.57421875,-99.16557000
38.60473633,-98.96230000
38.63525391,-99.29259000
38.66577148,-98.96903000
38.69628906,-98.59468000
38.72680664,-99.95772000
38.75732422,-104.90310000
38.78784180,-118.69210000
38.81835938,-114.17450000
38.84887695,-109.05480000
38.87939453,-112.31230000
38.90991211,-116.24300000
38.94042969,-109.83030000
38.97094727,-117.41710000
39.00146484,-101.03390000
39.03198242,-98.20367000
39.06250000,-100.09720000
39.09301758,-101.56960000
39.12353516,-97.09469000
39.15405273,-93.51700000
39.18457031,-93.38945000
39.21508789,-98.57874000
39.24560547,-109.36940000
39.27612305,-96.61400000
39.30664063,-93.81389000
39.33715820,-94.51216000
39.36767578,-98.79425000
39.39819336,-101.34520000
39.42871094,-99.36370000
39.45922852,-99.95663000
39.48974609,-98.99871000
39.52026367,-99.52386000
39.55078125,-109.74740000
39.58129883,-97.95075000
39.61181641,-91.52473000
39.64233398,-89.43474000
39.67285156,-90.04289000
39.70336914,-92.89658000
39.73388672,-96.61896000
39.76440430,-99.17019000
39.79492188,-101.95010000
39.82543945,-99.75481000
39.85595703,-95.83482000
39.88647461,-93.40707000
39.91699219,-91.73501000
39.94750977,-90.03485000
39.97802734,-88.64907000
40.00854492,-88.77197000
40.03906250,-91.08741000
40.06958008,-97.38869000
40.10009766,-109.16810000
40.13061523,-98.78399000
40.16113281,-100.25790000
40.19165039,-128.69150000
40.22216797,-98.57220000
40.25268555,-93.67570000
40.28320313,-93.03931000
40.31372070,-92.80038000
40.34423828,-90.17844000
40.37475586,-89.11284000
40.40527344,-90.42020000
40.43579102,-93.61359000
40.46630859,-97.81590000
40.49682617,-95.85160000
40.52734375,-92.98154000
40.55786133,-92.57167000
40.58837891,-94.10651000
40.61889648,-96.30927000
40.64941406,-98.54128000
40.67993164,-102.20570000
40.71044922,-110.86870000
40.74096680,-99.14906000
40.77148438,-90.67613000
40.80200195,-88.36864000
40.83251953,-90.19121000
40.86303711,-96.41794000
40.89355469,-101.01270000
40.92407227,-94.72270000
40.95458984,-93.44914000
40.98510742,-98.42368000
41.01562500,-102.28650000
41.04614258,-92.43508000
41.07666016,-90.33769000
41.10717773,-91.27438000
41.13769531,-91.95618000
41.16821289,-89.35423000
41.19873047,-87.97031000
41.22924805,-89.16900000
41.25976563,-92.29211000
41.29028320,-94.68253000
41.32080078,-94.63927000
41.35131836,-95.64693000
41.38183594,-99.44530000
41.41235352,-104.96830000
41.44287109,-98.46330000
41.47338867,-92.21236000
41.50390625,-89.75163000
41.53442383,-89.21146000
41.56494141,-89.37920000
41.59545898,-90.55299000
41.62597656,-93.21071000
41.65649414,-95.87368000
41.68701172,-91.94312000
41.71752930,-88.61549000
41.74804688,-87.21335000
41.77856445,-86.00594000
41.80908203,-84.83778000
41.83959961,-84.57809000
41.87011719,-85.04029000
41.90063477,-85.59050000
41.93115234,-86.61047000
41.96166992,-88.99994000
41.99218750,-92.42054000
42.02270508,-95.03509000
42.05322266,-96.93533000
42.08374023,-101.03020000
42.11425781,-96.09860000
42.14477539,-91.34607000
42.17529297,-92.14804000
42.20581055,-90.96342000
42.23632813,-83.96763000
42.26684570,-81.30498000
42.29736328,-82.14201000
42.32788086,-85.92770000
42.35839844,-91.72939000
42.38891602,-95.50999000
42.41943359,-93.75175000
42.44995117,-90.93011000
42.48046875,-89.73801000
42.51098633,-90.46907000
42.54150391,-92.83820000
42.57202148,-94.55577000
42.60253906,-92.69212000
42.63305664,-92.96545000
42.66357422,-103.01310000
42.69409180,-93.75076000
42.72460938,-88.72418000
42.75512695,-88.48868000
42.78564453,-87.42351000
42.81616211,-84.74040000
42.84667969,-84.04375000
42.87719727,-86.54912000
42.90771484,-95.00800000
42.93823242,-95.18238000
42.96875000,-90.24031000
42.99926758,-92.81044000
43.02978516,-104.63670000
43.06030273,-88.54265000
43.09082031,-84.39259000
43.12133789,-84.15524000
43.15185547,-87.10351000
43.18237305,-93.40501000
43.21289063,-95.11757000
43.24340820,-92.97635000
43.27392578,-95.18060000
43.30444336,-102.74820000
43.33496094,-104.37320000
43.36547852,-98.60794000
43.39599609,-92.74688000
43.42651367,-89.95816000
43.45703125,-89.87568000
43.48754883,-91.21855000
43.51806641,-93.21292000
43.54858398,-98.22766000
43.57910156,-102.50360000
43.60961914,-95.83434000
43.64013672,-94.68047000
43.67065430,-96.77364000
43.70117188,-101.11450000
43.73168945,-113.67100000
43.76220703,-99.18465000
43.79272461,-91.73912000
43.82324219,-88.91288000
43.85375977,-88.62405000
43.88427734,-89.12276000
43.91479492,-89.75875000
43.94531250,-91.68829000
43.97583008,-93.16085000
44.00634766,-91.04478000
44.03686523,-89.81755000
44.06738281,-91.04051000
44.09790039,-94.74817000
44.12841797,-101.24550000
44.15893555,-105.49700000
44.18945313,-103.33600000
44.21997070,-101.30070000
44.25048828,-98.38855000
44.28100586,-97.25838000
44.31152344,-100.69900000
44.34204102,-104.83530000
44.37255859,-95.52631000
44.40307617,-92.95665000
44.43359375,-93.21655000
44.46411133,-93.09746000
44.49462891,-92.09022000
44.52514648,-91.75393000
44.55566406,-92.32191000
44.58618164,-93.86802000
44.61669922,-96.81987000
44.64721680,-99.57031000
44.67773438,-100.38900000
44.70825195,-105.48150000
44.73876953,-104.01600000
44.76928711,-97.31605000
44.79980469,-96.78941000
44.83032227,-100.54290000
44.86083984,-103.13970000
44.89135742,-96.83987000
44.92187500,-93.93207000
44.95239258,-94.59998000
44.98291016,-98.34415000
45.01342773,-104.50080000
45.04394531,-105.56970000
45.07446289,-101.60250000
45.10498047,-100.79060000
45.13549805,-106.62080000
45.16601563,-110.70820000
45.19653320,-102.13760000
45.22705078,-99.63641000
45.25756836,-97.04344000
45.28808594,-94.78743000
45.31860352,-94.73573000
45.34912109,-98.89213000
45.37963867,-114.54420000
45.41015625,-101.00050000
45.44067383,-95.94106000
45.47119141,-94.18867000
45.50170898,-96.23056000
45.53222656,-99.90437000
45.56274414,-94.22322000
45.59326172,-92.63511000
45.62377930,-96.85020000
45.65429688,-116.27960000
45.68481445,-99.31720000
45.71533203,-96.76678000
45.74584961,-96.83242000
45.77636719,-101.45970000
45.80688477,-110.05670000
45.83740234,-100.94590000
45.86791992,-100.58610000
45.89843750,-103.01840000
45.92895508,-104.70750000
45.95947266,-104.94800000
45.98999023,-105.84850000
46.02050781,-105.93250000
46.05102539,-104.54640000
46.08154297,-106.42120000
46.11206055,-109.19930000
46.14257813,-102.83660000
46.17309570,-96.42133000
46.20361328,-91.31633000
46.23413086,-88.70050000
46.26464844,-88.96625000
46.29516602,-92.03862000
46.32568359,-98.25951000
46.35620117,-112.03430000
46.38671875,-100.09890000
46.41723633,-94.67154000
46.44775391,-93.83350000
46.47827148,-97.08429000
46.50878906,-105.76230000
46.53930664,-117.05500000
46.56982422,-108.00440000
46.60034180,-100.80430000
46.63085938,-98.51483000
46.66137695,-98.60371000
46.69189453,-99.12688000
46.72241211,-99.78366000
46.75292969,-101.82460000
46.78344727,-103.50350000
46.81396484,-100.50170000
46.84448242,-97.33955000
46.87500000,-95.62087000
46.90551758,-95.04823000
46.93603516,-95.08170000
46.96655273,-95.38049000
46.99707031,-96.31990000
47.02758789,-98.49452000
47.05810547,-101.61940000
47.08862305,-104.53330000
47.11914063,-100.80210000
47.14965820,-94.61131000
47.18017578,-92.16842000
47.21069336,-92.98633000
47.24121094,-95.94077000
47.27172852,-98.41439000
47.30224609,-99.23645000
47.33276367,-99.17588000
47.36328125,-98.23821000
47.39379883,-97.05435000
47.42431641,-97.05466000
47.45483398,-98.31681000
47.48535156,-99.51865000
47.51586914,-99.58652000
47.54638672,-99.70444000
47.57690430,-101.57040000
47.60742188,-104.61620000
47.63793945,-104.32540000
47.66845703,-101.93600000
47.69897461,-98.71082000
47.72949219,-96.20590000
47.76000977,-94.89025000
47.79052734,-94.63857000
47.82104492,-95.99037000
47.85156250,-99.60521000
47.88208008,-106.70830000
47.91259766,-116.02100000
47.94311523,-101.34070000
47.97363281,-94.94756000
48.00415039,-92.06855000
48.03466797,-92.45158000
48.06518555,-95.28949000
48.09570313,-96.82854000
48.12622070,-96.19607000
48.15673828,-97.86919000
48.18725586,-96.67909000
48.21777344,-91.25713000
48.24829102,-89.39331000
48.27880859,-90.59529000
48.30932617,-94.40784000
48.33984375,-101.72280000
48.37036133,-107.88890000
48.40087891,-100.85620000
48.43139648,-101.42620000
48.46191406,-110.01560000
48.49243164,-104.06530000
48.52294922,-103.19790000
48.55346680,-105.77810000
48.58398438,-99.40734000
48.61450195,-97.78217000
48.64501953,-99.71156000
48.67553711,-97.94917000
48.70605469,-95.36267000
48.73657227,-95.59395000
48.76708984,-96.23832000
48.79760742,-95.35591000
48.82812500,-94.62534000
48.85864258,-92.99896000
48.88916016,-91.79276000
48.91967773,-93.05148000
48.95019531,-97.22124000
48.98071289,-101.31410000
49.01123047,-100.81380000
49.04174805,-99.05280000
49.07226563,-98.82501000
49.10278320,-103.16780000
49.13330078,-104.02530000
49.16381836,-100.23910000
49.19433594,-100.87670000
49.22485352,-100.76000000
49.25537109,-97.28812000
49.28588867,-94.75824000
49.31640625,-94.56428000
49.34692383,-95.26849000
49.37744141,-93.63841000
49.40795898,-93.64426000
49.43847656,-98.93761000
49.46899414,-98.49240000
49.49951172,-91.62289000
49.53002930,-88.96377000
49.56054688,-89.01282000
49.59106445,-91.39037000
49.62158203,-95.52422000
49.65209961,-100.74770000
49.68261719,-100.09700000
49.71313477,-97.54401000
49.74365234,-97.74632000
49.77416992,-100.93400000
49.80468750,-105.14410000
49.83520508,-98.58990000
49.86572266,-96.88556000
49.89624023,-99.02071000
49.92675781,-96.44211000
49.95727539,-92.42877000
49.98779297,-92.04182000
50.01831055,-95.02430000
