Frequency,Channel A
(MHz),(dBu)

0.00000000,-30.55881000
0.03051758,-31.13786000
0.06103516,-37.28847000
0.09155273,-51.42208000
0.12207031,-53.77879000
0.15258789,-54.61996000
0.18310547,-57.70638000
0.21362305,-58.89460000
0.24414063,-58.35222000
0.27465820,-58.12216000
0.30517578,-60.28766000
0.33569336,-62.34872000
0.36621094,-60.16262000
0.39672852,-57.79182000
0.42724609,-56.60039000
0.45776367,-56.24553000
0.48828125,-56.57893000
0.51879883,-57.19005000
0.54931641,-56.89400000
0.57983398,-56.50970000
0.61035156,-57.68447000
0.64086914,-61.11181000
0.67138672,-67.59068000
0.70190430,-66.63972000
0.73242188,-60.59637000
0.76293945,-57.81084000
0.79345703,-57.20414000
0.82397461,-58.00591000
0.85449219,-59.58649000
0.88500977,-61.79296000
0.91552734,-64.72865000
0.94604492,-67.68963000
0.97656250,-66.45600000
1.00708008,-62.07694000
1.03759766,-59.29971000
1.06811523,-58.86412000
1.09863281,-60.83276000
1.12915039,-64.48810000
1.15966797,-64.93667000
1.19018555,-62.89856000
1.22070313,-62.04899000
1.25122070,-62.15726000
1.28173828,-62.50478000
1.31225586,-62.74611000
1.34277344,-63.18126000
1.37329102,-63.72078000
1.40380859,-63.29546000
1.43432617,-62.18483000
1.46484375,-61.37520000
1.49536133,-60.61416000
1.52587891,-59.57187000
1.55639648,-58.85393000
1.58691406,-59.26680000
1.61743164,-60.86151000
1.64794922,-61.84848000
1.67846680,-61.17910000
1.70898438,-60.80724000
1.73950195,-61.28469000
1.77001953,-62.21972000
1.80053711,-63.18401000
1.83105469,-63.65992000
1.86157227,-63.80070000
1.89208984,-64.47095000
1.92260742,-65.31062000
1.95312500,-64.72839000
1.98364258,-63.64701000
2.01416016,-63.43030000
2.04467773,-63.82787000
2.07519531,-64.21825000
2.10571289,-64.51395000
2.13623047,-64.75785000
2.16674805,-64.70321000
2.19726563,-64.32937000
2.22778320,-64.15934000
2.25830078,-64.54128000
2.28881836,-65.04552000
2.31933594,-64.69779000
2.34985352,-63.60294000
2.38037109,-62.94230000
2.41088867,-63.50006000
2.44140625,-65.11816000
2.47192383,-65.86512000
2.50244141,-64.68456000
2.53295898,-63.68745000
2.56347656,-63.78933000
2.59399414,-64.65593000
2.62451172,-65.07298000
2.65502930,-64.31821000
2.68554688,-63.61287000
2.71606445,-63.83030000
2.74658203,-64.51344000
2.77709961,-64.69925000
2.80761719,-64.25039000
2.83813477,-63.37214000
2.86865234,-62.29287000
2.89916992,-61.40462000
2.92968750,-60.88043000
2.96020508,-60.64600000
2.99072266,-60.49491000
3.02124023,-60.20832000
3.05175781,-59.85339000
3.08227539,-59.72165000
3.11279297,-59.84715000
3.14331055,-59.92865000
3.17382813,-59.85072000
3.20434570,-59.90719000
3.23486328,-60.26369000
3.26538086,-60.70845000
3.29589844,-60.96888000
3.32641602,-61.00511000
3.35693359,-60.86764000
3.38745117,-60.57466000
3.41796875,-60.17786000
3.44848633,-59.73425000
3.47900391,-59.36733000
3.50952148,-59.29269000
3.54003906,-59.49543000
3.57055664,-59.47407000
3.60107422,-58.95084000
3.63159180,-58.49564000
3.66210938,-58.60184000
3.69262695,-59.09357000
3.72314453,-59.34041000
3.75366211,-59.02597000
3.78417969,-58.41906000
3.81469727,-57.86728000
3.84521484,-57.67105000
3.87573242,-58.04144000
3.90625000,-58.81258000
3.93676758,-59.36939000
3.96728516,-59.47468000
3.99780273,-59.63660000
4.02832031,-60.24487000
4.05883789,-61.33180000
4.08935547,-62.66035000
4.11987305,-63.52261000
4.15039063,-63.38069000
4.18090820,-63.03976000
4.21142578,-63.46852000
4.24194336,-64.87340000
4.27246094,-66.32121000
4.30297852,-66.10321000
4.33349609,-65.00307000
4.36401367,-64.60365000
4.39453125,-65.21886000
4.42504883,-66.35667000
4.45556641,-67.22185000
4.48608398,-67.60787000
4.51660156,-67.93145000
4.54711914,-68.53902000
4.57763672,-69.53047000
4.60815430,-70.67153000
4.63867188,-70.84157000
4.66918945,-69.47956000
4.69970703,-68.31695000
4.73022461,-68.46162000
4.76074219,-69.71912000
4.79125977,-70.66469000
4.82177734,-69.71021000
4.85229492,-67.90351000
4.88281250,-66.75338000
4.91333008,-66.68379000
4.94384766,-67.55278000
4.97436523,-68.66650000
5.00488281,-69.14110000
5.03540039,-69.32265000
5.06591797,-69.91242000
5.09643555,-70.85373000
5.12695313,-72.07384000
5.15747070,-73.69818000
5.18798828,-75.12189000
5.21850586,-76.16827000
5.24902344,-78.15392000
5.27954102,-81.12717000
5.31005859,-83.75106000
5.34057617,-81.74767000
5.37109375,-76.46396000
5.40161133,-72.75815000
5.43212891,-70.07126000
5.46264648,-67.75144000
5.49316406,-65.72322000
5.52368164,-64.19553000
5.55419922,-63.25065000
5.58471680,-62.60273000
5.61523438,-61.87478000
5.64575195,-61.08371000
5.67626953,-60.45990000
5.70678711,-60.02943000
5.73730469,-59.63028000
5.76782227,-59.16538000
5.79833984,-58.74409000
5.82885742,-58.56298000
5.85937500,-58.71547000
5.88989258,-59.15050000
5.92041016,-59.76393000
5.95092773,-60.45386000
5.98144531,-61.06990000
6.01196289,-61.42200000
6.04248047,-61.45272000
6.07299805,-61.33363000
6.10351563,-61.29326000
6.13403320,-61.49727000
6.16455078,-62.19878000
6.19506836,-63.65793000
6.22558594,-65.64420000
6.25610352,-67.08579000
6.28662109,-67.09166000
6.31713867,-66.39195000
6.34765625,-66.07504000
6.37817383,-66.54964000
6.40869141,-67.90665000
6.43920898,-70.05136000
6.46972656,-72.03920000
6.50024414,-72.35160000
6.53076172,-71.24969000
6.56127930,-70.14877000
6.59179688,-70.13814000
6.62231445,-71.17380000
6.65283203,-71.82147000
6.68334961,-72.09809000
6.71386719,-73.59138000
6.74438477,-76.14941000
6.77490234,-77.56107000
6.80541992,-76.50729000
6.83593750,-74.62379000
6.86645508,-72.86030000
6.89697266,-71.94531000
6.92749023,-72.86516000
6.95800781,-75.81620000
6.98852539,-77.86217000
7.01904297,-77.09584000
7.04956055,-77.10170000
7.08007813,-78.17648000
7.11059570,-79.49979000
7.14111328,-79.28889000
7.17163086,-77.79636000
7.20214844,-77.65725000
7.23266602,-79.45870000
7.26318359,-82.69413000
7.29370117,-88.56290000
7.32421875,-100.58880000
7.35473633,-88.64081000
7.38525391,-85.25760000
7.41577148,-84.85838000
7.44628906,-85.90580000
7.47680664,-85.18843000
7.50732422,-85.69637000
7.53784180,-91.68321000
7.56835938,-98.96839000
7.59887695,-89.47493000
7.62939453,-87.05525000
7.65991211,-86.44934000
7.69042969,-86.86708000
7.72094727,-88.52494000
7.75146484,-89.62357000
7.78198242,-85.87142000
7.81250000,-82.68993000
7.84301758,-82.44316000
7.87353516,-85.33018000
7.90405273,-89.04496000
7.93457031,-87.89325000
7.96508789,-85.77290000
7.99560547,-84.27013000
8.02612305,-84.75208000
8.05664063,-88.21231000
8.08715820,-93.37327000
8.11767578,-88.35446000
8.14819336,-86.31178000
8.17871094,-90.41512000
8.20922852,-107.77070000
8.23974609,-93.68590000
8.27026367,-95.26492000
8.30078125,-90.67395000
8.33129883,-87.93407000
8.36181641,-90.67853000
8.39233398,-104.74980000
8.42285156,-96.75046000
8.45336914,-92.53022000
8.48388672,-88.48328000
8.51440430,-85.23099000
8.54492188,-83.57117000
8.57543945,-83.58056000
8.60595703,-85.67972000
8.63647461,-88.95006000
8.66699219,-88.48270000
8.69750977,-86.84326000
8.72802734,-87.29829000
8.75854492,-89.35050000
8.78906250,-86.93592000
8.81958008,-82.67448000
8.85009766,-81.13759000
8.88061523,-82.67192000
8.91113281,-88.04845000
8.94165039,-95.53604000
8.97216797,-88.55873000
9.00268555,-86.11420000
9.03320313,-86.61926000
9.06372070,-87.37520000
9.09423828,-86.69142000
9.12475586,-86.35150000
9.15527344,-87.98588000
9.18579102,-90.59983000
9.21630859,-90.31645000
9.24682617,-87.71736000
9.27734375,-84.76646000
9.30786133,-83.27628000
9.33837891,-83.03029000
9.36889648,-82.94880000
9.39941406,-83.34373000
9.42993164,-86.26732000
9.46044922,-85.66262000
9.49096680,-79.79379000
9.52148438,-77.63781000
9.55200195,-78.27155000
9.58251953,-80.45900000
9.61303711,-82.46125000
9.64355469,-82.66261000
9.67407227,-81.11755000
9.70458984,-80.16613000
9.73510742,-82.27483000
9.76562500,-89.13590000
9.79614258,-83.15344000
9.82666016,-78.72112000
9.85717773,-77.87780000
9.88769531,-79.80207000
9.91821289,-83.80177000
9.94873047,-88.13885000
9.97924805,-91.52136000
10.00976563,-84.80315000
10.04028320,-81.37013000
10.07080078,-81.35995000
10.10131836,-84.69841000
10.13183594,-92.80792000
10.16235352,-91.99403000
10.19287109,-84.84872000
10.22338867,-79.81137000
10.25390625,-77.89948000
10.28442383,-79.00523000
10.31494141,-82.10779000
10.34545898,-82.45863000
10.37597656,-80.02168000
10.40649414,-79.67633000
10.43701172,-82.81557000
10.46752930,-88.21265000
10.49804688,-85.88800000
10.52856445,-86.58379000
10.55908203,-96.52792000
10.58959961,-93.96545000
10.62011719,-90.99369000
10.65063477,-95.24802000
10.68115234,-104.70900000
10.71166992,-96.49515000
10.74218750,-86.79990000
10.77270508,-82.59712000
10.80322266,-80.83047000
10.83374023,-80.90575000
10.86425781,-82.66457000
10.89477539,-84.90085000
10.92529297,-85.58588000
10.95581055,-85.24036000
10.98632813,-86.56536000
11.01684570,-86.65723000
11.04736328,-83.73772000
11.07788086,-84.51885000
11.10839844,-85.62166000
11.13891602,-81.73451000
11.16943359,-80.25089000
11.19995117,-81.16878000
11.23046875,-82.82300000
11.26098633,-82.28598000
11.29150391,-78.33409000
11.32202148,-75.49880000
11.35253906,-75.32669000
11.38305664,-77.82655000
11.41357422,-82.65024000
11.44409180,-89.83353000
11.47460938,-89.02101000
11.50512695,-81.96854000
11.53564453,-78.21236000
11.56616211,-76.85194000
11.59667969,-78.03336000
11.62719727,-82.60046000
11.65771484,-85.30994000
11.68823242,-80.08263000
11.71875000,-78.43451000
11.74926758,-80.76240000
11.77978516,-84.84452000
11.81030273,-79.89299000
11.84082031,-77.05692000
11.87133789,-77.30880000
11.90185547,-79.36172000
11.93237305,-79.97726000
11.96289063,-79.11212000
11.99340820,-79.24230000
12.02392578,-80.89436000
12.05444336,-84.18166000
12.08496094,-85.74146000
12.11547852,-83.62389000
12.14599609,-82.50346000
12.17651367,-82.23752000
12.20703125,-82.27708000
12.23754883,-82.29103000
12.26806641,-81.09251000
12.29858398,-79.55425000
12.32910156,-79.71760000
12.35961914,-83.14945000
12.39013672,-100.14550000
12.42065430,-84.67010000
12.45117188,-79.80250000
12.48168945,-79.83034000
12.51220703,-83.19286000
12.54272461,-92.74957000
12.57324219,-86.03195000
12.60375977,-77.22546000
12.63427734,-74.19411000
12.66479492,-74.11511000
12.69531250,-75.55673000
12.72583008,-77.43650000
12.75634766,-79.22400000
12.78686523,-80.40849000
12.81738281,-81.37337000
12.84790039,-82.94325000
12.87841797,-85.18230000
12.90893555,-82.46954000
12.93945313,-77.48954000
12.96997070,-75.43761000
13.00048828,-76.93566000
13.03100586,-81.34856000
13.06152344,-80.30868000
13.09204102,-78.39004000
13.12255859,-79.63807000
13.15307617,-84.65186000
13.18359375,-96.02650000
13.21411133,-94.58780000
13.24462891,-82.82848000
13.27514648,-78.67234000
13.30566406,-79.28975000
13.33618164,-82.99000000
13.36669922,-79.63052000
13.39721680,-77.00089000
13.42773438,-77.86841000
13.45825195,-83.66397000
13.48876953,-78.05676000
13.51928711,-68.84537000
13.54980469,-64.42683000
13.58032227,-62.92551000
13.61083984,-63.88066000
13.64135742,-67.66520000
13.67187500,-77.18583000
13.70239258,-82.27039000
13.73291016,-77.47397000
13.76342773,-83.98135000
13.79394531,-81.38022000
13.82446289,-77.51038000
13.85498047,-79.68816000
13.88549805,-84.08825000
13.91601563,-84.09033000
13.94653320,-82.78247000
13.97705078,-81.24886000
14.00756836,-80.94217000
14.03808594,-82.34978000
14.06860352,-84.90704000
14.09912109,-88.83244000
14.12963867,-86.37202000
14.16015625,-80.43018000
14.19067383,-80.11231000
14.22119141,-87.76679000
14.25170898,-76.41248000
14.28222656,-71.65415000
14.31274414,-71.79404000
14.34326172,-76.45006000
14.37377930,-79.90071000
14.40429688,-76.20029000
14.43481445,-76.99781000
14.46533203,-83.79559000
14.49584961,-88.40308000
14.52636719,-79.01534000
14.55688477,-76.74428000
14.58740234,-78.38438000
14.61791992,-86.39191000
14.64843750,-85.52463000
14.67895508,-80.60568000
14.70947266,-84.87428000
14.73999023,-87.74994000
14.77050781,-78.39398000
14.80102539,-79.13258000
14.83154297,-90.18066000
14.86206055,-77.40072000
14.89257813,-74.64525000
14.92309570,-75.98550000
14.95361328,-75.83085000
14.98413086,-74.80910000
15.01464844,-76.17581000
15.04516602,-78.02493000
15.07568359,-79.12631000
15.10620117,-83.17239000
15.13671875,-84.73724000
15.16723633,-83.28696000
15.19775391,-91.36931000
15.22827148,-83.82021000
15.25878906,-78.62443000
15.28930664,-79.71383000
15.31982422,-89.31270000
15.35034180,-82.64816000
15.38085938,-80.85661000
15.41137695,-90.77928000
15.44189453,-77.35452000
15.47241211,-72.92551000
15.50292969,-73.82703000
15.53344727,-79.30296000
15.56396484,-75.54630000
15.59448242,-71.78836000
15.62500000,-71.94261000
15.65551758,-75.57824000
15.68603516,-83.41859000
15.71655273,-79.93096000
15.74707031,-76.35243000
15.77758789,-77.12779000
15.80810547,-84.19592000
15.83862305,-83.81008000
15.86914063,-77.30514000
15.89965820,-77.61348000
15.93017578,-84.26961000
15.96069336,-94.63501000
15.99121094,-86.18489000
16.02172852,-88.51772000
16.05224609,-83.45016000
16.08276367,-79.72771000
16.11328125,-80.45747000
16.14379883,-85.20198000
16.17431641,-81.25156000
16.20483398,-76.98134000
16.23535156,-77.01437000
16.26586914,-82.34343000
16.29638672,-87.11627000
16.32690430,-78.76156000
16.35742188,-77.70319000
16.38793945,-81.76976000
16.41845703,-83.13797000
16.44897461,-77.05753000
16.47949219,-75.60054000
16.51000977,-78.33169000
16.54052734,-88.79393000
16.57104492,-85.12275000
16.60156250,-80.90171000
16.63208008,-81.90960000
16.66259766,-85.87722000
16.69311523,-90.76599000
16.72363281,-93.98026000
16.75415039,-90.96696000
16.78466797,-85.05654000
16.81518555,-83.49740000
16.84570313,-86.84071000
16.87622070,-87.62559000
16.90673828,-81.70634000
16.93725586,-79.53725000
16.96777344,-79.88199000
16.99829102,-82.54407000
17.02880859,-87.59966000
17.05932617,-85.35908000
17.08984375,-81.40259000
17.12036133,-79.81749000
17.15087891,-79.61258000
17.18139648,-80.93873000
17.21191406,-83.64577000
17.24243164,-84.66577000
17.27294922,-84.74010000
17.30346680,-87.50185000
17.33398438,-93.85829000
17.36450195,-93.69272000
17.39501953,-88.97693000
17.42553711,-86.11027000
17.45605469,-85.22121000
17.48657227,-88.20737000
17.51708984,-94.79481000
17.54760742,-85.81522000
17.57812500,-82.42058000
17.60864258,-82.08622000
17.63916016,-83.01558000
17.66967773,-83.28220000
17.70019531,-83.19746000
17.73071289,-80.41730000
17.76123047,-74.42953000
17.79174805,-70.69711000
17.82226563,-69.90788000
17.85278320,-71.96664000
17.88330078,-76.31539000
17.91381836,-80.42001000
17.94433594,-83.68179000
17.97485352,-89.75053000
18.00537109,-92.77947000
18.03588867,-86.57649000
18.06640625,-84.03978000
18.09692383,-84.04949000
18.12744141,-86.24671000
18.15795898,-88.33640000
18.18847656,-87.91558000
18.21899414,-89.50589000
18.24951172,-94.57724000
18.28002930,-96.70737000
18.31054688,-96.79190000
18.34106445,-97.90089000
18.37158203,-95.45775000
18.40209961,-90.77776000
18.43261719,-88.24067000
18.46313477,-88.54918000
18.49365234,-91.89442000
18.52416992,-95.17532000
18.55468750,-89.82792000
18.58520508,-86.45721000
18.61572266,-85.96783000
18.64624023,-88.15269000
18.67675781,-93.38538000
18.70727539,-96.74852000
18.73779297,-91.50085000
18.76831055,-89.27810000
18.79882813,-90.53151000
18.82934570,-94.19081000
18.85986328,-92.17242000
18.89038086,-89.37522000
18.92089844,-89.18745000
18.95141602,-90.97424000
18.98193359,-95.14947000
19.01245117,-107.54950000
19.04296875,-94.81431000
19.07348633,-89.53348000
19.10400391,-88.94624000
19.13452148,-92.57488000
19.16503906,-104.08080000
19.19555664,-98.19923000
19.22607422,-93.24706000
19.25659180,-91.29907000
19.28710938,-90.94151000
19.31762695,-92.64662000
19.34814453,-96.86935000
19.37866211,-95.68773000
19.40917969,-91.71180000
19.43969727,-91.03133000
19.47021484,-93.66240000
19.50073242,-99.30077000
19.53125000,-97.99622000
19.56176758,-96.50845000
19.59228516,-98.89795000
19.62280273,-99.93653000
19.65332031,-104.21010000
19.68383789,-106.18700000
19.71435547,-96.37723000
19.74487305,-94.29615000
19.77539063,-91.26505000
19.80590820,-87.27510000
19.83642578,-85.78813000
19.86694336,-87.58729000
19.89746094,-93.84630000
19.92797852,-109.34310000
19.95849609,-98.24509000
19.98901367,-93.13051000
20.01953125,-90.53878000
20.05004883,-90.25450000
20.08056641,-93.65875000
20.11108398,-112.89130000
20.14160156,-95.63949000
20.17211914,-92.08315000
20.20263672,-92.87719000
20.23315430,-96.63425000
20.26367188,-105.76530000
20.29418945,-109.24480000
20.32470703,-109.67050000
20.35522461,-103.72530000
20.38574219,-94.12119000
20.41625977,-91.63571000
20.44677734,-93.69487000
20.47729492,-100.68290000
20.50781250,-96.55328000
20.53833008,-93.17000000
20.56884766,-92.85117000
20.59936523,-94.53202000
20.62988281,-101.18910000
20.66040039,-103.64730000
20.69091797,-94.10424000
20.72143555,-92.47704000
20.75195313,-94.85358000
20.78247070,-96.82359000
20.81298828,-92.87395000
20.84350586,-90.31239000
20.87402344,-89.92809000
20.90454102,-91.41480000
20.93505859,-93.59921000
20.96557617,-94.32076000
20.99609375,-93.87650000
21.02661133,-92.35045000
21.05712891,-90.94130000
21.08764648,-91.28102000
21.11816406,-92.85063000
21.14868164,-92.63416000
21.17919922,-91.87289000
21.20971680,-93.09921000
21.24023438,-94.15668000
21.27075195,-90.12852000
21.30126953,-87.00775000
21.33178711,-86.44403000
21.36230469,-88.36765000
21.39282227,-93.48761000
21.42333984,-101.54920000
21.45385742,-93.32669000
21.48437500,-88.91002000
21.51489258,-87.39091000
21.54541016,-88.20090000
21.57592773,-91.76517000
21.60644531,-100.05180000
21.63696289,-96.39362000
21.66748047,-91.96041000
21.69799805,-91.91878000
21.72851563,-93.59534000
21.75903320,-93.11944000
21.78955078,-91.58375000
21.82006836,-91.11617000
21.85058594,-92.19279000
21.88110352,-93.80626000
21.91162109,-92.91427000
21.94213867,-90.02750000
21.97265625,-87.88499000
22.00317383,-87.25579000
22.03369141,-88.05045000
22.06420898,-89.19083000
22.09472656,-88.28870000
22.12524414,-86.64059000
22.15576172,-86.41669000
22.18627930,-87.91847000
22.21679688,-89.89749000
22.24731445,-88.77526000
22.27783203,-86.59317000
22.30834961,-86.29041000
22.33886719,-88.18513000
22.36938477,-90.66338000
22.39990234,-89.76842000
22.43041992,-87.84467000
22.46093750,-87.24563000
22.49145508,-88.53810000
22.52197266,-92.48006000
22.55249023,-95.82610000
22.58300781,-91.52577000
22.61352539,-89.78092000
22.64404297,-91.59496000
22.67456055,-98.34570000
22.70507813,-101.28360000
22.73559570,-94.22716000
22.76611328,-91.47604000
22.79663086,-89.88010000
22.82714844,-88.31608000
22.85766602,-87.07711000
22.88818359,-87.23885000
22.91870117,-90.00851000
22.94921875,-97.53040000
22.97973633,-98.97639000
23.01025391,-94.46353000
23.04077148,-93.96227000
23.07128906,-94.46136000
23.10180664,-94.76188000
23.13232422,-95.32935000
23.16284180,-95.10057000
23.19335938,-91.66698000
23.22387695,-88.35509000
23.25439453,-86.82399000
23.28491211,-86.93793000
23.31542969,-88.10586000
23.34594727,-89.42157000
23.37646484,-90.49306000
23.40698242,-91.95528000
23.43750000,-94.88140000
23.46801758,-100.77850000
23.49853516,-99.18781000
23.52905273,-92.40250000
23.55957031,-88.93993000
23.59008789,-87.63300000
23.62060547,-87.68568000
23.65112305,-88.46129000
23.68164063,-89.86111000
23.71215820,-92.34420000
23.74267578,-96.53935000
23.77319336,-103.32270000
23.80371094,-107.16770000
23.83422852,-99.77191000
23.86474609,-95.69617000
23.89526367,-95.46066000
23.92578125,-99.27720000
23.95629883,-98.39181000
23.98681641,-95.45500000
24.01733398,-96.32858000
24.04785156,-97.93358000
24.07836914,-99.13853000
24.10888672,-103.79310000
24.13940430,-105.00460000
24.16992188,-97.87424000
24.20043945,-94.81146000
24.23095703,-94.85355000
24.26147461,-97.06745000
24.29199219,-99.03090000
24.32250977,-98.33853000
24.35302734,-97.93278000
24.38354492,-102.70220000
24.41406250,-105.18940000
24.44458008,-94.79297000
24.47509766,-93.12418000
24.50561523,-97.49733000
24.53613281,-105.85450000
24.56665039,-94.91409000
24.59716797,-92.83878000
24.62768555,-94.60176000
24.65820313,-99.01768000
24.68872070,-97.60065000
24.71923828,-92.26253000
24.74975586,-88.79588000
24.78027344,-87.88831000
24.81079102,-90.15213000
24.84130859,-92.34284000
24.87182617,-88.89031000
24.90234375,-87.11106000
24.93286133,-87.18561000
24.96337891,-87.78462000
24.99389648,-88.05428000
25.02441406,-87.71332000
25.05493164,-86.98059000
25.08544922,-86.80408000
25.11596680,-88.17539000
25.14648438,-91.33737000
25.17700195,-92.07335000
25.20751953,-88.45317000
25.23803711,-85.98191000
25.26855469,-85.24136000
25.29907227,-86.05232000
25.32958984,-87.88796000
25.36010742,-88.78163000
25.39062500,-88.12910000
25.42114258,-88.26399000
25.45166016,-90.02750000
25.48217773,-91.29910000
25.51269531,-89.16544000
25.54321289,-87.04354000
25.57373047,-86.29807000
25.60424805,-86.79372000
25.63476563,-88.71457000
25.66528320,-93.17419000
25.69580078,-106.51330000
25.72631836,-99.49357000
25.75683594,-93.55849000
25.78735352,-92.40572000
25.81787109,-94.82516000
25.84838867,-100.15280000
25.87890625,-97.51876000
25.90942383,-95.51990000
25.93994141,-96.18262000
25.97045898,-96.69585000
26.00097656,-95.08589000
26.03149414,-92.71615000
26.06201172,-90.69704000
26.09252930,-89.83555000
26.12304688,-91.05678000
26.15356445,-93.85179000
26.18408203,-92.80624000
26.21459961,-90.65947000
26.24511719,-90.45959000
26.27563477,-91.11222000
26.30615234,-91.16933000
26.33666992,-90.74545000
26.36718750,-91.29102000
26.39770508,-93.32458000
26.42822266,-94.12737000
26.45874023,-93.09201000
26.48925781,-91.75768000
26.51977539,-89.39491000
26.55029297,-88.03601000
26.58081055,-88.80827000
26.61132813,-91.37279000
26.64184570,-94.62052000
26.67236328,-97.08416000
26.70288086,-98.69902000
26.73339844,-101.66850000
26.76391602,-105.39970000
26.79443359,-103.87080000
26.82495117,-101.69850000
26.85546875,-99.71213000
26.88598633,-96.68489000
26.91650391,-93.84223000
26.94702148,-92.26289000
26.97753906,-91.42509000
27.00805664,-90.44968000
27.03857422,-90.09853000
27.06909180,-91.14740000
27.09960938,-90.62134000
27.13012695,-87.70773000
27.16064453,-86.54890000
27.19116211,-87.99747000
27.22167969,-92.36290000
27.25219727,-98.89679000
27.28271484,-96.53897000
27.31323242,-93.09028000
27.34375000,-91.50812000
27.37426758,-91.57836000
27.40478516,-93.26504000
27.43530273,-94.37254000
27.46582031,-92.78985000
27.49633789,-92.42142000
27.52685547,-94.92583000
27.55737305,-96.40953000
27.58789063,-91.79786000
27.61840820,-89.27116000
27.64892578,-89.88651000
27.67944336,-91.93951000
27.70996094,-90.17302000
27.74047852,-88.15834000
27.77099609,-87.75924000
27.80151367,-88.03977000
27.83203125,-88.80810000
27.86254883,-91.04919000
27.89306641,-93.61932000
27.92358398,-90.13921000
27.95410156,-88.13840000
27.98461914,-90.82282000
28.01513672,-101.93400000
28.04565430,-91.39236000
28.07617188,-88.74477000
28.10668945,-91.22657000
28.13720703,-99.36221000
28.16772461,-102.83590000
28.19824219,-95.94113000
28.22875977,-92.63084000
28.25927734,-91.20513000
28.28979492,-92.17711000
28.32031250,-96.90559000
28.35083008,-114.82960000
28.38134766,-103.76100000
28.41186523,-100.76070000
28.44238281,-98.86916000
28.47290039,-95.90064000
28.50341797,-94.71961000
28.53393555,-95.20360000
28.56445313,-95.27724000
28.59497070,-93.76273000
28.62548828,-91.77185000
28.65600586,-91.83409000
28.68652344,-94.77909000
28.71704102,-96.77843000
28.74755859,-93.76720000
28.77807617,-91.40448000
28.80859375,-90.34585000
28.83911133,-90.78200000
28.86962891,-93.61523000
28.90014648,-99.39687000
28.93066406,-100.38060000
28.96118164,-100.18220000
28.99169922,-110.08750000
29.02221680,-100.42960000
29.05273438,-93.50252000
29.08325195,-91.78837000
29.11376953,-92.98300000
29.14428711,-94.43771000
29.17480469,-94.85591000
29.20532227,-97.47473000
29.23583984,-104.45660000
29.26635742,-101.49220000
29.29687500,-96.55989000
29.32739258,-93.31253000
29.35791016,-92.14852000
29.38842773,-93.47765000
29.41894531,-96.16868000
29.44946289,-98.89539000
29.47998047,-105.79960000
29.51049805,-98.15751000
29.54101563,-92.69394000
29.57153320,-91.58385000
29.60205078,-93.35709000
29.63256836,-96.75145000
29.66308594,-98.46982000
29.69360352,-98.34931000
29.72412109,-98.46996000
29.75463867,-102.42650000
29.78515625,-109.84580000
29.81567383,-99.12157000
29.84619141,-96.80125000
29.87670898,-96.43613000
29.90722656,-96.07037000
29.93774414,-94.95805000
29.96826172,-93.11189000
29.99877930,-91.75053000
30.02929688,-91.77650000
30.05981445,-92.51961000
30.09033203,-91.73466000
30.12084961,-90.04215000
30.15136719,-90.17394000
30.18188477,-93.85573000
30.21240234,-98.75057000
30.24291992,-96.94061000
30.27343750,-97.27855000
30.30395508,-97.31670000
30.33447266,-96.32628000
30.36499023,-96.66282000
30.39550781,-96.87547000
30.42602539,-97.58285000
30.45654297,-101.24320000
30.48706055,-105.95850000
30.51757813,-103.32550000
30.54809570,-102.13700000
30.57861328,-99.02379000
30.60913086,-95.02075000
30.63964844,-94.66043000
30.67016602,-95.51288000
30.70068359,-93.91458000
30.73120117,-94.25652000
30.76171875,-98.34525000
30.79223633,-103.75230000
30.82275391,-104.54770000
30.85327148,-102.93150000
30.88378906,-98.65093000
30.91430664,-94.35973000
30.94482422,-92.79179000
30.97534180,-95.90008000
31.00585938,-105.99070000
31.03637695,-95.02662000
31.06689453,-92.17823000
31.09741211,-93.02560000
31.12792969,-94.20982000
31.15844727,-94.70116000
31.18896484,-97.15858000
31.21948242,-102.83640000
31.25000000,-109.26280000
31.28051758,-96.07644000
31.31103516,-92.99107000
31.34155273,-94.17700000
31.37207031,-95.40024000
31.40258789,-94.21935000
31.43310547,-95.62462000
31.46362305,-100.11970000
31.49414063,-97.10443000
31.52465820,-93.75354000
31.55517578,-94.40003000
31.58569336,-100.89590000
31.61621094,-106.52780000
31.64672852,-96.64947000
31.67724609,-93.60950000
31.70776367,-91.64352000
31.73828125,-91.44256000
31.76879883,-94.38234000
31.79931641,-100.57020000
31.82983398,-98.84497000
31.86035156,-96.68150000
31.89086914,-96.36391000
31.92138672,-95.06476000
31.95190430,-94.26494000
31.98242188,-95.49142000
32.01293945,-99.09454000
32.04345703,-104.90350000
32.07397461,-102.28030000
32.10449219,-100.20860000
32.13500977,-101.12840000
32.16552734,-99.99117000
32.19604492,-97.46748000
32.22656250,-96.75226000
32.25708008,-95.98036000
32.28759766,-92.80759000
32.31811523,-91.22240000
32.34863281,-92.10542000
32.37915039,-93.37836000
32.40966797,-92.68071000
32.44018555,-92.53144000
32.47070313,-94.24786000
32.50122070,-95.88627000
32.53173828,-95.72440000
32.56225586,-96.95132000
32.59277344,-96.53297000
32.62329102,-92.52135000
32.65380859,-90.79578000
32.68432617,-92.24867000
32.71484375,-97.79189000
32.74536133,-99.44556000
32.77587891,-93.63258000
32.80639648,-92.14453000
32.83691406,-94.24104000
32.86743164,-100.08570000
32.89794922,-103.08860000
32.92846680,-100.81080000
32.95898438,-100.50700000
32.98950195,-99.99330000
33.02001953,-99.52801000
33.05053711,-103.42750000
33.08105469,-104.82350000
33.11157227,-96.24614000
33.14208984,-94.62009000
33.17260742,-96.43784000
33.20312500,-100.61470000
33.23364258,-99.84605000
33.26416016,-94.99824000
33.29467773,-93.83637000
33.32519531,-93.68328000
33.35571289,-92.17570000
33.38623047,-91.39828000
33.41674805,-92.23744000
33.44726563,-94.31278000
33.47778320,-98.55226000
33.50830078,-97.90744000
33.53881836,-92.18751000
33.56933594,-91.06801000
33.59985352,-94.54282000
33.63037109,-99.37725000
33.66088867,-94.32626000
33.69140625,-93.98264000
33.72192383,-99.01083000
33.75244141,-110.56310000
33.78295898,-101.60770000
33.81347656,-99.07849000
33.84399414,-102.78510000
33.87451172,-109.65570000
33.90502930,-97.79285000
33.93554688,-94.49704000
33.96606445,-94.02177000
33.99658203,-94.83290000
34.02709961,-96.42897000
34.05761719,-99.45903000
34.08813477,-104.24730000
34.11865234,-106.49170000
34.14916992,-104.80760000
34.17968750,-101.08360000
34.21020508,-97.84946000
34.24072266,-96.55522000
34.27124023,-98.72634000
34.30175781,-96.52729000
34.33227539,-91.56773000
34.36279297,-90.63708000
34.39331055,-93.11574000
34.42382813,-99.10010000
34.45434570,-101.12490000
34.48486328,-98.32777000
34.51538086,-96.99278000
34.54589844,-95.67985000
34.57641602,-95.82120000
34.60693359,-96.51904000
34.63745117,-98.28660000
34.66796875,-100.86550000
34.69848633,-96.62706000
34.72900391,-94.66479000
34.75952148,-98.64120000
34.79003906,-106.41580000
34.82055664,-95.53746000
34.85107422,-94.26332000
34.88159180,-98.61520000
34.91210938,-109.22890000
34.94262695,-100.75700000
34.97314453,-99.76192000
35.00366211,-101.57470000
35.03417969,-100.76330000
35.06469727,-98.24688000
35.09521484,-96.24503000
35.12573242,-96.03470000
35.15625000,-96.58876000
35.18676758,-96.55994000
35.21728516,-98.59964000
35.24780273,-101.04720000
35.27832031,-93.33717000
35.30883789,-89.61737000
35.33935547,-89.84473000
35.36987305,-94.01000000
35.40039063,-99.35525000
35.43090820,-97.00511000
35.46142578,-98.35690000
35.49194336,-112.39880000
35.52246094,-98.15561000
35.55297852,-92.50476000
35.58349609,-91.26524000
35.61401367,-92.72443000
35.64453125,-96.23790000
35.67504883,-97.36191000
35.70556641,-95.88291000
35.73608398,-96.04755000
35.76660156,-95.64793000
35.79711914,-95.61791000
35.82763672,-98.69666000
35.85815430,-102.49330000
35.88867188,-100.94240000
35.91918945,-100.73470000
35.94970703,-96.60987000
35.98022461,-92.81806000
36.01074219,-91.77982000
36.04125977,-92.67564000
36.07177734,-94.36551000
36.10229492,-95.32347000
36.13281250,-96.35931000
36.16333008,-101.21520000
36.19384766,-101.04790000
36.22436523,-95.05731000
36.25488281,-93.97485000
36.28540039,-95.86127000
36.31591797,-99.09542000
36.34643555,-105.24750000
36.37695313,-104.01690000
36.40747070,-96.34245000
36.43798828,-93.87169000
36.46850586,-93.83954000
36.49902344,-94.32230000
36.52954102,-93.83832000
36.56005859,-96.01196000
36.59057617,-106.27120000
36.62109375,-96.15383000
36.65161133,-93.38424000
36.68212891,-95.29393000
36.71264648,-97.98575000
36.74316406,-95.68993000
36.77368164,-93.15608000
36.80419922,-93.19547000
36.83471680,-97.55569000
36.86523438,-104.72920000
36.89575195,-97.53413000
36.92626953,-96.36676000
36.95678711,-98.69896000
36.98730469,-96.62222000
37.01782227,-93.05419000
37.04833984,-92.57144000
37.07885742,-94.62513000
37.10937500,-99.05323000
37.13989258,-107.30420000
37.17041016,-105.23060000
37.20092773,-100.53550000
37.23144531,-99.02505000
37.26196289,-98.18867000
37.29248047,-97.29087000
37.32299805,-97.86446000
37.35351563,-102.47550000
37.38403320,-111.41040000
37.41455078,-101.26510000
37.44506836,-98.36060000
37.47558594,-98.14029000
37.50610352,-99.68832000
37.53662109,-102.99710000
37.56713867,-104.42670000
37.59765625,-105.07520000
37.62817383,-104.20670000
37.65869141,-99.08594000
37.68920898,-96.77307000
37.71972656,-100.08870000
37.75024414,-110.58800000
37.78076172,-96.39485000
37.81127930,-94.51252000
37.84179688,-96.79015000
37.87231445,-98.92303000
37.90283203,-100.14880000
37.93334961,-110.34670000
37.96386719,-102.37710000
37.99438477,-97.82971000
38.02490234,-98.82135000
38.05541992,-99.01649000
38.08593750,-97.87705000
38.11645508,-100.50950000
38.14697266,-112.78350000
38.17749023,-105.70080000
38.20800781,-99.16991000
38.23852539,-97.98562000
38.26904297,-100.49600000
38.29956055,-98.64539000
38.33007813,-95.04483000
38.36059570,-95.41901000
38.39111328,-99.60323000
38.42163086,-105.43370000
38.45214844,-102.55560000
38.48266602,-98.13667000
38.51318359,-98.11112000
38.54370117,-104.23310000
38.57421875,-110.36110000
38.60473633,-98.72618000
38.63525391,-94.43908000
38.66577148,-93.41411000
38.69628906,-95.27461000
38.72680664,-99.17334000
38.75732422,-103.24160000
38.78784180,-105.49770000
38.81835938,-104.04510000
38.84887695,-104.12640000
38.87939453,-100.17360000
38.90991211,-95.13190000
38.94042969,-91.35125000
38.97094727,-88.89548000
39.00146484,-89.36971000
39.03198242,-94.13182000
39.06250000,-104.69410000
39.09301758,-104.81710000
39.12353516,-105.63710000
39.15405273,-102.93480000
39.18457031,-98.43967000
39.21508789,-94.97702000
39.24560547,-91.96891000
39.27612305,-89.98544000
39.30664063,-90.79327000
39.33715820,-98.02560000
39.36767578,-99.34930000
39.39819336,-91.15668000
39.42871094,-90.48418000
39.45922852,-93.79878000
39.48974609,-98.65784000
39.52026367,-97.96620000
39.55078125,-97.68044000
39.58129883,-98.92743000
39.61181641,-98.04579000
39.64233398,-96.54316000
39.67285156,-97.78568000
39.70336914,-104.24970000
39.73388672,-104.53840000
39.76440430,-99.86587000
39.79492188,-98.10831000
39.82543945,-95.86136000
39.85595703,-95.36899000
39.88647461,-96.57970000
39.91699219,-96.86969000
39.94750977,-96.83803000
39.97802734,-97.40441000
40.00854492,-96.41483000
40.03906250,-93.17229000
40.06958008,-90.09080000
40.10009766,-88.82884000
40.13061523,-90.08521000
40.16113281,-94.78501000
40.19165039,-96.43195000
40.22216797,-91.21449000
40.25268555,-89.54048000
40.28320313,-90.67871000
40.31372070,-94.13514000
40.34423828,-98.43121000
40.37475586,-98.84003000
40.40527344,-99.26308000
40.43579102,-104.87910000
40.46630859,-105.31430000
40.49682617,-99.77245000
40.52734375,-105.97810000
40.55786133,-97.97996000
40.58837891,-90.56085000
40.61889648,-89.76963000
40.64941406,-94.21251000
40.67993164,-96.74471000
40.71044922,-92.34169000
40.74096680,-91.83472000
40.77148438,-92.79140000
40.80200195,-92.44292000
40.83251953,-91.04715000
40.86303711,-91.09865000
40.89355469,-93.92493000
40.92407227,-99.33860000
40.95458984,-102.97710000
40.98510742,-104.35310000
41.01562500,-107.23770000
41.04614258,-101.43590000
41.07666016,-98.05606000
41.10717773,-100.25860000
41.13769531,-107.81920000
41.16821289,-106.05690000
41.19873047,-103.77260000
41.22924805,-101.03430000
41.25976563,-97.95125000
41.29028320,-91.99081000
41.32080078,-88.75817000
41.35131836,-87.79901000
41.38183594,-88.09017000
41.41235352,-89.43210000
41.44287109,-92.36424000
41.47338867,-97.26208000
41.50390625,-103.68770000
41.53442383,-109.71300000
41.56494141,-112.97090000
41.59545898,-114.39660000
41.62597656,-101.64680000
41.65649414,-92.82568000
41.68701172,-88.21425000
41.71752930,-86.92792000
41.74804688,-88.66981000
41.77856445,-94.38376000
41.80908203,-124.23590000
41.83959961,-97.48249000
41.87011719,-94.65146000
41.90063477,-96.90341000
41.93115234,-112.16960000
41.96166992,-99.78973000
41.99218750,-96.90533000
42.02270508,-103.62280000
42.05322266,-102.34110000
42.08374023,-93.67667000
42.11425781,-90.74484000
42.14477539,-89.87428000
42.17529297,-90.69615000
42.20581055,-94.71635000
42.23632813,-109.81490000
42.26684570,-92.88861000
42.29736328,-88.87949000
42.32788086,-88.52359000
42.35839844,-90.69767000
42.38891602,-95.26382000
42.41943359,-92.12080000
42.44995117,-88.38828000
42.48046875,-88.26077000
42.51098633,-92.40414000
42.54150391,-106.37440000
42.57202148,-90.29788000
42.60253906,-86.58719000
42.63305664,-87.04774000
42.66357422,-90.71575000
42.69409180,-95.60726000
42.72460938,-95.01024000
42.75512695,-92.44005000
42.78564453,-91.57299000
42.81616211,-91.78136000
42.84667969,-90.92519000
42.87719727,-89.05214000
42.90771484,-88.59250000
42.93823242,-91.69280000
42.96875000,-100.14540000
42.99926758,-97.18698000
43.02978516,-94.58312000
43.06030273,-93.77007000
43.09082031,-95.61423000
43.12133789,-108.57320000
43.15185547,-96.96109000
43.18237305,-92.17422000
43.21289063,-92.01044000
43.24340820,-95.14064000
43.27392578,-103.24140000
43.30444336,-100.84750000
43.33496094,-96.16479000
43.36547852,-95.13148000
43.39599609,-95.51643000
43.42651367,-96.41364000
43.45703125,-96.10745000
43.48754883,-93.05984000
43.51806641,-89.78669000
43.54858398,-88.73465000
43.57910156,-90.85979000
43.60961914,-96.92297000
43.64013672,-108.31840000
43.67065430,-104.87190000
43.70117188,-102.33880000
43.73168945,-107.53930000
43.76220703,-110.14700000
43.79272461,-98.81587000
43.82324219,-94.67087000
43.85375977,-93.69281000
43.88427734,-95.40086000
43.91479492,-100.31000000
43.94531250,-115.83400000
43.97583008,-107.92840000
44.00634766,-104.30130000
44.03686523,-104.84680000
44.06738281,-99.77281000
44.09790039,-94.39346000
44.12841797,-92.45743000
44.15893555,-92.37782000
44.18945313,-92.44228000
44.21997070,-92.18308000
44.25048828,-92.37517000
44.28100586,-92.89100000
44.31152344,-93.36075000
44.34204102,-94.44099000
44.37255859,-94.99160000
44.40307617,-95.55083000
44.43359375,-96.81721000
44.46411133,-96.37326000
44.49462891,-95.41344000
44.52514648,-94.27609000
44.55566406,-92.22256000
44.58618164,-90.22084000
44.61669922,-89.37648000
44.64721680,-90.05502000
44.67773438,-92.39407000
44.70825195,-96.06179000
44.73876953,-99.27010000
44.76928711,-98.62975000
44.79980469,-97.32925000
44.83032227,-96.67796000
44.86083984,-94.57406000
44.89135742,-91.83699000
44.92187500,-91.09898000
44.95239258,-94.54370000
44.98291016,-114.89550000
45.01342773,-98.11298000
45.04394531,-95.69751000
45.07446289,-99.30500000
45.10498047,-100.80140000
45.13549805,-94.80358000
45.16601563,-94.60693000
45.19653320,-100.96260000
45.22705078,-103.72140000
45.25756836,-103.09430000
45.28808594,-107.97300000
45.31860352,-99.26735000
45.34912109,-99.90433000
45.37963867,-110.56180000
45.41015625,-104.97740000
45.44067383,-101.18890000
45.47119141,-96.00334000
45.50170898,-91.85216000
45.53222656,-89.97868000
45.56274414,-89.73523000
45.59326172,-90.91939000
45.62377930,-94.18023000
45.65429688,-102.06480000
45.68481445,-110.51510000
45.71533203,-101.24670000
45.74584961,-103.61290000
45.77636719,-109.11350000
45.80688477,-96.88733000
45.83740234,-93.62555000
45.86791992,-93.73666000
45.89843750,-95.72232000
45.92895508,-98.44452000
45.95947266,-100.82790000
45.98999023,-102.22540000
46.02050781,-101.35470000
46.05102539,-97.14378000
46.08154297,-94.18492000
46.11206055,-93.94432000
46.14257813,-96.69209000
46.17309570,-102.46010000
46.20361328,-102.21210000
46.23413086,-99.14410000
46.26464844,-99.11285000
46.29516602,-98.45817000
46.32568359,-95.91323000
46.35620117,-95.87345000
46.38671875,-99.95963000
46.41723633,-103.81490000
46.44775391,-96.33141000
46.47827148,-93.10905000
46.50878906,-93.18835000
46.53930664,-96.38394000
46.56982422,-100.29040000
46.60034180,-99.46666000
46.63085938,-99.34247000
46.66137695,-97.13603000
46.69189453,-95.55859000
46.72241211,-96.32503000
46.75292969,-96.66329000
46.78344727,-93.91969000
46.81396484,-91.03180000
46.84448242,-90.30266000
46.87500000,-92.64445000
46.90551758,-99.64078000
46.93603516,-116.28420000
46.96655273,-99.83788000
46.99707031,-95.18189000
47.02758789,-93.17061000
47.05810547,-92.41372000
47.08862305,-91.89368000
47.11914063,-91.70673000
47.14965820,-92.90636000
47.18017578,-97.00864000
47.21069336,-104.03160000
47.24121094,-96.96053000
47.27172852,-92.26189000
47.30224609,-90.13612000
47.33276367,-89.68675000
47.36328125,-89.82177000
47.39379883,-89.82588000
47.42431641,-90.40456000
47.45483398,-91.90723000
47.48535156,-93.33104000
47.51586914,-93.48196000
47.54638672,-92.88893000
47.57690430,-93.01063000
47.60742188,-93.92677000
47.63793945,-93.62874000
47.66845703,-93.11317000
47.69897461,-94.11136000
47.72949219,-96.88300000
47.76000977,-101.02130000
47.79052734,-104.23850000
47.82104492,-105.11210000
47.85156250,-105.69870000
47.88208008,-98.98263000
47.91259766,-95.98181000
47.94311523,-97.75105000
47.97363281,-98.94730000
48.00415039,-94.97662000
48.03466797,-94.02810000
48.06518555,-95.97199000
48.09570313,-95.43706000
48.12622070,-92.44587000
48.15673828,-92.40520000
48.18725586,-95.60664000
48.21777344,-97.72577000
48.24829102,-96.65032000
48.27880859,-97.36700000
48.30932617,-98.62237000
48.33984375,-97.22311000
48.37036133,-95.44144000
48.40087891,-96.31859000
48.43139648,-102.84250000
48.46191406,-109.35300000
48.49243164,-98.53592000
48.52294922,-95.46510000
48.55346680,-94.32498000
48.58398438,-94.56906000
48.61450195,-96.71336000
48.64501953,-101.62190000
48.67553711,-107.69370000
48.70605469,-103.77350000
48.73657227,-100.19080000
48.76708984,-99.72391000
48.79760742,-101.99780000
48.82812500,-100.19020000
48.85864258,-95.13976000
48.88916016,-92.46568000
48.91967773,-93.21011000
48.95019531,-96.68346000
48.98071289,-95.72012000
49.01123047,-95.06111000
49.04174805,-97.38768000
49.07226563,-98.65195000
49.10278320,-101.08320000
49.13330078,-106.36530000
49.16381836,-98.46342000
49.19433594,-93.94635000
49.22485352,-91.84999000
49.25537109,-91.62658000
49.28588867,-93.61482000
49.31640625,-98.38013000
49.34692383,-106.49410000
49.37744141,-107.15040000
49.40795898,-100.92840000
49.43847656,-99.49854000
49.46899414,-102.11800000
49.49951172,-104.88910000
49.53002930,-103.03560000
49.56054688,-97.76274000
49.59106445,-94.28322000
49.62158203,-93.44521000
49.65209961,-94.90571000
49.68261719,-99.32005000
49.71313477,-103.37950000
49.74365234,-98.33060000
49.77416992,-95.57975000
49.80468750,-93.26436000
49.83520508,-91.40881000
49.86572266,-91.54745000
49.89624023,-93.82854000
49.92675781,-97.65430000
49.95727539,-101.45450000
49.98779297,-98.27052000
50.01831055,-93.38823000
