Frequency,Channel A
(MHz),(dBu)

0.00000000,-26.38099000
0.03051758,-26.67092000
0.06103516,-31.54935000
0.09155273,-40.29038000
0.12207031,-52.95261000
0.15258789,-61.45285000
0.18310547,-64.49416000
0.21362305,-75.98812000
0.24414063,-75.44470000
0.27465820,-70.72929000
0.30517578,-72.13390000
0.33569336,-77.49518000
0.36621094,-80.85335000
0.39672852,-74.62058000
0.42724609,-69.68937000
0.45776367,-66.38783000
0.48828125,-62.64419000
0.51879883,-59.55302000
0.54931641,-58.29454000
0.57983398,-59.05243000
0.61035156,-62.09776000
0.64086914,-68.53822000
0.67138672,-90.37263000
0.70190430,-73.93519000
0.73242188,-71.54225000
0.76293945,-74.04257000
0.79345703,-80.96815000
0.82397461,-82.95084000
0.85449219,-85.85037000
0.88500977,-81.66446000
0.91552734,-72.12970000
0.94604492,-67.75174000
0.97656250,-65.61921000
1.00708008,-63.20289000
1.03759766,-61.07945000
1.06811523,-61.01331000
1.09863281,-63.20289000
1.12915039,-67.26993000
1.15966797,-73.43137000
1.19018555,-89.92962000
1.22070313,-79.85554000
1.25122070,-75.48817000
1.28173828,-74.77916000
1.31225586,-76.47885000
1.34277344,-81.86633000
1.37329102,-81.32735000
1.40380859,-77.59293000
1.43432617,-77.37759000
1.46484375,-74.62750000
1.49536133,-71.01543000
1.52587891,-68.68619000
1.55639648,-67.40385000
1.58691406,-67.97129000
1.61743164,-70.97940000
1.64794922,-74.63955000
1.67846680,-72.84988000
1.70898438,-70.91171000
1.73950195,-71.01633000
1.77001953,-72.76254000
1.80053711,-74.04980000
1.83105469,-72.28703000
1.86157227,-70.31129000
1.89208984,-69.78515000
1.92260742,-70.30910000
1.95312500,-71.25520000
1.98364258,-72.72669000
2.01416016,-76.84807000
2.04467773,-86.14826000
2.07519531,-78.05376000
2.10571289,-77.68181000
2.13623047,-82.93228000
2.16674805,-84.97361000
2.19726563,-87.54778000
2.22778320,-88.16037000
2.25830078,-81.72504000
2.28881836,-79.78562000
2.31933594,-78.21721000
2.34985352,-75.34519000
2.38037109,-72.92262000
2.41088867,-72.52789000
2.44140625,-74.09639000
2.47192383,-77.38822000
2.50244141,-79.47885000
2.53295898,-76.96375000
2.56347656,-75.14487000
2.59399414,-74.81961000
2.62451172,-75.72684000
2.65502930,-77.60737000
2.68554688,-79.70425000
2.71606445,-80.06341000
2.74658203,-78.67599000
2.77709961,-79.93015000
2.80761719,-83.27669000
2.83813477,-84.15268000
2.86865234,-83.60185000
2.89916992,-84.54057000
2.92968750,-79.14572000
2.96020508,-74.88998000
2.99072266,-73.40018000
3.02124023,-72.45512000
3.05175781,-72.05447000
3.08227539,-73.86452000
3.11279297,-80.24711000
3.14331055,-99.16689000
3.17382813,-84.71165000
3.20434570,-79.72185000
3.23486328,-77.87595000
3.26538086,-76.90874000
3.29589844,-76.35950000
3.32641602,-75.70192000
3.35693359,-75.37043000
3.38745117,-76.54263000
3.41796875,-79.36072000
3.44848633,-84.67833000
3.47900391,-96.39152000
3.50952148,-81.68288000
3.54003906,-79.76920000
3.57055664,-82.74194000
3.60107422,-86.68616000
3.63159180,-91.59499000
3.66210938,-92.35222000
3.69262695,-87.98817000
3.72314453,-85.12216000
3.75366211,-92.30766000
3.78417969,-83.86669000
3.81469727,-82.57321000
3.84521484,-86.67642000
3.87573242,-91.55128000
3.90625000,-90.73197000
3.93676758,-83.07117000
3.96728516,-78.26753000
3.99780273,-78.19412000
4.02832031,-81.79458000
4.05883789,-81.99036000
4.08935547,-83.62737000
4.11987305,-89.11686000
4.15039063,-85.09190000
4.18090820,-85.58663000
4.21142578,-92.65341000
4.24194336,-100.77450000
4.27246094,-87.27296000
4.30297852,-85.73388000
4.33349609,-85.37827000
4.36401367,-82.14562000
4.39453125,-82.83458000
4.42504883,-80.14659000
4.45556641,-80.81229000
4.48608398,-92.68871000
4.51660156,-84.96430000
4.54711914,-78.95230000
4.57763672,-78.04993000
4.60815430,-79.13192000
4.63867188,-80.29301000
4.66918945,-82.26842000
4.69970703,-85.38995000
4.73022461,-89.64004000
4.76074219,-85.82428000
4.79125977,-89.66519000
4.82177734,-108.62430000
4.85229492,-85.78322000
4.88281250,-79.30641000
4.91333008,-78.79934000
4.94384766,-80.22002000
4.97436523,-83.34004000
5.00488281,-86.65614000
5.03540039,-84.53471000
5.06591797,-79.69703000
5.09643555,-78.79920000
5.12695313,-80.46690000
5.15747070,-80.96422000
5.18798828,-91.04788000
5.21850586,-86.64635000
5.24902344,-84.93340000
5.27954102,-89.71169000
5.31005859,-88.47431000
5.34057617,-84.47585000
5.37109375,-85.80627000
5.40161133,-86.97957000
5.43212891,-84.57290000
5.46264648,-88.71815000
5.49316406,-90.83548000
5.52368164,-81.44215000
5.55419922,-79.77584000
5.58471680,-89.01324000
5.61523438,-80.51431000
5.64575195,-81.20056000
5.67626953,-88.26522000
5.70678711,-81.62950000
5.73730469,-78.77292000
5.76782227,-77.08653000
5.79833984,-81.46330000
5.82885742,-83.67889000
5.85937500,-88.08185000
5.88989258,-91.90457000
5.92041016,-89.85142000
5.95092773,-79.20172000
5.98144531,-79.84069000
6.01196289,-85.90458000
6.04248047,-87.44331000
6.07299805,-89.31060000
6.10351563,-89.27824000
6.13403320,-86.86885000
6.16455078,-84.71120000
6.19506836,-91.43330000
6.22558594,-85.44073000
6.25610352,-87.09530000
6.28662109,-80.31793000
6.31713867,-82.09785000
6.34765625,-88.21234000
6.37817383,-92.50268000
6.40869141,-89.92385000
6.43920898,-97.94049000
6.46972656,-85.93190000
6.50024414,-83.10262000
6.53076172,-87.00050000
6.56127930,-104.05550000
6.59179688,-85.91537000
6.62231445,-83.41035000
6.65283203,-90.19039000
6.68334961,-93.88641000
6.71386719,-90.41177000
6.74438477,-94.60664000
6.77490234,-92.30632000
6.80541992,-88.54736000
6.83593750,-94.24280000
6.86645508,-94.98368000
6.89697266,-88.84727000
6.92749023,-87.47926000
6.95800781,-85.36400000
6.98852539,-82.34911000
7.01904297,-80.76093000
7.04956055,-80.10802000
7.08007813,-81.01591000
7.11059570,-85.46654000
7.14111328,-93.71385000
7.17163086,-91.90416000
7.20214844,-92.79740000
7.23266602,-96.62634000
7.26318359,-97.17972000
7.29370117,-95.46967000
7.32421875,-94.98265000
7.35473633,-90.28311000
7.38525391,-86.20132000
7.41577148,-86.27017000
7.44628906,-90.21516000
7.47680664,-91.31596000
7.50732422,-89.03352000
7.53784180,-90.43301000
7.56835938,-96.67636000
7.59887695,-102.38170000
7.62939453,-97.84924000
7.65991211,-91.86784000
7.69042969,-90.99263000
7.72094727,-97.68973000
7.75146484,-97.37151000
7.78198242,-88.89661000
7.81250000,-88.58267000
7.84301758,-97.19872000
7.87353516,-94.33648000
7.90405273,-91.08450000
7.93457031,-90.76733000
7.96508789,-86.38505000
7.99560547,-84.40411000
8.02612305,-83.56137000
8.05664063,-82.65395000
8.08715820,-82.32718000
8.11767578,-82.32243000
8.14819336,-82.75508000
8.17871094,-84.68693000
8.20922852,-87.46624000
8.23974609,-85.10449000
8.27026367,-83.85227000
8.30078125,-87.55415000
8.33129883,-99.20485000
8.36181641,-91.19096000
8.39233398,-86.51933000
8.42285156,-85.27511000
8.45336914,-86.84708000
8.48388672,-90.34125000
8.51440430,-95.59295000
8.54492188,-109.19010000
8.57543945,-93.34164000
8.60595703,-91.68449000
8.63647461,-96.22481000
8.66699219,-89.38409000
8.69750977,-85.31660000
8.72802734,-85.04620000
8.75854492,-88.30216000
8.78906250,-94.94403000
8.81958008,-98.41320000
8.85009766,-107.25540000
8.88061523,-93.13783000
8.91113281,-87.82177000
8.94165039,-87.44554000
8.97216797,-91.50337000
9.00268555,-98.77694000
9.03320313,-94.29604000
9.06372070,-89.23375000
9.09423828,-87.72009000
9.12475586,-88.82468000
9.15527344,-90.61306000
9.18579102,-89.48739000
9.21630859,-86.99121000
9.24682617,-86.00835000
9.27734375,-85.42252000
9.30786133,-84.99416000
9.33837891,-86.24954000
9.36889648,-91.65953000
9.39941406,-100.65380000
9.42993164,-90.56548000
9.46044922,-90.62386000
9.49096680,-98.35245000
9.52148438,-99.57872000
9.55200195,-92.71184000
9.58251953,-86.96473000
9.61303711,-84.43847000
9.64355469,-85.67120000
9.67407227,-89.89359000
9.70458984,-95.11876000
9.73510742,-101.56160000
9.76562500,-98.87849000
9.79614258,-91.59412000
9.82666016,-87.86805000
9.85717773,-87.46906000
9.88769531,-92.28547000
9.91821289,-99.42066000
9.94873047,-92.15771000
9.97924805,-90.85491000
10.00976563,-90.07364000
10.04028320,-93.25102000
10.07080078,-90.22403000
10.10131836,-86.48856000
10.13183594,-86.10648000
10.16235352,-84.77274000
10.19287109,-84.85907000
10.22338867,-86.98592000
10.25390625,-83.99957000
10.28442383,-79.46636000
10.31494141,-78.08487000
10.34545898,-80.63829000
10.37597656,-89.56880000
10.40649414,-93.08629000
10.43701172,-86.38210000
10.46752930,-87.57410000
10.49804688,-90.76961000
10.52856445,-85.25115000
10.55908203,-82.98338000
10.58959961,-83.41286000
10.62011719,-84.17290000
10.65063477,-82.78686000
10.68115234,-80.20428000
10.71166992,-78.96359000
10.74218750,-80.19951000
10.77270508,-84.16908000
10.80322266,-90.77216000
10.83374023,-110.87300000
10.86425781,-93.37974000
10.89477539,-90.60776000
10.92529297,-92.73541000
10.95581055,-86.21631000
10.98632813,-82.15498000
11.01684570,-80.72179000
11.04736328,-80.19492000
11.07788086,-79.86731000
11.10839844,-80.18604000
11.13891602,-81.98499000
11.16943359,-84.99000000
11.19995117,-87.82391000
11.23046875,-87.25948000
11.26098633,-80.87547000
11.29150391,-76.71011000
11.32202148,-75.28374000
11.35253906,-76.19070000
11.38305664,-79.04639000
11.41357422,-83.17851000
11.44409180,-87.41496000
11.47460938,-91.23780000
11.50512695,-98.83264000
11.53564453,-91.45937000
11.56616211,-84.93765000
11.59667969,-81.04216000
11.62719727,-78.48952000
11.65771484,-78.22443000
11.68823242,-80.72846000
11.71875000,-85.30392000
11.74926758,-87.49770000
11.77978516,-85.82021000
11.81030273,-84.89294000
11.84082031,-88.48215000
11.87133789,-91.87363000
11.90185547,-86.60923000
11.93237305,-87.21706000
11.96289063,-94.14662000
11.99340820,-96.41927000
12.02392578,-92.51148000
12.05444336,-83.44556000
12.08496094,-79.15173000
12.11547852,-78.36427000
12.14599609,-80.49203000
12.17651367,-82.20023000
12.20703125,-80.21417000
12.23754883,-79.96606000
12.26806641,-80.84286000
12.29858398,-81.42229000
12.32910156,-80.04977000
12.35961914,-77.17146000
12.39013672,-75.79204000
12.42065430,-76.12378000
12.45117188,-77.93282000
12.48168945,-81.15460000
12.51220703,-84.45792000
12.54272461,-84.80684000
12.57324219,-83.27813000
12.60375977,-83.45643000
12.63427734,-87.12693000
12.66479492,-88.89176000
12.69531250,-82.40723000
12.72583008,-78.72072000
12.75634766,-77.80595000
12.78686523,-79.66930000
12.81738281,-84.96317000
12.84790039,-91.99014000
12.87841797,-88.77061000
12.90893555,-85.40881000
12.93945313,-81.19264000
12.96997070,-76.85733000
13.00048828,-74.31938000
13.03100586,-74.45855000
13.06152344,-77.81046000
13.09204102,-85.00563000
13.12255859,-93.31852000
13.15307617,-105.86730000
13.18359375,-91.57272000
13.21411133,-84.76402000
13.24462891,-81.20324000
13.27514648,-78.28503000
13.30566406,-75.71192000
13.33618164,-74.53814000
13.36669922,-75.72214000
13.39721680,-80.54718000
13.42773438,-90.78648000
13.45825195,-78.64111000
13.48876953,-71.29516000
13.51928711,-66.80871000
13.54980469,-65.03411000
13.58032227,-66.02376000
13.61083984,-69.11409000
13.64135742,-71.19048000
13.67187500,-70.69138000
13.70239258,-70.30296000
13.73291016,-71.63123000
13.76342773,-74.92953000
13.79394531,-79.06200000
13.82446289,-82.30223000
13.85498047,-85.28012000
13.88549805,-94.46819000
13.91601563,-87.98331000
13.94653320,-80.45047000
13.97705078,-77.09917000
14.00756836,-75.36273000
14.03808594,-74.63260000
14.06860352,-75.02592000
14.09912109,-77.08444000
14.12963867,-81.38402000
14.16015625,-84.37212000
14.19067383,-83.96590000
14.22119141,-86.77557000
14.25170898,-88.34123000
14.28222656,-84.35096000
14.31274414,-81.72112000
14.34326172,-79.29904000
14.37377930,-76.71578000
14.40429688,-75.68999000
14.43481445,-77.10538000
14.46533203,-81.48029000
14.49584961,-92.48148000
14.52636719,-88.28560000
14.55688477,-82.07161000
14.58740234,-82.39705000
14.61791992,-90.75429000
14.64843750,-91.56895000
14.67895508,-85.02356000
14.70947266,-84.11902000
14.73999023,-83.76881000
14.77050781,-84.13893000
14.80102539,-87.80081000
14.83154297,-106.85910000
14.86206055,-89.62775000
14.89257813,-86.41280000
14.92309570,-86.81713000
14.95361328,-88.00389000
14.98413086,-87.86292000
15.01464844,-86.94625000
15.04516602,-87.99236000
15.07568359,-93.97782000
15.10620117,-102.88290000
15.13671875,-94.51358000
15.16723633,-93.61722000
15.19775391,-91.26583000
15.22827148,-92.31326000
15.25878906,-102.86520000
15.28930664,-98.63071000
15.31982422,-102.62930000
15.35034180,-90.24643000
15.38085938,-82.56313000
15.41137695,-80.57835000
15.44189453,-83.32795000
15.47241211,-89.85466000
15.50292969,-86.81751000
15.53344727,-83.13896000
15.56396484,-80.51874000
15.59448242,-80.17795000
15.62500000,-82.31620000
15.65551758,-85.80636000
15.68603516,-88.70619000
15.71655273,-89.19631000
15.74707031,-89.06569000
15.77758789,-89.93784000
15.80810547,-90.66452000
15.83862305,-91.52838000
15.86914063,-95.02673000
15.89965820,-97.32887000
15.93017578,-89.80141000
15.96069336,-86.58994000
15.99121094,-86.60464000
16.02172852,-87.76752000
16.05224609,-87.74922000
16.08276367,-87.14287000
16.11328125,-88.27605000
16.14379883,-93.86723000
16.17431641,-104.46140000
16.20483398,-93.97034000
16.23535156,-91.86188000
16.26586914,-90.33076000
16.29638672,-89.18059000
16.32690430,-89.15262000
16.35742188,-88.83068000
16.38793945,-91.05444000
16.41845703,-107.76220000
16.44897461,-92.57572000
16.47949219,-87.83042000
16.51000977,-87.42664000
16.54052734,-90.27172000
16.57104492,-97.99477000
16.60156250,-95.72221000
16.63208008,-93.31162000
16.66259766,-96.03204000
16.69311523,-93.33070000
16.72363281,-89.52516000
16.75415039,-88.92381000
16.78466797,-89.96957000
16.81518555,-90.70982000
16.84570313,-90.45586000
16.87622070,-90.74349000
16.90673828,-92.36110000
16.93725586,-93.91699000
16.96777344,-93.09071000
16.99829102,-91.02288000
17.02880859,-90.19724000
17.05932617,-91.89890000
17.08984375,-96.38007000
17.12036133,-99.31632000
17.15087891,-95.61865000
17.18139648,-93.11969000
17.21191406,-95.96690000
17.24243164,-95.16564000
17.27294922,-89.22929000
17.30346680,-87.93074000
17.33398438,-89.72958000
17.36450195,-91.41156000
17.39501953,-89.96794000
17.42553711,-88.26410000
17.45605469,-88.85641000
17.48657227,-93.81715000
17.51708984,-92.93739000
17.54760742,-87.89285000
17.57812500,-87.08938000
17.60864258,-89.23519000
17.63916016,-90.28991000
17.66967773,-85.38784000
17.70019531,-81.45966000
17.73071289,-79.25047000
17.76123047,-77.28195000
17.79174805,-75.46064000
17.82226563,-75.30682000
17.85278320,-77.64027000
17.88330078,-82.53554000
17.91381836,-88.78925000
17.94433594,-93.56184000
17.97485352,-94.68635000
18.00537109,-94.50732000
18.03588867,-98.27560000
18.06640625,-127.99360000
18.09692383,-99.53301000
18.12744141,-97.27597000
18.15795898,-95.37731000
18.18847656,-91.45443000
18.21899414,-89.69102000
18.24951172,-91.00903000
18.28002930,-95.97314000
18.31054688,-97.58290000
18.34106445,-94.65508000
18.37158203,-95.61909000
18.40209961,-98.51262000
18.43261719,-95.83691000
18.46313477,-91.40774000
18.49365234,-89.70414000
18.52416992,-90.71629000
18.55468750,-93.61697000
18.58520508,-94.92308000
18.61572266,-93.42368000
18.64624023,-92.04640000
18.67675781,-91.75457000
18.70727539,-93.03087000
18.73779297,-95.31229000
18.76831055,-97.34866000
18.79882813,-101.39070000
18.82934570,-110.01630000
18.85986328,-108.78070000
18.89038086,-105.82450000
18.92089844,-109.05460000
18.95141602,-109.71280000
18.98193359,-97.29472000
19.01245117,-92.84421000
19.04296875,-91.77863000
19.07348633,-93.37292000
19.10400391,-97.88028000
19.13452148,-107.07680000
19.16503906,-114.82910000
19.19555664,-115.85500000
19.22607422,-103.30600000
19.25659180,-98.77395000
19.28710938,-97.32303000
19.31762695,-96.48495000
19.34814453,-96.77822000
19.37866211,-100.45940000
19.40917969,-118.56640000
19.43969727,-101.48310000
19.47021484,-98.81010000
19.50073242,-104.06940000
19.53125000,-109.11020000
19.56176758,-99.60644000
19.59228516,-98.79800000
19.62280273,-100.13630000
19.65332031,-101.10210000
19.68383789,-106.35230000
19.71435547,-104.60550000
19.74487305,-93.49527000
19.77539063,-89.17072000
19.80590820,-87.73621000
19.83642578,-89.00506000
19.86694336,-94.38515000
19.89746094,-99.53736000
19.92797852,-93.14922000
19.95849609,-90.97397000
19.98901367,-90.73937000
20.01953125,-91.79857000
20.05004883,-93.52222000
20.08056641,-94.66109000
20.11108398,-94.70479000
20.14160156,-92.78839000
20.17211914,-92.06677000
20.20263672,-94.66438000
20.23315430,-96.61459000
20.26367188,-92.51107000
20.29418945,-89.99094000
20.32470703,-89.77699000
20.35522461,-91.05579000
20.38574219,-92.44465000
20.41625977,-93.81547000
20.44677734,-98.36740000
20.47729492,-106.10620000
20.50781250,-92.28668000
20.53833008,-88.89108000
20.56884766,-89.27949000
20.59936523,-92.09888000
20.62988281,-95.67096000
20.66040039,-97.54208000
20.69091797,-97.90170000
20.72143555,-99.25744000
20.75195313,-102.05000000
20.78247070,-103.10020000
20.81298828,-106.00780000
20.84350586,-102.75480000
20.87402344,-98.57022000
20.90454102,-96.35747000
20.93505859,-94.33590000
20.96557617,-94.35046000
20.99609375,-96.68870000
21.02661133,-99.59495000
21.05712891,-100.14610000
21.08764648,-98.58261000
21.11816406,-97.25651000
21.14868164,-97.42403000
21.17919922,-98.64933000
21.20971680,-99.19278000
21.24023438,-103.25100000
21.27075195,-108.43280000
21.30126953,-99.16997000
21.33178711,-97.04922000
21.36230469,-94.27657000
21.39282227,-91.90751000
21.42333984,-92.07315000
21.45385742,-95.25804000
21.48437500,-98.65349000
21.51489258,-93.38284000
21.54541016,-89.74623000
21.57592773,-88.72284000
21.60644531,-89.52866000
21.63696289,-91.54939000
21.66748047,-94.49680000
21.69799805,-96.40464000
21.72851563,-94.05658000
21.75903320,-93.19969000
21.78955078,-96.51483000
21.82006836,-97.02126000
21.85058594,-91.40427000
21.88110352,-89.71255000
21.91162109,-90.81841000
21.94213867,-92.16473000
21.97265625,-91.25894000
22.00317383,-90.65014000
22.03369141,-92.49767000
22.06420898,-99.04202000
22.09472656,-111.98190000
22.12524414,-97.98682000
22.15576172,-93.91380000
22.18627930,-91.94214000
22.21679688,-92.31422000
22.24731445,-95.55937000
22.27783203,-100.67730000
22.30834961,-100.13220000
22.33886719,-99.67994000
22.36938477,-101.18560000
22.39990234,-104.66170000
22.43041992,-107.26270000
22.46093750,-102.17550000
22.49145508,-100.88180000
22.52197266,-103.85400000
22.55249023,-110.47720000
22.58300781,-99.78749000
22.61352539,-94.65397000
22.64404297,-92.78861000
22.67456055,-92.92896000
22.70507813,-95.10957000
22.73559570,-99.96698000
22.76611328,-97.95411000
22.79663086,-93.73672000
22.82714844,-92.41528000
22.85766602,-92.59594000
22.88818359,-92.92575000
22.91870117,-92.29291000
22.94921875,-91.17530000
22.97973633,-90.61260000
23.01025391,-91.21170000
23.04077148,-93.08678000
23.07128906,-94.82308000
23.10180664,-94.63446000
23.13232422,-94.86309000
23.16284180,-97.12128000
23.19335938,-99.14825000
23.22387695,-99.33200000
23.25439453,-99.51165000
23.28491211,-95.85110000
23.31542969,-93.33635000
23.34594727,-93.83926000
23.37646484,-96.25432000
23.40698242,-97.85316000
23.43750000,-99.14861000
23.46801758,-99.74638000
23.49853516,-97.98248000
23.52905273,-97.59403000
23.55957031,-100.58610000
23.59008789,-105.60110000
23.62060547,-103.80530000
23.65112305,-105.25250000
23.68164063,-102.78890000
23.71215820,-99.23502000
23.74267578,-97.60118000
23.77319336,-96.62384000
23.80371094,-96.12595000
23.83422852,-96.61251000
23.86474609,-98.04162000
23.89526367,-97.99888000
23.92578125,-95.31616000
23.95629883,-91.79713000
23.98681641,-89.56386000
24.01733398,-89.44343000
24.04785156,-91.63992000
24.07836914,-96.35074000
24.10888672,-102.55280000
24.13940430,-104.10660000
24.16992188,-103.26590000
24.20043945,-105.00010000
24.23095703,-111.17970000
24.26147461,-113.74620000
24.29199219,-108.90790000
24.32250977,-104.34310000
24.35302734,-100.57230000
24.38354492,-98.00153000
24.41406250,-98.01395000
24.44458008,-102.57070000
24.47509766,-124.59100000
24.50561523,-109.97320000
24.53613281,-109.36530000
24.56665039,-102.66570000
24.59716797,-99.44571000
24.62768555,-97.30716000
24.65820313,-95.28830000
24.68872070,-94.63792000
24.71923828,-95.92807000
24.74975586,-101.10210000
24.78027344,-105.60400000
24.81079102,-99.54417000
24.84130859,-98.66288000
24.87182617,-99.86656000
24.90234375,-101.02640000
24.93286133,-98.73767000
24.96337891,-96.49033000
24.99389648,-94.86752000
25.02441406,-92.84218000
25.05493164,-91.18323000
25.08544922,-90.29996000
25.11596680,-91.00183000
25.14648438,-94.47781000
25.17700195,-101.94460000
25.20751953,-101.77070000
25.23803711,-101.42050000
25.26855469,-107.29980000
25.29907227,-106.22130000
25.32958984,-100.42480000
25.36010742,-95.29075000
25.39062500,-91.30344000
25.42114258,-89.28484000
25.45166016,-89.71468000
25.48217773,-93.29398000
25.51269531,-102.49920000
25.54321289,-100.38430000
25.57373047,-96.27236000
25.60424805,-95.25179000
25.63476563,-96.22565000
25.66528320,-99.25253000
25.69580078,-103.08440000
25.72631836,-105.02510000
25.75683594,-102.75210000
25.78735352,-99.17091000
25.81787109,-98.55209000
25.84838867,-102.92550000
25.87890625,-112.26110000
25.90942383,-102.50610000
25.93994141,-97.23734000
25.97045898,-96.22575000
26.00097656,-97.51339000
26.03149414,-99.09195000
26.06201172,-101.92070000
26.09252930,-103.32930000
26.12304688,-99.52674000
26.15356445,-98.38722000
26.18408203,-101.50210000
26.21459961,-119.27120000
26.24511719,-98.72926000
26.27563477,-93.72255000
26.30615234,-93.18829000
26.33666992,-96.58131000
26.36718750,-104.15130000
26.39770508,-109.37070000
26.42822266,-108.25770000
26.45874023,-108.54670000
26.48925781,-115.61840000
26.51977539,-115.48350000
26.55029297,-102.76920000
26.58081055,-98.47465000
26.61132813,-98.79678000
26.64184570,-99.02581000
26.67236328,-96.00884000
26.70288086,-94.55830000
26.73339844,-95.36457000
26.76391602,-98.71489000
26.79443359,-105.71440000
26.82495117,-103.68480000
26.85546875,-98.61718000
26.88598633,-98.57029000
26.91650391,-101.63180000
26.94702148,-103.92710000
26.97753906,-109.18410000
27.00805664,-106.20010000
27.03857422,-100.22050000
27.06909180,-97.09369000
27.09960938,-95.29449000
27.13012695,-95.56098000
27.16064453,-95.85315000
27.19116211,-93.32498000
27.22167969,-91.97556000
27.25219727,-92.85043000
27.28271484,-95.66769000
27.31323242,-99.18338000
27.34375000,-98.37009000
27.37426758,-97.12389000
27.40478516,-98.80061000
27.43530273,-101.04980000
27.46582031,-97.40655000
27.49633789,-93.16307000
27.52685547,-91.52975000
27.55737305,-93.14973000
27.58789063,-97.46851000
27.61840820,-97.35546000
27.64892578,-98.16497000
27.67944336,-101.85590000
27.70996094,-96.04771000
27.74047852,-94.33507000
27.77099609,-97.44246000
27.80151367,-104.27990000
27.83203125,-104.60730000
27.86254883,-104.17240000
27.89306641,-101.00680000
27.92358398,-99.22298000
27.95410156,-100.86070000
27.98461914,-104.76450000
28.01513672,-101.23180000
28.04565430,-96.76856000
28.07617188,-95.52693000
28.10668945,-96.10386000
28.13720703,-96.69739000
28.16772461,-99.69176000
28.19824219,-112.67980000
28.22875977,-101.28530000
28.25927734,-98.21382000
28.28979492,-100.87840000
28.32031250,-107.32610000
28.35083008,-97.29274000
28.38134766,-92.98804000
28.41186523,-91.92405000
28.44238281,-92.68326000
28.47290039,-93.80721000
28.50341797,-94.22054000
28.53393555,-94.59640000
28.56445313,-94.46187000
28.59497070,-93.19508000
28.62548828,-92.06963000
28.65600586,-92.07004000
28.68652344,-92.82558000
28.71704102,-94.86800000
28.74755859,-99.26445000
28.77807617,-97.58797000
28.80859375,-95.39196000
28.83911133,-96.02599000
28.86962891,-95.66290000
28.90014648,-95.12042000
28.93066406,-96.95367000
28.96118164,-99.07137000
28.99169922,-99.11850000
29.02221680,-99.65847000
29.05273438,-97.32860000
29.08325195,-94.88451000
29.11376953,-95.25342000
29.14428711,-98.88764000
29.17480469,-101.96900000
29.20532227,-96.80664000
29.23583984,-93.31032000
29.26635742,-92.09473000
29.29687500,-92.57883000
29.32739258,-94.55643000
29.35791016,-97.94342000
29.38842773,-100.38220000
29.41894531,-98.95201000
29.44946289,-95.97710000
29.47998047,-95.16311000
29.51049805,-98.60401000
29.54101563,-103.40490000
29.57153320,-97.68144000
29.60205078,-98.06225000
29.63256836,-104.49440000
29.66308594,-103.38640000
29.69360352,-100.70720000
29.72412109,-96.44524000
29.75463867,-93.75615000
29.78515625,-93.81190000
29.81567383,-96.29790000
29.84619141,-98.68226000
29.87670898,-97.74101000
29.90722656,-95.46510000
29.93774414,-92.60448000
29.96826172,-90.51380000
29.99877930,-89.95670000
30.02929688,-90.31757000
30.05981445,-90.95618000
30.09033203,-92.57522000
30.12084961,-95.71393000
30.15136719,-99.72398000
30.18188477,-103.66550000
30.21240234,-107.02960000
30.24291992,-105.73150000
30.27343750,-106.05160000
30.30395508,-111.04830000
30.33447266,-105.86180000
30.36499023,-98.65475000
30.39550781,-96.05089000
30.42602539,-96.93312000
30.45654297,-98.58361000
30.48706055,-101.89590000
30.51757813,-105.91660000
30.54809570,-97.43346000
30.57861328,-97.17972000
30.60913086,-100.94100000
30.63964844,-95.05573000
30.67016602,-91.06792000
30.70068359,-89.95729000
30.73120117,-91.34881000
30.76171875,-95.04004000
30.79223633,-97.11005000
30.82275391,-95.82579000
30.85327148,-96.11492000
30.88378906,-99.74918000
30.91430664,-100.76500000
30.94482422,-94.00050000
30.97534180,-90.85870000
31.00585938,-89.65105000
31.03637695,-89.01844000
31.06689453,-88.72681000
31.09741211,-89.34238000
31.12792969,-91.73924000
31.15844727,-97.51221000
31.18896484,-109.77890000
31.21948242,-99.42722000
31.25000000,-95.27454000
31.28051758,-93.43881000
31.31103516,-93.03883000
31.34155273,-94.12720000
31.37207031,-97.98448000
31.40258789,-122.41670000
31.43310547,-96.71506000
31.46362305,-92.01367000
31.49414063,-91.76343000
31.52465820,-94.23283000
31.55517578,-96.71973000
31.58569336,-97.26047000
31.61621094,-97.26714000
31.64672852,-97.33789000
31.67724609,-96.03450000
31.70776367,-92.81686000
31.73828125,-90.71802000
31.76879883,-90.59518000
31.79931641,-93.03740000
31.82983398,-99.88814000
31.86035156,-96.34483000
31.89086914,-91.69905000
31.92138672,-91.33408000
31.95190430,-92.10426000
31.98242188,-90.47307000
32.01293945,-88.75794000
32.04345703,-88.20554000
32.07397461,-88.71962000
32.10449219,-90.70133000
32.13500977,-94.60206000
32.16552734,-99.79959000
32.19604492,-101.82890000
32.22656250,-98.47894000
32.25708008,-94.96467000
32.28759766,-92.99551000
32.31811523,-92.05389000
32.34863281,-92.67949000
32.37915039,-96.32921000
32.40966797,-105.13170000
32.44018555,-122.02820000
32.47070313,-109.74710000
32.50122070,-102.96770000
32.53173828,-103.06960000
32.56225586,-107.62780000
32.59277344,-111.14010000
32.62329102,-113.05620000
32.65380859,-101.91560000
32.68432617,-98.78210000
32.71484375,-98.65596000
32.74536133,-96.51383000
32.77587891,-94.78522000
32.80639648,-95.15560000
32.83691406,-95.80922000
32.86743164,-94.93781000
32.89794922,-93.81105000
32.92846680,-94.28666000
32.95898438,-96.83385000
32.98950195,-99.91005000
33.02001953,-100.17630000
33.05053711,-97.82907000
33.08105469,-95.34723000
33.11157227,-93.89240000
33.14208984,-94.36989000
33.17260742,-98.60520000
33.20312500,-107.82290000
33.23364258,-97.11312000
33.26416016,-92.74870000
33.29467773,-90.77554000
33.32519531,-90.30010000
33.35571289,-91.18265000
33.38623047,-93.37303000
33.41674805,-96.23491000
33.44726563,-97.31197000
33.47778320,-96.82640000
33.50830078,-96.57396000
33.53881836,-96.43665000
33.56933594,-96.66500000
33.59985352,-98.51945000
33.63037109,-104.29210000
33.66088867,-112.74680000
33.69140625,-102.26390000
33.72192383,-98.03674000
33.75244141,-96.24856000
33.78295898,-97.25677000
33.81347656,-102.32900000
33.84399414,-111.59880000
33.87451172,-109.84070000
33.90502930,-97.98830000
33.93554688,-93.94314000
33.96606445,-94.09669000
33.99658203,-97.76077000
34.02709961,-103.24430000
34.05761719,-101.22000000
34.08813477,-98.77202000
34.11865234,-99.38812000
34.14916992,-105.80500000
34.17968750,-102.78100000
34.21020508,-95.76472000
34.24072266,-94.86798000
34.27124023,-99.53639000
34.30175781,-106.33670000
34.33227539,-97.03674000
34.36279297,-95.24141000
34.39331055,-96.89610000
34.42382813,-99.78875000
34.45434570,-100.44770000
34.48486328,-99.63797000
34.51538086,-99.40346000
34.54589844,-99.51407000
34.57641602,-99.84852000
34.60693359,-100.87840000
34.63745117,-102.85920000
34.66796875,-103.67060000
34.69848633,-101.76800000
34.72900391,-104.06880000
34.75952148,-109.17210000
34.79003906,-97.57349000
34.82055664,-94.18621000
34.85107422,-94.12231000
34.88159180,-95.75841000
34.91210938,-97.49892000
34.94262695,-96.87432000
34.97314453,-95.14664000
35.00366211,-94.21020000
35.03417969,-93.74870000
35.06469727,-93.61337000
35.09521484,-94.03590000
35.12573242,-95.25983000
35.15625000,-98.23885000
35.18676758,-106.60770000
35.21728516,-110.68650000
35.24780273,-103.51540000
35.27832031,-105.21400000
35.30883789,-111.76840000
35.33935547,-112.60120000
35.36987305,-104.05590000
35.40039063,-97.73859000
35.43090820,-94.28235000
35.46142578,-92.92413000
35.49194336,-93.40022000
35.52246094,-95.71797000
35.55297852,-99.08959000
35.58349609,-101.12280000
35.61401367,-103.64830000
35.64453125,-101.19030000
35.67504883,-96.39256000
35.70556641,-94.83990000
35.73608398,-96.16664000
35.76660156,-99.59380000
35.79711914,-99.25307000
35.82763672,-97.16486000
35.85815430,-98.02364000
35.88867188,-101.65630000
35.91918945,-108.39630000
35.94970703,-114.99340000
35.98022461,-102.89020000
36.01074219,-99.49434000
36.04125977,-99.68979000
36.07177734,-102.26290000
36.10229492,-102.39500000
36.13281250,-100.58640000
36.16333008,-100.49270000
36.19384766,-101.32090000
36.22436523,-102.16160000
36.25488281,-103.58130000
36.28540039,-103.02350000
36.31591797,-99.66920000
36.34643555,-100.01900000
36.37695313,-104.19240000
36.40747070,-101.60360000
36.43798828,-99.16870000
36.46850586,-100.77440000
36.49902344,-104.67960000
36.52954102,-104.10900000
36.56005859,-99.14487000
36.59057617,-94.55094000
36.62109375,-92.22775000
36.65161133,-92.65222000
36.68212891,-97.00127000
36.71264648,-121.58780000
36.74316406,-96.35341000
36.77368164,-91.95096000
36.80419922,-91.16997000
36.83471680,-92.67666000
36.86523438,-95.46494000
36.89575195,-97.21840000
36.92626953,-97.44690000
36.95678711,-95.56668000
36.98730469,-94.04015000
37.01782227,-95.55267000
37.04833984,-101.64880000
37.07885742,-113.46220000
37.10937500,-107.75670000
37.13989258,-110.16730000
37.17041016,-118.70880000
37.20092773,-103.79030000
37.23144531,-98.90789000
37.26196289,-97.16168000
37.29248047,-96.42072000
37.32299805,-94.80257000
37.35351563,-92.69041000
37.38403320,-91.28467000
37.41455078,-91.12975000
37.44506836,-92.69189000
37.47558594,-96.63840000
37.50610352,-101.62250000
37.53662109,-100.20900000
37.56713867,-99.87758000
37.59765625,-102.14360000
37.62817383,-100.72360000
37.65869141,-98.23694000
37.68920898,-98.30600000
37.71972656,-100.40980000
37.75024414,-102.92060000
37.78076172,-107.86270000
37.81127930,-120.53210000
37.84179688,-105.61970000
37.87231445,-103.27880000
37.90283203,-100.14920000
37.93334961,-94.75529000
37.96386719,-91.56665000
37.99438477,-90.42457000
38.02490234,-90.25582000
38.05541992,-90.34324000
38.08593750,-90.94394000
38.11645508,-92.23245000
38.14697266,-93.84888000
38.17749023,-95.65625000
38.20800781,-97.57684000
38.23852539,-98.46268000
38.26904297,-97.03815000
38.29956055,-94.73190000
38.33007813,-93.29475000
38.36059570,-93.06879000
38.39111328,-93.32716000
38.42163086,-93.35075000
38.45214844,-93.44157000
38.48266602,-93.87638000
38.51318359,-94.19045000
38.54370117,-95.14302000
38.57421875,-98.17305000
38.60473633,-99.99969000
38.63525391,-99.20367000
38.66577148,-99.80014000
38.69628906,-98.68275000
38.72680664,-95.05940000
38.75732422,-92.32067000
38.78784180,-91.80360000
38.81835938,-93.90102000
38.84887695,-97.84708000
38.87939453,-98.25642000
38.90991211,-98.22763000
38.94042969,-100.72200000
38.97094727,-102.69450000
39.00146484,-99.97086000
39.03198242,-95.60802000
39.06250000,-92.69093000
39.09301758,-91.23381000
39.12353516,-90.93867000
39.15405273,-91.89139000
39.18457031,-94.64874000
39.21508789,-100.61140000
39.24560547,-104.60750000
39.27612305,-95.45159000
39.30664063,-91.36158000
39.33715820,-90.74647000
39.36767578,-93.79859000
39.39819336,-96.78260000
39.42871094,-91.25152000
39.45922852,-89.16001000
39.48974609,-91.29630000
39.52026367,-98.53291000
39.55078125,-96.92508000
39.58129883,-93.47963000
39.61181641,-91.00636000
39.64233398,-89.97398000
39.67285156,-93.74672000
39.70336914,-109.46710000
39.73388672,-92.26617000
39.76440430,-89.66322000
39.79492188,-90.50032000
39.82543945,-90.81313000
39.85595703,-89.00277000
39.88647461,-88.90520000
39.91699219,-92.07462000
39.94750977,-100.30470000
39.97802734,-107.91790000
40.00854492,-98.63869000
40.03906250,-97.01755000
40.06958008,-97.91549000
40.10009766,-94.40797000
40.13061523,-90.37391000
40.16113281,-88.76692000
40.19165039,-89.81884000
40.22216797,-95.19516000
40.25268555,-103.58800000
40.28320313,-92.59282000
40.31372070,-89.65433000
40.34423828,-89.55241000
40.37475586,-91.12061000
40.40527344,-94.40331000
40.43579102,-98.57829000
40.46630859,-94.53018000
40.49682617,-90.92813000
40.52734375,-90.70258000
40.55786133,-93.56149000
40.58837891,-96.84837000
40.61889648,-95.00993000
40.64941406,-93.93546000
40.67993164,-93.04475000
40.71044922,-91.73618000
40.74096680,-92.74039000
40.77148438,-93.78369000
40.80200195,-91.85091000
40.83251953,-92.13248000
40.86303711,-94.91624000
40.89355469,-97.24364000
40.92407227,-96.68480000
40.95458984,-95.89012000
40.98510742,-93.17020000
41.01562500,-90.02638000
41.04614258,-88.06385000
41.07666016,-87.19048000
41.10717773,-87.30356000
41.13769531,-88.42370000
41.16821289,-91.20907000
41.19873047,-96.28948000
41.22924805,-99.01900000
41.25976563,-94.20355000
41.29028320,-88.30299000
41.32080078,-85.48466000
41.35131836,-85.07579000
41.38183594,-85.93769000
41.41235352,-87.80385000
41.44287109,-91.60260000
41.47338867,-95.24858000
41.50390625,-91.71396000
41.53442383,-88.54602000
41.56494141,-87.24083000
41.59545898,-87.90566000
41.62597656,-91.10973000
41.65649414,-98.72440000
41.68701172,-95.61189000
41.71752930,-90.04550000
41.74804688,-89.24801000
41.77856445,-93.57973000
41.80908203,-116.02780000
41.83959961,-96.02348000
41.87011719,-97.44889000
41.90063477,-99.72305000
41.93115234,-93.05129000
41.96166992,-92.25922000
41.99218750,-94.76615000
42.02270508,-94.92039000
42.05322266,-94.34720000
42.08374023,-95.38495000
42.11425781,-95.06647000
42.14477539,-94.36535000
42.17529297,-94.44573000
42.20581055,-93.47977000
42.23632813,-91.13908000
42.26684570,-90.28683000
42.29736328,-91.63670000
42.32788086,-93.42165000
42.35839844,-92.10870000
42.38891602,-89.37775000
42.41943359,-87.72133000
42.44995117,-87.48206000
42.48046875,-88.11897000
42.51098633,-89.13117000
42.54150391,-91.87623000
42.57202148,-96.02288000
42.60253906,-90.70644000
42.63305664,-88.56912000
42.66357422,-91.32935000
42.69409180,-102.34220000
42.72460938,-99.56676000
42.75512695,-96.23817000
42.78564453,-95.57440000
42.81616211,-92.30766000
42.84667969,-88.83533000
42.87719727,-86.92845000
42.90771484,-87.42534000
42.93823242,-91.22777000
42.96875000,-97.61032000
42.99926758,-97.20162000
43.02978516,-94.11530000
43.06030273,-90.94368000
43.09082031,-89.84882000
43.12133789,-90.94000000
43.15185547,-93.35125000
43.18237305,-94.47768000
43.21289063,-93.25382000
43.24340820,-91.81647000
43.27392578,-91.06380000
43.30444336,-91.81619000
43.33496094,-94.97420000
43.36547852,-101.72330000
43.39599609,-103.89010000
43.42651367,-101.40210000
43.45703125,-101.49920000
43.48754883,-95.06673000
43.51806641,-92.52708000
43.54858398,-95.59740000
43.57910156,-97.25432000
43.60961914,-93.46207000
43.64013672,-93.85393000
43.67065430,-93.99323000
43.70117188,-94.90822000
43.73168945,-106.10930000
43.76220703,-96.48764000
43.79272461,-90.56555000
43.82324219,-90.43663000
43.85375977,-94.86400000
43.88427734,-103.43460000
43.91479492,-97.35486000
43.94531250,-96.24078000
43.97583008,-97.73030000
44.00634766,-96.68952000
44.03686523,-96.69503000
44.06738281,-102.63430000
44.09790039,-99.96822000
44.12841797,-93.33274000
44.15893555,-91.79817000
44.18945313,-91.92208000
44.21997070,-91.77071000
44.25048828,-91.93985000
44.28100586,-92.91264000
44.31152344,-94.29050000
44.34204102,-93.70574000
44.37255859,-92.14394000
44.40307617,-91.42208000
44.43359375,-91.49321000
44.46411133,-92.72408000
44.49462891,-95.45258000
44.52514648,-98.14200000
44.55566406,-98.33994000
44.58618164,-98.61600000
44.61669922,-99.49606000
44.64721680,-97.10759000
44.67773438,-93.60983000
44.70825195,-92.00469000
44.73876953,-92.66720000
44.76928711,-95.87348000
44.79980469,-104.28630000
44.83032227,-106.69190000
44.86083984,-97.44991000
44.89135742,-92.54167000
44.92187500,-89.76501000
44.95239258,-89.65641000
44.98291016,-92.17397000
45.01342773,-96.39299000
45.04394531,-100.34640000
45.07446289,-105.31560000
45.10498047,-111.46870000
45.13549805,-107.47440000
45.16601563,-101.36410000
45.19653320,-101.18470000
45.22705078,-107.97560000
45.25756836,-100.67610000
45.28808594,-96.87398000
45.31860352,-98.44765000
45.34912109,-107.23930000
45.37963867,-103.49870000
45.41015625,-101.53290000
45.44067383,-104.44660000
45.47119141,-101.20220000
45.50170898,-97.72884000
45.53222656,-96.22545000
45.56274414,-96.37146000
45.59326172,-98.53812000
45.62377930,-102.31070000
45.65429688,-102.91250000
45.68481445,-100.44690000
45.71533203,-98.43884000
45.74584961,-97.50012000
45.77636719,-96.74350000
45.80688477,-95.26897000
45.83740234,-94.32921000
45.86791992,-94.38396000
45.89843750,-96.45199000
45.92895508,-103.45260000
45.95947266,-100.21960000
45.98999023,-94.98920000
46.02050781,-92.97833000
46.05102539,-92.06546000
46.08154297,-91.39406000
46.11206055,-90.70433000
46.14257813,-90.82123000
46.17309570,-93.99323000
46.20361328,-99.40129000
46.23413086,-92.15324000
46.26464844,-90.52062000
46.29516602,-92.82323000
46.32568359,-94.49287000
46.35620117,-96.02306000
46.38671875,-101.65250000
46.41723633,-99.77013000
46.44775391,-97.62994000
46.47827148,-100.33580000
46.50878906,-107.26890000
46.53930664,-101.97670000
46.56982422,-99.31250000
46.60034180,-101.11550000
46.63085938,-102.66210000
46.66137695,-102.80300000
46.69189453,-105.01340000
46.72241211,-101.47820000
46.75292969,-95.73058000
46.78344727,-92.12627000
46.81396484,-91.31779000
46.84448242,-93.13960000
46.87500000,-97.82536000
46.90551758,-110.99580000
46.93603516,-101.79010000
46.96655273,-97.45068000
46.99707031,-99.36800000
47.02758789,-98.44987000
47.05810547,-93.26518000
47.08862305,-91.75665000
47.11914063,-92.69242000
47.14965820,-93.91517000
47.18017578,-94.09599000
47.21069336,-95.48952000
47.24121094,-99.68015000
47.27172852,-101.12690000
47.30224609,-97.12997000
47.33276367,-94.44599000
47.36328125,-93.10423000
47.39379883,-93.50789000
47.42431641,-96.49614000
47.45483398,-103.55540000
47.48535156,-104.83360000
47.51586914,-97.96493000
47.54638672,-95.40130000
47.57690430,-95.98712000
47.60742188,-99.48436000
47.63793945,-101.87050000
47.66845703,-96.94582000
47.69897461,-93.62178000
47.72949219,-92.81911000
47.76000977,-94.22972000
47.79052734,-97.05457000
47.82104492,-98.89874000
47.85156250,-97.96813000
47.88208008,-95.62950000
47.91259766,-93.33948000
47.94311523,-91.77330000
47.97363281,-91.59297000
48.00415039,-93.33801000
48.03466797,-98.28018000
48.06518555,-113.13590000
48.09570313,-106.85270000
48.12622070,-106.12240000
48.15673828,-107.58530000
48.18725586,-102.78350000
48.21777344,-103.68380000
48.24829102,-109.54040000
48.27880859,-102.46590000
48.30932617,-97.28362000
48.33984375,-92.54506000
48.37036133,-90.06667000
48.40087891,-89.67563000
48.43139648,-90.85519000
48.46191406,-92.32474000
48.49243164,-92.75427000
48.52294922,-93.36227000
48.55346680,-95.06325000
48.58398438,-98.08311000
48.61450195,-104.09940000
48.64501953,-122.18340000
48.67553711,-115.43610000
48.70605469,-100.25340000
48.73657227,-93.41508000
48.76708984,-91.38933000
48.79760742,-93.05269000
48.82812500,-97.65823000
48.85864258,-101.66700000
48.88916016,-103.47140000
48.91967773,-104.03900000
48.95019531,-102.40070000
48.98071289,-104.62660000
49.01123047,-103.55180000
49.04174805,-97.24405000
49.07226563,-94.85773000
49.10278320,-94.23370000
49.13330078,-94.37526000
49.16381836,-92.86163000
49.19433594,-90.64551000
49.22485352,-90.44270000
49.25537109,-91.43384000
49.28588867,-91.18761000
49.31640625,-89.79967000
49.34692383,-89.25960000
49.37744141,-90.02792000
49.40795898,-91.24673000
49.43847656,-91.55080000
49.46899414,-91.22116000
49.49951172,-91.99152000
49.53002930,-95.02344000
49.56054688,-100.14010000
49.59106445,-96.75922000
49.62158203,-93.58778000
49.65209961,-94.51766000
49.68261719,-100.58280000
49.71313477,-104.65510000
49.74365234,-99.43768000
49.77416992,-96.28497000
49.80468750,-93.38139000
49.83520508,-93.27231000
49.86572266,-97.17828000
49.89624023,-107.69010000
49.92675781,-106.59760000
49.95727539,-102.73170000
49.98779297,-100.69750000
50.01831055,-101.42090000
