Frequency,Channel A
(MHz),(dBu)

0.00000000,-27.24320000
0.03051758,-27.62687000
0.06103516,-32.83821000
0.09155273,-42.20003000
0.12207031,-51.77627000
0.15258789,-54.91954000
0.18310547,-58.17006000
0.21362305,-61.58491000
0.24414063,-63.92189000
0.27465820,-61.40097000
0.30517578,-60.22413000
0.33569336,-59.01161000
0.36621094,-57.55106000
0.39672852,-57.09449000
0.42724609,-57.76043000
0.45776367,-58.79957000
0.48828125,-58.25191000
0.51879883,-56.39076000
0.54931641,-55.29376000
0.57983398,-54.95003000
0.61035156,-55.12403000
0.64086914,-55.98088000
0.67138672,-57.19532000
0.70190430,-57.38159000
0.73242188,-57.22466000
0.76293945,-58.00634000
0.79345703,-59.70747000
0.82397461,-62.32787000
0.85449219,-66.31520000
0.88500977,-73.49820000
0.91552734,-72.33338000
0.94604492,-64.52298000
0.97656250,-60.70314000
1.00708008,-59.09920000
1.03759766,-58.99182000
1.06811523,-59.87328000
1.09863281,-60.97433000
1.12915039,-61.51231000
1.15966797,-61.80719000
1.19018555,-62.35955000
1.22070313,-62.77090000
1.25122070,-62.49553000
1.28173828,-61.91741000
1.31225586,-61.56165000
1.34277344,-61.44804000
1.37329102,-61.59355000
1.40380859,-62.14753000
1.43432617,-63.05393000
1.46484375,-63.93398000
1.49536133,-64.78841000
1.52587891,-66.75755000
1.55639648,-71.15537000
1.58691406,-78.95882000
1.61743164,-72.02878000
1.64794922,-65.75845000
1.67846680,-63.15604000
1.70898438,-62.81407000
1.73950195,-63.53710000
1.77001953,-64.23238000
1.80053711,-64.91893000
1.83105469,-66.15446000
1.86157227,-67.84259000
1.89208984,-68.55757000
1.92260742,-67.08846000
1.95312500,-65.09370000
1.98364258,-63.80772000
2.01416016,-63.48266000
2.04467773,-64.15906000
2.07519531,-65.61671000
2.10571289,-66.88878000
2.13623047,-66.89851000
2.16674805,-66.16952000
2.19726563,-65.48109000
2.22778320,-65.02536000
2.25830078,-64.84059000
2.28881836,-64.97036000
2.31933594,-65.37476000
2.34985352,-65.85383000
2.38037109,-66.13383000
2.41088867,-66.12134000
2.44140625,-65.98358000
2.47192383,-65.87428000
2.50244141,-65.76053000
2.53295898,-65.46008000
2.56347656,-64.76913000
2.59399414,-63.86641000
2.62451172,-63.39302000
2.65502930,-63.87398000
2.68554688,-65.04770000
2.71606445,-65.57217000
2.74658203,-64.86675000
2.77709961,-63.94972000
2.80761719,-63.48169000
2.83813477,-63.48953000
2.86865234,-63.49347000
2.89916992,-63.13939000
2.92968750,-62.94563000
2.96020508,-63.54324000
2.99072266,-64.95153000
3.02124023,-66.31019000
3.05175781,-66.35709000
3.08227539,-65.30588000
3.11279297,-64.18318000
3.14331055,-63.47595000
3.17382813,-63.20615000
3.20434570,-63.13464000
3.23486328,-63.13535000
3.26538086,-63.33461000
3.29589844,-63.68744000
3.32641602,-63.85884000
3.35693359,-63.60423000
3.38745117,-63.10381000
3.41796875,-62.75873000
3.44848633,-62.78589000
3.47900391,-63.15590000
3.50952148,-63.71918000
3.54003906,-64.18109000
3.57055664,-64.13014000
3.60107422,-63.58323000
3.63159180,-62.96953000
3.66210938,-62.36746000
3.69262695,-61.64133000
3.72314453,-61.04353000
3.75366211,-61.01755000
3.78417969,-61.72740000
3.81469727,-62.77708000
3.84521484,-63.37618000
3.87573242,-63.51668000
3.90625000,-63.82141000
3.93676758,-64.29115000
3.96728516,-64.40808000
3.99780273,-64.14732000
4.02832031,-63.96999000
4.05883789,-64.12016000
4.08935547,-64.63622000
4.11987305,-65.24322000
4.15039063,-65.15363000
4.18090820,-64.32294000
4.21142578,-63.65430000
4.24194336,-63.46253000
4.27246094,-63.54446000
4.30297852,-63.85375000
4.33349609,-64.59306000
4.36401367,-65.79697000
4.39453125,-67.04807000
4.42504883,-67.64114000
4.45556641,-67.18497000
4.48608398,-66.08881000
4.51660156,-65.13264000
4.54711914,-64.73136000
4.57763672,-64.90197000
4.60815430,-65.51738000
4.63867188,-66.40166000
4.66918945,-67.19323000
4.69970703,-67.38901000
4.73022461,-66.77045000
4.76074219,-65.59612000
4.79125977,-64.53358000
4.82177734,-64.22888000
4.85229492,-64.80586000
4.88281250,-65.57944000
4.91333008,-65.62041000
4.94384766,-65.17879000
4.97436523,-64.76000000
5.00488281,-64.28220000
5.03540039,-63.75566000
5.06591797,-63.39108000
5.09643555,-63.38519000
5.12695313,-63.96812000
5.15747070,-65.39289000
5.18798828,-67.85992000
5.21850586,-71.78227000
5.24902344,-78.97468000
5.27954102,-94.09779000
5.31005859,-79.07497000
5.34057617,-75.79989000
5.37109375,-75.23242000
5.40161133,-75.74467000
5.43212891,-74.02164000
5.46264648,-70.18012000
5.49316406,-67.22399000
5.52368164,-65.55353000
5.55419922,-64.83508000
5.58471680,-64.49444000
5.61523438,-63.76722000
5.64575195,-62.55717000
5.67626953,-61.38291000
5.70678711,-60.41264000
5.73730469,-59.68802000
5.76782227,-59.46715000
5.79833984,-59.96415000
5.82885742,-60.93182000
5.85937500,-61.54132000
5.88989258,-61.28681000
5.92041016,-60.65612000
5.95092773,-60.06446000
5.98144531,-59.51042000
6.01196289,-59.04286000
6.04248047,-58.97537000
6.07299805,-59.71781000
6.10351563,-61.55866000
6.13403320,-64.48146000
6.16455078,-67.60052000
6.19506836,-68.44169000
6.22558594,-66.78828000
6.25610352,-64.98752000
6.28662109,-64.05083000
6.31713867,-64.12131000
6.34765625,-65.10489000
6.37817383,-66.92564000
6.40869141,-69.63447000
6.43920898,-73.29929000
6.46972656,-75.78075000
6.50024414,-72.91425000
6.53076172,-69.57880000
6.56127930,-67.71071000
6.59179688,-67.21431000
6.62231445,-67.98253000
6.65283203,-70.18439000
6.68334961,-74.60992000
6.71386719,-84.20424000
6.74438477,-83.64503000
6.77490234,-77.95831000
6.80541992,-75.96830000
6.83593750,-75.42531000
6.86645508,-74.60551000
6.89697266,-72.82275000
6.92749023,-71.93510000
6.95800781,-72.48572000
6.98852539,-73.75306000
7.01904297,-74.96493000
7.04956055,-76.15829000
7.08007813,-76.88137000
7.11059570,-76.44138000
7.14111328,-75.54915000
7.17163086,-75.40508000
7.20214844,-76.87461000
7.23266602,-81.30718000
7.26318359,-93.78669000
7.29370117,-83.75571000
7.32421875,-79.86990000
7.35473633,-79.58312000
7.38525391,-81.02341000
7.41577148,-83.58849000
7.44628906,-87.66929000
7.47680664,-85.84525000
7.50732422,-80.60977000
7.53784180,-78.77077000
7.56835938,-79.25380000
7.59887695,-80.42587000
7.62939453,-80.79784000
7.65991211,-81.20607000
7.69042969,-82.75565000
7.72094727,-84.18750000
7.75146484,-83.59952000
7.78198242,-82.70662000
7.81250000,-83.10242000
7.84301758,-84.97543000
7.87353516,-92.48029000
7.90405273,-90.40202000
7.93457031,-82.19006000
7.96508789,-80.16237000
7.99560547,-79.51641000
8.02612305,-77.69389000
8.05664063,-76.02731000
8.08715820,-76.18858000
8.11767578,-78.68435000
8.14819336,-83.54202000
8.17871094,-87.43919000
8.20922852,-84.87527000
8.23974609,-82.34540000
8.27026367,-82.09740000
8.30078125,-85.40788000
8.33129883,-98.51997000
8.36181641,-92.31773000
8.39233398,-88.56599000
8.42285156,-90.26025000
8.45336914,-91.91140000
8.48388672,-94.24397000
8.51440430,-90.21710000
8.54492188,-82.81813000
8.57543945,-80.68544000
8.60595703,-82.31955000
8.63647461,-87.20792000
8.66699219,-87.80457000
8.69750977,-84.22861000
8.72802734,-81.99784000
8.75854492,-80.20096000
8.78906250,-79.22385000
8.81958008,-79.61088000
8.85009766,-80.98931000
8.88061523,-81.35081000
8.91113281,-81.31356000
8.94165039,-83.74291000
8.97216797,-88.50158000
9.00268555,-87.34844000
9.03320313,-86.80423000
9.06372070,-86.37767000
9.09423828,-82.14866000
9.12475586,-79.92445000
9.15527344,-79.93616000
9.18579102,-80.73376000
9.21630859,-81.36058000
9.24682617,-81.94070000
9.27734375,-82.58826000
9.30786133,-83.18111000
9.33837891,-84.66982000
9.36889648,-89.69983000
9.39941406,-102.59770000
9.42993164,-88.76909000
9.46044922,-84.82211000
9.49096680,-83.43998000
9.52148438,-83.05085000
9.55200195,-83.02616000
9.58251953,-84.22156000
9.61303711,-89.08897000
9.64355469,-100.92450000
9.67407227,-86.37939000
9.70458984,-82.22997000
9.73510742,-80.40114000
9.76562500,-78.77277000
9.79614258,-76.87381000
9.82666016,-75.55118000
9.85717773,-75.44949000
9.88769531,-76.73953000
9.91821289,-79.63573000
9.94873047,-85.04917000
9.97924805,-88.63980000
10.00976563,-83.21834000
10.04028320,-80.70995000
10.07080078,-80.37255000
10.10131836,-81.17611000
10.13183594,-82.29401000
10.16235352,-83.28899000
10.19287109,-84.42795000
10.22338867,-86.60201000
10.25390625,-91.37315000
10.28442383,-103.91440000
10.31494141,-91.29485000
10.34545898,-85.24022000
10.37597656,-82.60074000
10.40649414,-82.57900000
10.43701172,-85.40405000
10.46752930,-90.49509000
10.49804688,-91.55638000
10.52856445,-88.86537000
10.55908203,-86.01974000
10.58959961,-83.17260000
10.62011719,-81.56236000
10.65063477,-82.52250000
10.68115234,-85.48267000
10.71166992,-85.17656000
10.74218750,-83.92628000
10.77270508,-83.84170000
10.80322266,-82.92648000
10.83374023,-80.76595000
10.86425781,-78.98304000
10.89477539,-78.36281000
10.92529297,-78.81049000
10.95581055,-80.07239000
10.98632813,-82.09473000
11.01684570,-86.38870000
11.04736328,-95.60161000
11.07788086,-84.62653000
11.10839844,-79.70302000
11.13891602,-77.48652000
11.16943359,-76.56310000
11.19995117,-76.47962000
11.23046875,-76.91037000
11.26098633,-76.97820000
11.29150391,-76.39411000
11.32202148,-76.05076000
11.35253906,-75.77145000
11.38305664,-74.84470000
11.41357422,-73.89449000
11.44409180,-74.01551000
11.47460938,-75.46420000
11.50512695,-77.82505000
11.53564453,-80.70309000
11.56616211,-83.67959000
11.59667969,-87.33388000
11.62719727,-86.98930000
11.65771484,-81.61311000
11.68823242,-79.42719000
11.71875000,-79.12865000
11.74926758,-79.33491000
11.77978516,-80.08088000
11.81030273,-81.90037000
11.84082031,-84.34038000
11.87133789,-86.47758000
11.90185547,-87.02797000
11.93237305,-84.04710000
11.96289063,-81.77708000
11.99340820,-82.28627000
12.02392578,-84.53242000
12.05444336,-82.78543000
12.08496094,-80.14599000
12.11547852,-80.06746000
12.14599609,-82.78192000
12.17651367,-87.08022000
12.20703125,-87.07923000
12.23754883,-85.19543000
12.26806641,-85.84258000
12.29858398,-90.69864000
12.32910156,-91.57074000
12.35961914,-83.96209000
12.39013672,-79.85110000
12.42065430,-78.12974000
12.45117188,-78.57065000
12.48168945,-79.70975000
12.51220703,-78.82181000
12.54272461,-77.98512000
12.57324219,-79.31496000
12.60375977,-82.84392000
12.63427734,-88.58104000
12.66479492,-92.99882000
12.69531250,-83.33270000
12.72583008,-78.89375000
12.75634766,-76.17749000
12.78686523,-74.64265000
12.81738281,-74.55937000
12.84790039,-75.97713000
12.87841797,-79.32931000
12.90893555,-87.02057000
12.93945313,-98.89332000
12.96997070,-88.15410000
13.00048828,-83.74376000
13.03100586,-79.62196000
13.06152344,-77.51414000
13.09204102,-76.62894000
13.12255859,-76.20657000
13.15307617,-76.26646000
13.18359375,-77.00011000
13.21411133,-78.32442000
13.24462891,-79.70179000
13.27514648,-80.80363000
13.30566406,-82.80692000
13.33618164,-89.01183000
13.36669922,-90.16518000
13.39721680,-80.38414000
13.42773438,-76.16327000
13.45825195,-74.71825000
13.48876953,-72.59064000
13.51928711,-67.44337000
13.54980469,-64.63060000
13.58032227,-65.25500000
13.61083984,-69.31750000
13.64135742,-75.12055000
13.67187500,-78.77069000
13.70239258,-82.24017000
13.73291016,-82.84848000
13.76342773,-79.73402000
13.79394531,-78.40440000
13.82446289,-79.92176000
13.85498047,-79.45932000
13.88549805,-78.08710000
13.91601563,-79.67528000
13.94653320,-86.65387000
13.97705078,-93.62155000
14.00756836,-82.54483000
14.03808594,-79.33909000
14.06860352,-77.98724000
14.09912109,-77.60765000
14.12963867,-77.90277000
14.16015625,-77.99929000
14.19067383,-77.62276000
14.22119141,-77.52372000
14.25170898,-78.52454000
14.28222656,-81.44617000
14.31274414,-87.57156000
14.34326172,-96.45078000
14.37377930,-87.66769000
14.40429688,-84.81551000
14.43481445,-85.15502000
14.46533203,-84.27306000
14.49584961,-81.30268000
14.52636719,-79.79829000
14.55688477,-80.39049000
14.58740234,-82.49390000
14.61791992,-84.75212000
14.64843750,-87.93961000
14.67895508,-97.20718000
14.70947266,-89.46644000
14.73999023,-81.80507000
14.77050781,-78.23911000
14.80102539,-76.90012000
14.83154297,-77.05829000
14.86206055,-78.36162000
14.89257813,-80.88558000
14.92309570,-85.52036000
14.95361328,-96.92974000
14.98413086,-91.19635000
15.01464844,-83.77648000
15.04516602,-79.90099000
15.07568359,-77.65663000
15.10620117,-76.65090000
15.13671875,-76.50797000
15.16723633,-76.90040000
15.19775391,-77.64523000
15.22827148,-78.82529000
15.25878906,-80.92482000
15.28930664,-84.24202000
15.31982422,-86.80690000
15.35034180,-85.65838000
15.38085938,-82.64148000
15.41137695,-79.78555000
15.44189453,-78.03780000
15.47241211,-77.24376000
15.50292969,-77.22844000
15.53344727,-77.83241000
15.56396484,-79.04328000
15.59448242,-81.47099000
15.62500000,-86.28581000
15.65551758,-94.42183000
15.68603516,-88.54683000
15.71655273,-82.99504000
15.74707031,-80.02415000
15.77758789,-79.03297000
15.80810547,-79.95966000
15.83862305,-82.89304000
15.86914063,-88.61557000
15.89965820,-102.87820000
15.93017578,-94.17571000
15.96069336,-88.37022000
15.99121094,-84.65527000
16.02172852,-81.78377000
16.05224609,-80.07399000
16.08276367,-79.44637000
16.11328125,-79.34176000
16.14379883,-79.37576000
16.17431641,-79.62086000
16.20483398,-80.45727000
16.23535156,-82.38313000
16.26586914,-85.82302000
16.29638672,-91.02034000
16.32690430,-91.13841000
16.35742188,-87.97565000
16.38793945,-87.02069000
16.41845703,-86.40881000
16.44897461,-84.51314000
16.47949219,-82.16823000
16.51000977,-81.07985000
16.54052734,-82.17403000
16.57104492,-86.27007000
16.60156250,-95.64251000
16.63208008,-101.59170000
16.66259766,-96.06480000
16.69311523,-93.80482000
16.72363281,-91.23741000
16.75415039,-88.83583000
16.78466797,-86.84640000
16.81518555,-85.21605000
16.84570313,-84.46458000
16.87622070,-85.36492000
16.90673828,-88.07819000
16.93725586,-89.54756000
16.96777344,-87.71102000
16.99829102,-86.52647000
17.02880859,-86.23824000
17.05932617,-85.79893000
17.08984375,-84.94580000
17.12036133,-83.75123000
17.15087891,-82.64614000
17.18139648,-82.13386000
17.21191406,-82.15555000
17.24243164,-82.99512000
17.27294922,-85.56533000
17.30346680,-88.92722000
17.33398438,-86.85275000
17.36450195,-82.69246000
17.39501953,-79.30988000
17.42553711,-78.18384000
17.45605469,-79.81763000
17.48657227,-82.37774000
17.51708984,-81.74323000
17.54760742,-81.17268000
17.57812500,-82.64260000
17.60864258,-86.25549000
17.63916016,-90.55907000
17.66967773,-91.47517000
17.70019531,-91.81828000
17.73071289,-91.81024000
17.76123047,-80.57256000
17.79174805,-75.21218000
17.82226563,-73.90664000
17.85278320,-75.85043000
17.88330078,-80.47243000
17.91381836,-84.81683000
17.94433594,-85.11485000
17.97485352,-84.37856000
18.00537109,-84.28999000
18.03588867,-85.25758000
18.06640625,-86.71487000
18.09692383,-86.88924000
18.12744141,-86.34056000
18.15795898,-87.21874000
18.18847656,-90.71659000
18.21899414,-97.45940000
18.24951172,-102.13640000
18.28002930,-99.39520000
18.31054688,-100.13200000
18.34106445,-111.08590000
18.37158203,-92.47829000
18.40209961,-86.59095000
18.43261719,-84.08316000
18.46313477,-83.27371000
18.49365234,-83.15900000
18.52416992,-83.23343000
18.55468750,-83.76643000
18.58520508,-85.47977000
18.61572266,-89.17313000
18.64624023,-96.59824000
18.67675781,-104.26200000
18.70727539,-94.13737000
18.73779297,-89.71584000
18.76831055,-87.35404000
18.79882813,-86.59602000
18.82934570,-87.48577000
18.85986328,-89.73153000
18.89038086,-91.58789000
18.92089844,-92.61918000
18.95141602,-94.75719000
18.98193359,-96.70935000
19.01245117,-95.77671000
19.04296875,-95.06073000
19.07348633,-96.39199000
19.10400391,-101.45680000
19.13452148,-107.33330000
19.16503906,-97.36317000
19.19555664,-95.10505000
19.22607422,-95.09555000
19.25659180,-92.68020000
19.28710938,-91.03429000
19.31762695,-92.39029000
19.34814453,-95.97342000
19.37866211,-95.76232000
19.40917969,-93.59115000
19.43969727,-93.77306000
19.47021484,-95.71454000
19.50073242,-96.04309000
19.53125000,-95.36873000
19.56176758,-95.78681000
19.59228516,-94.68520000
19.62280273,-91.12405000
19.65332031,-88.65923000
19.68383789,-89.61850000
19.71435547,-97.79583000
19.74487305,-98.29787000
19.77539063,-92.13348000
19.80590820,-92.60670000
19.83642578,-94.20097000
19.86694336,-95.13757000
19.89746094,-96.71067000
19.92797852,-97.14633000
19.95849609,-94.95892000
19.98901367,-93.21243000
20.01953125,-92.60442000
20.05004883,-91.16951000
20.08056641,-88.79053000
20.11108398,-87.11420000
20.14160156,-86.47559000
20.17211914,-86.38817000
20.20263672,-86.67546000
20.23315430,-88.08137000
20.26367188,-92.09415000
20.29418945,-102.27680000
20.32470703,-95.85741000
20.35522461,-89.44083000
20.38574219,-85.93016000
20.41625977,-84.61594000
20.44677734,-85.95443000
20.47729492,-89.11439000
20.50781250,-89.25146000
20.53833008,-88.59576000
20.56884766,-89.68978000
20.59936523,-91.76682000
20.62988281,-94.51691000
20.66040039,-95.38059000
20.69091797,-92.78136000
20.72143555,-91.76797000
20.75195313,-94.34277000
20.78247070,-101.78490000
20.81298828,-98.79264000
20.84350586,-97.09000000
20.87402344,-99.68594000
20.90454102,-102.73140000
20.93505859,-100.01950000
20.96557617,-94.46288000
20.99609375,-90.48836000
21.02661133,-88.84435000
21.05712891,-89.15613000
21.08764648,-90.61382000
21.11816406,-91.12675000
21.14868164,-88.72345000
21.17919922,-86.97106000
21.20971680,-87.13336000
21.24023438,-88.30161000
21.27075195,-89.08268000
21.30126953,-89.59853000
21.33178711,-90.11801000
21.36230469,-88.94599000
21.39282227,-85.72151000
21.42333984,-82.75844000
21.45385742,-81.50388000
21.48437500,-82.19357000
21.51489258,-84.34924000
21.54541016,-86.88378000
21.57592773,-89.02283000
21.60644531,-91.03226000
21.63696289,-93.10975000
21.66748047,-94.61134000
21.69799805,-92.84915000
21.72851563,-88.68905000
21.75903320,-86.05602000
21.78955078,-85.68478000
21.82006836,-87.13040000
21.85058594,-89.45923000
21.88110352,-92.02718000
21.91162109,-95.55913000
21.94213867,-103.24170000
21.97265625,-102.19700000
22.00317383,-94.64017000
22.03369141,-92.15584000
22.06420898,-91.63748000
22.09472656,-90.69846000
22.12524414,-90.29357000
22.15576172,-92.27912000
22.18627930,-96.54992000
22.21679688,-98.19062000
22.24731445,-93.32141000
22.27783203,-89.15150000
22.30834961,-87.83916000
22.33886719,-88.99306000
22.36938477,-92.25018000
22.39990234,-97.72989000
22.43041992,-99.02647000
22.46093750,-95.63522000
22.49145508,-92.87856000
22.52197266,-90.66346000
22.55249023,-89.92721000
22.58300781,-90.55936000
22.61352539,-92.23882000
22.64404297,-95.22271000
22.67456055,-98.19934000
22.70507813,-96.50711000
22.73559570,-93.47194000
22.76611328,-89.89645000
22.79663086,-87.78180000
22.82714844,-87.95892000
22.85766602,-89.64963000
22.88818359,-91.40030000
22.91870117,-93.62515000
22.94921875,-96.86395000
22.97973633,-96.83007000
23.01025391,-94.94748000
23.04077148,-93.16763000
23.07128906,-90.98717000
23.10180664,-89.07569000
23.13232422,-88.20659000
23.16284180,-88.81509000
23.19335938,-90.88006000
23.22387695,-94.23093000
23.25439453,-98.89388000
23.28491211,-103.68140000
23.31542969,-103.44300000
23.34594727,-100.02030000
23.37646484,-95.78790000
23.40698242,-91.55219000
23.43750000,-88.91784000
23.46801758,-88.26209000
23.49853516,-89.14214000
23.52905273,-90.65968000
23.55957031,-91.90224000
23.59008789,-93.04141000
23.62060547,-95.04327000
23.65112305,-97.98315000
23.68164063,-99.50569000
23.71215820,-97.17293000
23.74267578,-94.03671000
23.77319336,-92.22202000
23.80371094,-92.22431000
23.83422852,-93.88653000
23.86474609,-97.82058000
23.89526367,-108.44750000
23.92578125,-105.05880000
23.95629883,-103.04070000
23.98681641,-105.16210000
24.01733398,-95.56940000
24.04785156,-91.76692000
24.07836914,-91.71283000
24.10888672,-94.00909000
24.13940430,-97.59190000
24.16992188,-105.65190000
24.20043945,-102.96140000
24.23095703,-94.88004000
24.26147461,-92.35689000
24.29199219,-92.69700000
24.32250977,-95.06702000
24.35302734,-96.81998000
24.38354492,-95.37013000
24.41406250,-92.37568000
24.44458008,-89.29489000
24.47509766,-88.27426000
24.50561523,-90.18645000
24.53613281,-94.49008000
24.56665039,-94.14204000
24.59716797,-91.32008000
24.62768555,-90.26665000
24.65820313,-90.62384000
24.68872070,-91.49372000
24.71923828,-91.72058000
24.74975586,-91.41687000
24.78027344,-91.61139000
24.81079102,-92.65451000
24.84130859,-92.99370000
24.87182617,-92.68739000
24.90234375,-93.97182000
24.93286133,-98.45531000
24.96337891,-112.52640000
24.99389648,-98.80255000
25.02441406,-94.03671000
25.05493164,-92.47562000
25.08544922,-93.21672000
25.11596680,-93.98635000
25.14648438,-92.89122000
25.17700195,-92.43297000
25.20751953,-92.04774000
25.23803711,-91.64323000
25.26855469,-92.35925000
25.29907227,-94.71436000
25.32958984,-97.44931000
25.36010742,-95.48703000
25.39062500,-93.23405000
25.42114258,-93.74336000
25.45166016,-97.08653000
25.48217773,-97.55910000
25.51269531,-92.47601000
25.54321289,-89.15585000
25.57373047,-87.75060000
25.60424805,-87.73823000
25.63476563,-88.93838000
25.66528320,-91.78976000
25.69580078,-96.14673000
25.72631836,-96.39262000
25.75683594,-94.96368000
25.78735352,-95.39160000
25.81787109,-96.87325000
25.84838867,-99.10471000
25.87890625,-101.72180000
25.90942383,-102.31920000
25.93994141,-103.99010000
25.97045898,-104.10640000
26.00097656,-98.37050000
26.03149414,-95.18329000
26.06201172,-93.36441000
26.09252930,-91.42323000
26.12304688,-89.75626000
26.15356445,-90.16793000
26.18408203,-94.15963000
26.21459961,-99.78860000
26.24511719,-93.14643000
26.27563477,-89.07246000
26.30615234,-87.19339000
26.33666992,-87.17567000
26.36718750,-88.94060000
26.39770508,-91.44889000
26.42822266,-92.77374000
26.45874023,-92.68455000
26.48925781,-92.30734000
26.51977539,-91.97209000
26.55029297,-91.54179000
26.58081055,-90.90475000
26.61132813,-89.33597000
26.64184570,-87.47816000
26.67236328,-86.65610000
26.70288086,-87.31062000
26.73339844,-88.91058000
26.76391602,-90.13909000
26.79443359,-90.45457000
26.82495117,-90.46254000
26.85546875,-90.88553000
26.88598633,-92.53069000
26.91650391,-96.88284000
26.94702148,-109.11430000
26.97753906,-99.80254000
27.00805664,-95.57690000
27.03857422,-94.51250000
27.06909180,-94.01378000
27.09960938,-92.93614000
27.13012695,-91.49644000
27.16064453,-90.78378000
27.19116211,-91.70976000
27.22167969,-94.64179000
27.25219727,-98.75845000
27.28271484,-102.66060000
27.31323242,-100.23920000
27.34375000,-96.49223000
27.37426758,-97.61909000
27.40478516,-109.77650000
27.43530273,-100.68450000
27.46582031,-95.47424000
27.49633789,-95.45455000
27.52685547,-96.80709000
27.55737305,-96.41682000
27.58789063,-94.18053000
27.61840820,-91.26251000
27.64892578,-89.56522000
27.67944336,-89.61907000
27.70996094,-90.98148000
27.74047852,-91.18412000
27.77099609,-90.22094000
27.80151367,-90.89890000
27.83203125,-93.31351000
27.86254883,-95.57976000
27.89306641,-95.75822000
27.92358398,-94.22089000
27.95410156,-91.76312000
27.98461914,-89.68220000
28.01513672,-89.24722000
28.04565430,-90.52333000
28.07617188,-91.82120000
28.10668945,-92.66998000
28.13720703,-94.64993000
28.16772461,-96.96037000
28.19824219,-97.64540000
28.22875977,-94.59911000
28.25927734,-91.34444000
28.28979492,-88.98003000
28.32031250,-87.05970000
28.35083008,-85.84644000
28.38134766,-85.56834000
28.41186523,-86.17618000
28.44238281,-87.80056000
28.47290039,-90.84441000
28.50341797,-94.29292000
28.53393555,-94.71466000
28.56445313,-96.60619000
28.59497070,-110.73430000
28.62548828,-98.72703000
28.65600586,-93.64976000
28.68652344,-93.15266000
28.71704102,-95.53583000
28.74755859,-100.07000000
28.77807617,-101.76900000
28.80859375,-97.42425000
28.83911133,-93.59106000
28.86962891,-92.69159000
28.90014648,-94.86203000
28.93066406,-100.13060000
28.96118164,-100.66460000
28.99169922,-96.13020000
29.02221680,-94.60366000
29.05273438,-96.43246000
29.08325195,-105.47980000
29.11376953,-104.67730000
29.14428711,-99.47989000
29.17480469,-104.56540000
29.20532227,-105.43490000
29.23583984,-99.45184000
29.26635742,-99.84641000
29.29687500,-96.56099000
29.32739258,-92.28397000
29.35791016,-91.21040000
29.38842773,-93.32663000
29.41894531,-99.23717000
29.44946289,-100.54420000
29.47998047,-94.99985000
29.51049805,-92.87093000
29.54101563,-93.22504000
29.57153320,-95.44035000
29.60205078,-97.21591000
29.63256836,-94.23666000
29.66308594,-91.01132000
29.69360352,-90.63623000
29.72412109,-94.72317000
29.75463867,-105.14280000
29.78515625,-96.02806000
29.81567383,-95.78874000
29.84619141,-98.68594000
29.87670898,-99.11382000
29.90722656,-103.00120000
29.93774414,-98.27588000
29.96826172,-93.43173000
29.99877930,-92.27699000
30.02929688,-92.20053000
30.05981445,-91.95171000
30.09033203,-92.66808000
30.12084961,-95.29742000
30.15136719,-100.90720000
30.18188477,-107.89280000
30.21240234,-103.23030000
30.24291992,-102.19110000
30.27343750,-99.68085000
30.30395508,-97.39071000
30.33447266,-96.12140000
30.36499023,-94.04903000
30.39550781,-93.41551000
30.42602539,-94.94697000
30.45654297,-97.37851000
30.48706055,-96.57592000
30.51757813,-92.34883000
30.54809570,-89.39648000
30.57861328,-88.67622000
30.60913086,-89.87815000
30.63964844,-92.59136000
30.67016602,-95.72906000
30.70068359,-97.26517000
30.73120117,-100.46730000
30.76171875,-103.69380000
30.79223633,-97.91298000
30.82275391,-97.67327000
30.85327148,-100.62450000
30.88378906,-100.66950000
30.91430664,-97.20935000
30.94482422,-95.31505000
30.97534180,-94.17055000
31.00585938,-91.50428000
31.03637695,-89.82528000
31.06689453,-90.47947000
31.09741211,-93.89963000
31.12792969,-100.76560000
31.15844727,-104.57050000
31.18896484,-106.60880000
31.21948242,-105.46770000
31.25000000,-100.13730000
31.28051758,-98.95702000
31.31103516,-94.85040000
31.34155273,-89.99791000
31.37207031,-86.77728000
31.40258789,-84.99303000
31.43310547,-84.41978000
31.46362305,-84.96921000
31.49414063,-86.68423000
31.52465820,-89.29865000
31.55517578,-91.11401000
31.58569336,-91.36768000
31.61621094,-91.66459000
31.64672852,-92.08340000
31.67724609,-91.63563000
31.70776367,-90.40958000
31.73828125,-89.26085000
31.76879883,-88.73295000
31.79931641,-89.19647000
31.82983398,-90.61717000
31.86035156,-92.39117000
31.89086914,-93.75357000
31.92138672,-93.71227000
31.95190430,-92.16278000
31.98242188,-92.27339000
32.01293945,-97.39876000
32.04345703,-98.90680000
32.07397461,-94.09341000
32.10449219,-97.09046000
32.13500977,-112.16100000
32.16552734,-95.02211000
32.19604492,-92.59239000
32.22656250,-94.17918000
32.25708008,-99.49821000
32.28759766,-118.41630000
32.31811523,-106.65020000
32.34863281,-104.47330000
32.37915039,-97.40588000
32.40966797,-93.27511000
32.44018555,-94.01186000
32.47070313,-100.26980000
32.50122070,-99.42276000
32.53173828,-94.62806000
32.56225586,-92.83873000
32.59277344,-92.04543000
32.62329102,-91.77095000
32.65380859,-92.33171000
32.68432617,-94.08698000
32.71484375,-96.90373000
32.74536133,-99.85770000
32.77587891,-100.76070000
32.80639648,-98.80180000
32.83691406,-95.95140000
32.86743164,-93.53943000
32.89794922,-92.78078000
32.92846680,-93.15170000
32.95898438,-93.29875000
32.98950195,-93.06645000
33.02001953,-92.14850000
33.05053711,-90.65002000
33.08105469,-90.41284000
33.11157227,-91.74911000
33.14208984,-93.01505000
33.17260742,-93.15013000
33.20312500,-93.73204000
33.23364258,-97.77106000
33.26416016,-107.68930000
33.29467773,-97.07361000
33.32519531,-93.83357000
33.35571289,-92.90494000
33.38623047,-92.59364000
33.41674805,-93.30051000
33.44726563,-96.07085000
33.47778320,-101.54880000
33.50830078,-107.64950000
33.53881836,-102.02630000
33.56933594,-99.79633000
33.59985352,-100.64520000
33.63037109,-99.51787000
33.66088867,-96.15924000
33.69140625,-94.40757000
33.72192383,-94.55695000
33.75244141,-95.48091000
33.78295898,-96.27369000
33.81347656,-97.15179000
33.84399414,-96.98811000
33.87451172,-96.14593000
33.90502930,-95.83848000
33.93554688,-95.53310000
33.96606445,-95.28506000
33.99658203,-95.48373000
34.02709961,-95.91676000
34.05761719,-96.26234000
34.08813477,-96.43829000
34.11865234,-96.78722000
34.14916992,-97.07643000
34.17968750,-97.39338000
34.21020508,-96.33462000
34.24072266,-96.33623000
34.27124023,-100.12980000
34.30175781,-101.04550000
34.33227539,-98.95759000
34.36279297,-100.73240000
34.39331055,-108.19450000
34.42382813,-111.63710000
34.45434570,-103.57650000
34.48486328,-104.33410000
34.51538086,-105.79580000
34.54589844,-114.11080000
34.57641602,-101.50110000
34.60693359,-95.15919000
34.63745117,-93.90465000
34.66796875,-94.56523000
34.69848633,-94.39606000
34.72900391,-91.88649000
34.75952148,-89.60774000
34.79003906,-89.61742000
34.82055664,-92.56615000
34.85107422,-97.94627000
34.88159180,-97.60295000
34.91210938,-94.60359000
34.94262695,-93.95006000
34.97314453,-94.37386000
35.00366211,-95.32455000
35.03417969,-97.33186000
35.06469727,-96.90900000
35.09521484,-93.59963000
35.12573242,-91.68667000
35.15625000,-92.00342000
35.18676758,-93.12346000
35.21728516,-93.08089000
35.24780273,-92.10805000
35.27832031,-91.68657000
35.30883789,-92.47044000
35.33935547,-94.61621000
35.36987305,-98.65348000
35.40039063,-107.42290000
35.43090820,-106.66600000
35.46142578,-104.18620000
35.49194336,-110.31710000
35.52246094,-101.86180000
35.55297852,-98.96466000
35.58349609,-95.79337000
35.61401367,-92.79216000
35.64453125,-92.94322000
35.67504883,-97.47639000
35.70556641,-106.49230000
35.73608398,-100.68570000
35.76660156,-97.43489000
35.79711914,-95.60952000
35.82763672,-94.82481000
35.85815430,-95.59694000
35.88867188,-94.42970000
35.91918945,-90.38248000
35.94970703,-88.53236000
35.98022461,-89.57457000
36.01074219,-92.88310000
36.04125977,-95.77599000
36.07177734,-93.88332000
36.10229492,-91.04085000
36.13281250,-90.23663000
36.16333008,-90.88690000
36.19384766,-92.17484000
36.22436523,-94.68533000
36.25488281,-100.23470000
36.28540039,-103.45090000
36.31591797,-101.06850000
36.34643555,-100.28910000
36.37695313,-96.09528000
36.40747070,-92.10464000
36.43798828,-90.66382000
36.46850586,-91.95392000
36.49902344,-95.01960000
36.52954102,-95.95770000
36.56005859,-96.62309000
36.59057617,-100.71870000
36.62109375,-99.40888000
36.65161133,-96.01991000
36.68212891,-96.01218000
36.71264648,-99.26848000
36.74316406,-108.47670000
36.77368164,-98.36029000
36.80419922,-95.18609000
36.83471680,-96.55656000
36.86523438,-101.76040000
36.89575195,-108.02860000
36.92626953,-101.61500000
36.95678711,-96.45996000
36.98730469,-93.97940000
37.01782227,-94.28905000
37.04833984,-97.94023000
37.07885742,-102.96130000
37.10937500,-98.59069000
37.13989258,-95.92533000
37.17041016,-96.17736000
37.20092773,-98.01904000
37.23144531,-98.81358000
37.26196289,-96.85952000
37.29248047,-95.42489000
37.32299805,-97.19028000
37.35351563,-101.77310000
37.38403320,-99.64957000
37.41455078,-98.28499000
37.44506836,-96.33445000
37.47558594,-91.98073000
37.50610352,-90.16896000
37.53662109,-91.88377000
37.56713867,-99.47159000
37.59765625,-101.48110000
37.62817383,-93.55719000
37.65869141,-91.88933000
37.68920898,-92.97876000
37.71972656,-95.27991000
37.75024414,-95.39613000
37.78076172,-93.56688000
37.81127930,-94.28125000
37.84179688,-100.02650000
37.87231445,-103.53260000
37.90283203,-96.04476000
37.93334961,-93.51945000
37.96386719,-93.50409000
37.99438477,-96.22073000
38.02490234,-103.79030000
38.05541992,-113.08720000
38.08593750,-111.41420000
38.11645508,-99.94195000
38.14697266,-95.34530000
38.17749023,-94.29543000
38.20800781,-94.86311000
38.23852539,-94.76955000
38.26904297,-92.97660000
38.29956055,-91.70091000
38.33007813,-93.42919000
38.36059570,-101.97110000
38.39111328,-97.45029000
38.42163086,-93.31890000
38.45214844,-92.76022000
38.48266602,-93.46173000
38.51318359,-95.89214000
38.54370117,-97.35909000
38.57421875,-95.10596000
38.60473633,-94.01225000
38.63525391,-95.45319000
38.66577148,-100.08760000
38.69628906,-99.93439000
38.72680664,-96.53105000
38.75732422,-95.77560000
38.78784180,-95.56029000
38.81835938,-95.48148000
38.84887695,-97.54141000
38.87939453,-97.68510000
38.90991211,-90.09709000
38.94042969,-85.57137000
38.97094727,-83.73346000
39.00146484,-84.40113000
39.03198242,-88.12344000
39.06250000,-95.44961000
39.09301758,-99.50401000
39.12353516,-109.00510000
39.15405273,-96.81691000
39.18457031,-93.17476000
39.21508789,-95.50204000
39.24560547,-101.80660000
39.27612305,-92.94934000
39.30664063,-88.02214000
39.33715820,-85.97275000
39.36767578,-85.48271000
39.39819336,-85.73970000
39.42871094,-86.14296000
39.45922852,-86.22421000
39.48974609,-86.34282000
39.52026367,-87.68745000
39.55078125,-92.49338000
39.58129883,-95.87309000
39.61181641,-86.48775000
39.64233398,-83.21499000
39.67285156,-83.47085000
39.70336914,-86.40710000
39.73388672,-90.32479000
39.76440430,-90.91237000
39.79492188,-87.75620000
39.82543945,-85.18319000
39.85595703,-84.26389000
39.88647461,-84.97514000
39.91699219,-88.10592000
39.94750977,-98.39708000
39.97802734,-94.41550000
40.00854492,-90.11852000
40.03906250,-92.26597000
40.06958008,-102.39490000
40.10009766,-99.49174000
40.13061523,-92.00507000
40.16113281,-90.07099000
40.19165039,-90.69599000
40.22216797,-92.45004000
40.25268555,-92.28174000
40.28320313,-88.64571000
40.31372070,-85.65567000
40.34423828,-86.13658000
40.37475586,-92.52188000
40.40527344,-104.66800000
40.43579102,-94.73945000
40.46630859,-96.50436000
40.49682617,-96.86189000
40.52734375,-93.91883000
40.55786133,-91.51349000
40.58837891,-89.59868000
40.61889648,-86.57303000
40.64941406,-83.08678000
40.67993164,-81.61629000
40.71044922,-83.19881000
40.74096680,-88.67568000
40.77148438,-96.88071000
40.80200195,-94.34037000
40.83251953,-93.58540000
40.86303711,-96.06510000
40.89355469,-104.76950000
40.92407227,-104.14480000
40.95458984,-93.16735000
40.98510742,-87.18965000
41.01562500,-85.09869000
41.04614258,-86.37418000
41.07666016,-89.22997000
41.10717773,-90.47939000
41.13769531,-90.64698000
41.16821289,-89.05966000
41.19873047,-87.55460000
41.22924805,-88.85760000
41.25976563,-94.46158000
41.29028320,-89.80725000
41.32080078,-84.38040000
41.35131836,-82.94697000
41.38183594,-84.72491000
41.41235352,-89.33836000
41.44287109,-94.22118000
41.47338867,-97.69901000
41.50390625,-99.30293000
41.53442383,-94.10048000
41.56494141,-91.75332000
41.59545898,-91.02437000
41.62597656,-87.85390000
41.65649414,-83.42384000
41.68701172,-81.01913000
41.71752930,-81.36725000
41.74804688,-84.40469000
41.77856445,-89.83914000
41.80908203,-96.63680000
41.83959961,-97.04680000
41.87011719,-94.07944000
41.90063477,-92.58301000
41.93115234,-90.45291000
41.96166992,-87.03926000
41.99218750,-83.41772000
42.02270508,-81.66207000
42.05322266,-82.42397000
42.08374023,-85.36295000
42.11425781,-89.22646000
42.14477539,-92.59956000
42.17529297,-97.60164000
42.20581055,-105.49480000
42.23632813,-89.60621000
42.26684570,-84.76852000
42.29736328,-83.73988000
42.32788086,-83.89034000
42.35839844,-82.97219000
42.38891602,-83.09258000
42.41943359,-85.87247000
42.44995117,-92.66966000
42.48046875,-98.36041000
42.51098633,-91.74788000
42.54150391,-90.91682000
42.57202148,-91.95766000
42.60253906,-91.73546000
42.63305664,-91.48305000
42.66357422,-87.12450000
42.69409180,-84.38089000
42.72460938,-85.21970000
42.75512695,-89.43065000
42.78564453,-93.69702000
42.81616211,-92.40042000
42.84667969,-91.34147000
42.87719727,-89.94553000
42.90771484,-87.29035000
42.93823242,-84.80280000
42.96875000,-83.04846000
42.99926758,-82.06680000
43.02978516,-82.07496000
43.06030273,-83.44852000
43.09082031,-86.66122000
43.12133789,-92.45465000
43.15185547,-102.40430000
43.18237305,-101.84010000
43.21289063,-97.72916000
43.24340820,-97.26670000
43.27392578,-97.99025000
43.30444336,-103.97940000
43.33496094,-96.04726000
43.36547852,-88.72517000
43.39599609,-87.23671000
43.42651367,-89.04704000
43.45703125,-89.79240000
43.48754883,-86.69118000
43.51806641,-83.97934000
43.54858398,-82.96615000
43.57910156,-83.94753000
43.60961914,-86.92590000
43.64013672,-90.69393000
43.67065430,-91.85880000
43.70117188,-90.25748000
43.73168945,-88.46764000
43.76220703,-87.60851000
43.79272461,-87.81807000
43.82324219,-89.07297000
43.85375977,-91.05655000
43.88427734,-92.65816000
43.91479492,-92.97142000
43.94531250,-93.99991000
43.97583008,-103.15620000
44.00634766,-95.01115000
44.03686523,-87.32201000
44.06738281,-85.14476000
44.09790039,-86.25673000
44.12841797,-90.37753000
44.15893555,-98.23073000
44.18945313,-111.60570000
44.21997070,-102.32000000
44.25048828,-98.11687000
44.28100586,-94.94537000
44.31152344,-91.65552000
44.34204102,-88.32394000
44.37255859,-86.13556000
44.40307617,-86.01855000
44.43359375,-88.17487000
44.46411133,-93.08769000
44.49462891,-105.97270000
44.52514648,-97.37314000
44.55566406,-92.26346000
44.58618164,-91.43505000
44.61669922,-92.50787000
44.64721680,-93.10932000
44.67773438,-90.92294000
44.70825195,-88.49274000
44.73876953,-88.12003000
44.76928711,-89.78275000
44.79980469,-92.91298000
44.83032227,-95.18616000
44.86083984,-93.09399000
44.89135742,-91.22955000
44.92187500,-90.62348000
44.95239258,-90.50072000
44.98291016,-92.22563000
45.01342773,-97.10777000
45.04394531,-94.74525000
45.07446289,-91.56845000
45.10498047,-91.66073000
45.13549805,-93.71899000
45.16601563,-96.21452000
45.19653320,-97.07121000
45.22705078,-99.78303000
45.25756836,-104.09410000
45.28808594,-95.83294000
45.31860352,-92.94434000
45.34912109,-91.76740000
45.37963867,-91.12046000
45.41015625,-93.90553000
45.44067383,-103.65050000
45.47119141,-93.32645000
45.50170898,-89.72035000
45.53222656,-88.42955000
45.56274414,-87.24792000
45.59326172,-86.66467000
45.62377930,-87.14645000
45.65429688,-88.15862000
45.68481445,-89.11289000
45.71533203,-90.67268000
45.74584961,-94.74297000
45.77636719,-111.23810000
45.80688477,-96.48827000
45.83740234,-90.77435000
45.86791992,-89.15665000
45.89843750,-90.14030000
45.92895508,-92.75802000
45.95947266,-95.11421000
45.98999023,-95.56198000
46.02050781,-94.29627000
46.05102539,-92.46475000
46.08154297,-91.31535000
46.11206055,-91.47094000
46.14257813,-92.70848000
46.17309570,-93.87279000
46.20361328,-93.63403000
46.23413086,-92.50263000
46.26464844,-92.47501000
46.29516602,-95.33771000
46.32568359,-108.65760000
46.35620117,-97.19815000
46.38671875,-90.52766000
46.41723633,-88.57612000
46.44775391,-89.64923000
46.47827148,-93.80698000
46.50878906,-105.42700000
46.53930664,-99.39578000
46.56982422,-93.27118000
46.60034180,-92.07452000
46.63085938,-93.40447000
46.66137695,-96.04562000
46.69189453,-100.98240000
46.72241211,-101.88610000
46.75292969,-97.76291000
46.78344727,-99.17740000
46.81396484,-105.90130000
46.84448242,-114.04520000
46.87500000,-106.86000000
46.90551758,-97.49264000
46.93603516,-93.73447000
46.96655273,-92.71801000
46.99707031,-93.16786000
47.02758789,-93.96531000
47.05810547,-92.96312000
47.08862305,-91.67776000
47.11914063,-92.50426000
47.14965820,-96.89816000
47.18017578,-103.28560000
47.21069336,-95.21844000
47.24121094,-93.22221000
47.27172852,-97.52394000
47.30224609,-104.40380000
47.33276367,-95.81979000
47.36328125,-96.74615000
47.39379883,-104.04680000
47.42431641,-104.01650000
47.45483398,-101.46160000
47.48535156,-96.71313000
47.51586914,-92.53882000
47.54638672,-88.82373000
47.57690430,-86.06826000
47.60742188,-85.32353000
47.63793945,-86.87016000
47.66845703,-90.48526000
47.69897461,-95.22720000
47.72949219,-99.11083000
47.76000977,-100.99640000
47.79052734,-104.99680000
47.82104492,-106.51410000
47.85156250,-98.15695000
47.88208008,-93.73128000
47.91259766,-91.93517000
47.94311523,-93.22708000
47.97363281,-99.34432000
48.00415039,-97.67806000
48.03466797,-94.66357000
48.06518555,-99.62729000
48.09570313,-101.28660000
48.12622070,-91.99738000
48.15673828,-89.46741000
48.18725586,-89.31405000
48.21777344,-88.56317000
48.24829102,-86.41226000
48.27880859,-85.61362000
48.30932617,-87.41898000
48.33984375,-91.86669000
48.37036133,-95.65230000
48.40087891,-94.17496000
48.43139648,-91.71951000
48.46191406,-90.97034000
48.49243164,-91.77589000
48.52294922,-92.76927000
48.55346680,-92.47913000
48.58398438,-90.85602000
48.61450195,-89.41449000
48.64501953,-89.09276000
48.67553711,-90.15271000
48.70605469,-92.24982000
48.73657227,-92.87861000
48.76708984,-91.49642000
48.79760742,-91.04477000
48.82812500,-91.89427000
48.85864258,-93.03150000
48.88916016,-91.62253000
48.91967773,-88.06822000
48.95019531,-85.96328000
48.98071289,-86.00639000
49.01123047,-87.92298000
49.04174805,-90.81987000
49.07226563,-92.77779000
49.10278320,-92.69352000
49.13330078,-91.85146000
49.16381836,-91.26230000
49.19433594,-91.72469000
49.22485352,-94.75449000
49.25537109,-94.43115000
49.28588867,-89.90477000
49.31640625,-89.19510000
49.34692383,-91.49295000
49.37744141,-93.94403000
49.40795898,-93.00443000
49.43847656,-91.41949000
49.46899414,-92.06296000
49.49951172,-95.27214000
49.53002930,-94.95053000
49.56054688,-91.57149000
49.59106445,-89.35100000
49.62158203,-87.91856000
49.65209961,-87.93690000
49.68261719,-90.11855000
49.71313477,-93.57928000
49.74365234,-97.64479000
49.77416992,-119.47000000
49.80468750,-95.63550000
49.83520508,-91.97475000
49.86572266,-91.68870000
49.89624023,-91.38252000
49.92675781,-89.48872000
49.95727539,-87.51016000
49.98779297,-87.09743000
50.01831055,-88.62627000
