Frequency,Channel A
(MHz),(dBu)

0.00000000,-44.57828000
0.03051758,-44.77545000
0.06103516,-49.72910000
0.09155273,-61.89884000
0.12207031,-64.26170000
0.15258789,-60.79535000
0.18310547,-61.36332000
0.21362305,-62.46399000
0.24414063,-65.92123000
0.27465820,-74.32021000
0.30517578,-88.06297000
0.33569336,-83.82758000
0.36621094,-67.94763000
0.39672852,-60.48238000
0.42724609,-57.22499000
0.45776367,-56.38094000
0.48828125,-56.43507000
0.51879883,-56.57919000
0.54931641,-57.80381000
0.57983398,-61.94353000
0.61035156,-67.45126000
0.64086914,-65.03401000
0.67138672,-65.43946000
0.70190430,-70.06245000
0.73242188,-80.50743000
0.76293945,-79.38956000
0.79345703,-74.76131000
0.82397461,-65.23241000
0.85449219,-61.28041000
0.88500977,-60.81296000
0.91552734,-62.16243000
0.94604492,-63.53166000
0.97656250,-64.05952000
1.00708008,-63.87020000
1.03759766,-63.00384000
1.06811523,-62.54154000
1.09863281,-64.00747000
1.12915039,-68.27310000
1.15966797,-76.38821000
1.19018555,-95.82462000
1.22070313,-78.40141000
1.25122070,-76.47877000
1.28173828,-77.05629000
1.31225586,-77.48847000
1.34277344,-79.12579000
1.37329102,-85.52286000
1.40380859,-80.02331000
1.43432617,-78.13640000
1.46484375,-80.55058000
1.49536133,-81.20869000
1.52587891,-84.87846000
1.55639648,-77.97365000
1.58691406,-70.09167000
1.61743164,-67.85480000
1.64794922,-69.17845000
1.67846680,-72.80070000
1.70898438,-78.50938000
1.73950195,-94.15330000
1.77001953,-84.06440000
1.80053711,-76.68655000
1.83105469,-72.92863000
1.86157227,-70.49096000
1.89208984,-69.45779000
1.92260742,-70.54486000
1.95312500,-73.30678000
1.98364258,-75.76044000
2.01416016,-76.85828000
2.04467773,-77.69973000
2.07519531,-75.47380000
2.10571289,-72.75374000
2.13623047,-72.67209000
2.16674805,-75.34265000
2.19726563,-79.80267000
2.22778320,-85.48138000
2.25830078,-82.13535000
2.28881836,-77.16489000
2.31933594,-76.33192000
2.34985352,-77.48248000
2.38037109,-78.91737000
2.41088867,-79.73247000
2.44140625,-80.35705000
2.47192383,-81.04117000
2.50244141,-88.39497000
2.53295898,-85.40379000
2.56347656,-78.96695000
2.59399414,-79.29380000
2.62451172,-80.77307000
2.65502930,-79.68209000
2.68554688,-76.91954000
2.71606445,-74.24560000
2.74658203,-73.58552000
2.77709961,-75.89365000
2.80761719,-79.18306000
2.83813477,-75.56276000
2.86865234,-71.94617000
2.89916992,-70.57768000
2.92968750,-71.30627000
2.96020508,-74.12561000
2.99072266,-78.39040000
3.02124023,-81.81670000
3.05175781,-82.22934000
3.08227539,-81.83287000
3.11279297,-83.71173000
3.14331055,-84.21955000
3.17382813,-80.30288000
3.20434570,-78.61522000
3.23486328,-78.71087000
3.26538086,-76.70655000
3.29589844,-76.25587000
3.32641602,-77.35780000
3.35693359,-77.14396000
3.38745117,-76.53285000
3.41796875,-78.24132000
3.44848633,-81.59827000
3.47900391,-82.59131000
3.50952148,-81.71825000
3.54003906,-84.23244000
3.57055664,-86.15670000
3.60107422,-83.85736000
3.63159180,-85.54781000
3.66210938,-88.26767000
3.69262695,-85.83611000
3.72314453,-83.62656000
3.75366211,-88.05545000
3.78417969,-80.32708000
3.81469727,-77.87037000
3.84521484,-81.79361000
3.87573242,-89.58804000
3.90625000,-81.82908000
3.93676758,-77.67392000
3.96728516,-77.22288000
3.99780273,-77.79882000
4.02832031,-78.34300000
4.05883789,-81.82875000
4.08935547,-88.27236000
4.11987305,-90.73143000
4.15039063,-97.13242000
4.18090820,-99.97398000
4.21142578,-96.94542000
4.24194336,-95.67531000
4.27246094,-86.88853000
4.30297852,-79.74156000
4.33349609,-77.67616000
4.36401367,-78.97884000
4.39453125,-78.65930000
4.42504883,-76.89505000
4.45556641,-76.79254000
4.48608398,-78.11990000
4.51660156,-80.17559000
4.54711914,-82.59968000
4.57763672,-86.95688000
4.60815430,-83.82639000
4.63867188,-82.23285000
4.66918945,-87.44781000
4.69970703,-91.19424000
4.73022461,-86.82007000
4.76074219,-86.69341000
4.79125977,-81.42749000
4.82177734,-78.47485000
4.85229492,-80.14314000
4.88281250,-85.75405000
4.91333008,-84.37023000
4.94384766,-82.93491000
4.97436523,-85.62077000
5.00488281,-92.13005000
5.03540039,-88.24867000
5.06591797,-80.70517000
5.09643555,-77.62681000
5.12695313,-79.80292000
5.15747070,-87.78677000
5.18798828,-79.46934000
5.21850586,-75.80099000
5.24902344,-76.45497000
5.27954102,-80.26466000
5.31005859,-86.22694000
5.34057617,-89.08505000
5.37109375,-83.81612000
5.40161133,-81.34369000
5.43212891,-82.43030000
5.46264648,-89.69083000
5.49316406,-79.43965000
5.52368164,-77.67596000
5.55419922,-79.88406000
5.58471680,-82.25559000
5.61523438,-78.75445000
5.64575195,-74.96896000
5.67626953,-74.63303000
5.70678711,-76.36323000
5.73730469,-79.83052000
5.76782227,-83.98395000
5.79833984,-79.92471000
5.82885742,-81.38950000
5.85937500,-86.82353000
5.88989258,-90.57338000
5.92041016,-82.67739000
5.95092773,-82.29446000
5.98144531,-88.58438000
6.01196289,-89.63501000
6.04248047,-81.24996000
6.07299805,-77.09692000
6.10351563,-78.08332000
6.13403320,-83.15980000
6.16455078,-82.85305000
6.19506836,-76.79531000
6.22558594,-75.27483000
6.25610352,-76.39616000
6.28662109,-79.79363000
6.31713867,-89.11081000
6.34765625,-81.84782000
6.37817383,-77.69144000
6.40869141,-77.59941000
6.43920898,-82.23126000
6.46972656,-87.07498000
6.50024414,-81.24620000
6.53076172,-79.01565000
6.56127930,-80.65742000
6.59179688,-90.84424000
6.62231445,-87.57886000
6.65283203,-81.82065000
6.68334961,-80.74905000
6.71386719,-82.51085000
6.74438477,-85.11857000
6.77490234,-83.76482000
6.80541992,-80.54024000
6.83593750,-79.03716000
6.86645508,-80.11514000
6.89697266,-83.97327000
6.92749023,-86.35281000
6.95800781,-82.85027000
6.98852539,-80.71720000
7.01904297,-81.00463000
7.04956055,-83.96110000
7.08007813,-85.14907000
7.11059570,-83.05909000
7.14111328,-84.26854000
7.17163086,-90.87723000
7.20214844,-100.17630000
7.23266602,-90.82115000
7.26318359,-86.18991000
7.29370117,-83.55310000
7.32421875,-83.75174000
7.35473633,-86.77430000
7.38525391,-87.61939000
7.41577148,-85.73094000
7.44628906,-86.52826000
7.47680664,-91.30985000
7.50732422,-100.97060000
7.53784180,-93.31810000
7.56835938,-88.79231000
7.59887695,-85.56522000
7.62939453,-84.03782000
7.65991211,-85.12616000
7.69042969,-86.99250000
7.72094727,-86.45622000
7.75146484,-87.88970000
7.78198242,-92.64896000
7.81250000,-88.39571000
7.84301758,-83.62641000
7.87353516,-82.41276000
7.90405273,-84.83253000
7.93457031,-92.02552000
7.96508789,-86.22560000
7.99560547,-81.48353000
8.02612305,-79.95352000
8.05664063,-80.38533000
8.08715820,-82.08997000
8.11767578,-83.92521000
8.14819336,-84.83279000
8.17871094,-85.17151000
8.20922852,-86.53037000
8.23974609,-90.91397000
8.27026367,-99.87652000
8.30078125,-91.83345000
8.33129883,-90.57294000
8.36181641,-102.35190000
8.39233398,-87.59441000
8.42285156,-83.11436000
8.45336914,-84.30148000
8.48388672,-88.50025000
8.51440430,-84.18517000
8.54492188,-82.00386000
8.57543945,-84.33408000
8.60595703,-92.72330000
8.63647461,-92.21968000
8.66699219,-88.82005000
8.69750977,-87.91429000
8.72802734,-86.31262000
8.75854492,-85.44276000
8.78906250,-86.27244000
8.81958008,-88.18050000
8.85009766,-88.03888000
8.88061523,-86.84216000
8.91113281,-88.23825000
8.94165039,-96.59277000
8.97216797,-95.41545000
9.00268555,-88.49619000
9.03320313,-87.97034000
9.06372070,-89.50795000
9.09423828,-92.19516000
9.12475586,-91.37000000
9.15527344,-87.49741000
9.18579102,-87.68268000
9.21630859,-95.36259000
9.24682617,-92.14408000
9.27734375,-84.72964000
9.30786133,-83.06541000
9.33837891,-84.51921000
9.36889648,-86.39357000
9.39941406,-85.12163000
9.42993164,-83.82282000
9.46044922,-84.03246000
9.49096680,-86.47134000
9.52148438,-92.27452000
9.55200195,-96.11580000
9.58251953,-94.34760000
9.61303711,-88.42003000
9.64355469,-86.39998000
9.67407227,-90.58911000
9.70458984,-95.35880000
9.73510742,-88.52145000
9.76562500,-90.49622000
9.79614258,-106.27990000
9.82666016,-88.21822000
9.85717773,-85.02896000
9.88769531,-85.06668000
9.91821289,-87.03160000
9.94873047,-92.58870000
9.97924805,-94.69247000
10.00976563,-90.49332000
10.04028320,-90.69444000
10.07080078,-94.72672000
10.10131836,-90.81773000
10.13183594,-84.84840000
10.16235352,-82.22657000
10.19287109,-82.03259000
10.22338867,-84.54384000
10.25390625,-91.02744000
10.28442383,-94.19132000
10.31494141,-92.32833000
10.34545898,-93.42764000
10.37597656,-89.93593000
10.40649414,-83.45036000
10.43701172,-79.14326000
10.46752930,-78.20935000
10.49804688,-81.21756000
10.52856445,-85.68089000
10.55908203,-82.35818000
10.58959961,-81.55486000
10.62011719,-85.64352000
10.65063477,-103.32820000
10.68115234,-90.15975000
10.71166992,-90.33820000
10.74218750,-91.88936000
10.77270508,-90.47672000
10.80322266,-97.32916000
10.83374023,-89.64342000
10.86425781,-85.88787000
10.89477539,-88.28502000
10.92529297,-98.94090000
10.95581055,-95.03613000
10.98632813,-89.45390000
11.01684570,-89.48516000
11.04736328,-93.76627000
11.07788086,-96.45058000
11.10839844,-96.54712000
11.13891602,-94.85383000
11.16943359,-91.95998000
11.19995117,-91.24594000
11.23046875,-88.70309000
11.26098633,-85.52888000
11.29150391,-83.96539000
11.32202148,-82.44250000
11.35253906,-80.78286000
11.38305664,-80.02335000
11.41357422,-80.02666000
11.44409180,-80.68976000
11.47460938,-83.36517000
11.50512695,-88.30843000
11.53564453,-84.23859000
11.56616211,-80.12155000
11.59667969,-78.73082000
11.62719727,-79.38347000
11.65771484,-82.34551000
11.68823242,-88.40675000
11.71875000,-92.26966000
11.74926758,-88.70197000
11.77978516,-85.55455000
11.81030273,-86.83009000
11.84082031,-103.45740000
11.87133789,-87.44701000
11.90185547,-83.72672000
11.93237305,-85.14281000
11.96289063,-94.35192000
11.99340820,-91.64624000
12.02392578,-87.51076000
12.05444336,-92.83334000
12.08496094,-102.06390000
12.11547852,-102.42510000
12.14599609,-91.01853000
12.17651367,-86.23913000
12.20703125,-86.10432000
12.23754883,-86.59319000
12.26806641,-85.24959000
12.29858398,-84.06081000
12.32910156,-82.00809000
12.35961914,-78.10193000
12.39013672,-75.66325000
12.42065430,-75.68736000
12.45117188,-77.93649000
12.48168945,-81.82687000
12.51220703,-85.32336000
12.54272461,-82.72897000
12.57324219,-79.77073000
12.60375977,-78.85728000
12.63427734,-79.25316000
12.66479492,-80.13004000
12.69531250,-81.39014000
12.72583008,-84.62889000
12.75634766,-90.38364000
12.78686523,-85.94296000
12.81738281,-83.61149000
12.84790039,-83.82042000
12.87841797,-85.73337000
12.90893555,-87.87904000
12.93945313,-82.85870000
12.96997070,-81.45264000
13.00048828,-85.10254000
13.03100586,-92.15214000
13.06152344,-88.92223000
13.09204102,-83.60126000
13.12255859,-81.62312000
13.15307617,-83.94714000
13.18359375,-91.31509000
13.21411133,-89.32533000
13.24462891,-86.02970000
13.27514648,-84.68616000
13.30566406,-84.24003000
13.33618164,-84.84989000
13.36669922,-83.55833000
13.39721680,-82.78930000
13.42773438,-84.05080000
13.45825195,-90.17579000
13.48876953,-82.19855000
13.51928711,-71.70261000
13.54980469,-67.85049000
13.58032227,-68.09486000
13.61083984,-72.26245000
13.64135742,-80.14392000
13.67187500,-81.76807000
13.70239258,-82.85343000
13.73291016,-85.23148000
13.76342773,-86.51386000
13.79394531,-84.67407000
13.82446289,-82.52483000
13.85498047,-82.16087000
13.88549805,-82.51217000
13.91601563,-82.35268000
13.94653320,-82.62226000
13.97705078,-84.08492000
14.00756836,-78.61393000
14.03808594,-74.59867000
14.06860352,-73.69197000
14.09912109,-74.80208000
14.12963867,-76.41346000
14.16015625,-76.91344000
14.19067383,-76.67718000
14.22119141,-75.98506000
14.25170898,-74.18014000
14.28222656,-72.22202000
14.31274414,-71.69920000
14.34326172,-73.68427000
14.37377930,-79.80938000
14.40429688,-83.48894000
14.43481445,-76.59937000
14.46533203,-73.66756000
14.49584961,-72.45123000
14.52636719,-72.56034000
14.55688477,-74.31012000
14.58740234,-77.34863000
14.61791992,-78.03651000
14.64843750,-76.81259000
14.67895508,-76.28805000
14.70947266,-75.26023000
14.73999023,-73.19667000
14.77050781,-71.04839000
14.80102539,-70.00134000
14.83154297,-71.03256000
14.86206055,-74.85989000
14.89257813,-76.71941000
14.92309570,-72.80343000
14.95361328,-70.55716000
14.98413086,-69.56727000
15.01464844,-69.58343000
15.04516602,-71.24943000
15.07568359,-75.13026000
15.10620117,-77.05824000
15.13671875,-74.56351000
15.16723633,-73.93222000
15.19775391,-74.20342000
15.22827148,-72.42780000
15.25878906,-70.89655000
15.28930664,-72.28320000
15.31982422,-77.14370000
15.35034180,-74.98477000
15.38085938,-71.49207000
15.41137695,-71.56783000
15.44189453,-74.34339000
15.47241211,-77.97523000
15.50292969,-80.35854000
15.53344727,-83.93217000
15.56396484,-92.12610000
15.59448242,-85.23959000
15.62500000,-79.93635000
15.65551758,-78.63354000
15.68603516,-78.10587000
15.71655273,-76.89946000
15.74707031,-76.85077000
15.77758789,-79.68690000
15.80810547,-83.66112000
15.83862305,-81.12497000
15.86914063,-80.34622000
15.89965820,-82.06659000
15.93017578,-80.29642000
15.96069336,-76.49201000
15.99121094,-75.90741000
16.02172852,-79.73067000
16.05224609,-88.61638000
16.08276367,-81.11583000
16.11328125,-78.72980000
16.14379883,-80.65295000
16.17431641,-84.85882000
16.20483398,-86.70623000
16.23535156,-89.39864000
16.26586914,-82.24284000
16.29638672,-77.68520000
16.32690430,-76.74567000
16.35742188,-78.56033000
16.38793945,-82.22633000
16.41845703,-84.93575000
16.44897461,-84.89280000
16.47949219,-85.82050000
16.51000977,-89.79636000
16.54052734,-88.71098000
16.57104492,-87.85705000
16.60156250,-88.60680000
16.63208008,-87.77060000
16.66259766,-89.89008000
16.69311523,-107.19650000
16.72363281,-90.82654000
16.75415039,-86.44817000
16.78466797,-85.68719000
16.81518555,-85.99290000
16.84570313,-88.06985000
16.87622070,-89.70850000
16.90673828,-89.59637000
16.93725586,-95.30692000
16.96777344,-94.83688000
16.99829102,-86.18256000
17.02880859,-83.63400000
17.05932617,-84.69237000
17.08984375,-90.27489000
17.12036133,-90.61357000
17.15087891,-85.21651000
17.18139648,-84.52175000
17.21191406,-87.32271000
17.24243164,-95.37926000
17.27294922,-100.35750000
17.30346680,-91.88194000
17.33398438,-90.95908000
17.36450195,-94.04813000
17.39501953,-103.55420000
17.42553711,-89.59300000
17.45605469,-88.32951000
17.48657227,-97.19180000
17.51708984,-92.78708000
17.54760742,-88.69469000
17.57812500,-91.24558000
17.60864258,-98.24256000
17.63916016,-94.10381000
17.66967773,-88.90388000
17.70019531,-85.47790000
17.73071289,-80.69476000
17.76123047,-74.58922000
17.79174805,-70.58939000
17.82226563,-69.43591000
17.85278320,-71.11803000
17.88330078,-75.55167000
17.91381836,-81.70673000
17.94433594,-87.69083000
17.97485352,-97.34700000
18.00537109,-94.19501000
18.03588867,-95.91861000
18.06640625,-95.11678000
18.09692383,-89.31888000
18.12744141,-86.24271000
18.15795898,-86.18529000
18.18847656,-90.53709000
18.21899414,-107.80280000
18.24951172,-96.97486000
18.28002930,-96.39266000
18.31054688,-93.68172000
18.34106445,-87.02505000
18.37158203,-86.22803000
18.40209961,-91.47755000
18.43261719,-105.94000000
18.46313477,-97.54433000
18.49365234,-103.52210000
18.52416992,-107.01190000
18.55468750,-103.23820000
18.58520508,-100.53570000
18.61572266,-92.79758000
18.64624023,-93.44474000
18.67675781,-106.02740000
18.70727539,-92.46925000
18.73779297,-91.61607000
18.76831055,-100.92440000
18.79882813,-98.72527000
18.82934570,-94.61363000
18.85986328,-95.37437000
18.89038086,-91.33704000
18.92089844,-90.51083000
18.95141602,-95.00539000
18.98193359,-104.78730000
19.01245117,-107.49930000
19.04296875,-96.23363000
19.07348633,-94.35677000
19.10400391,-99.89888000
19.13452148,-100.48320000
19.16503906,-95.88382000
19.19555664,-98.70368000
19.22607422,-108.66760000
19.25659180,-100.57450000
19.28710938,-99.54586000
19.31762695,-99.33442000
19.34814453,-96.34331000
19.37866211,-93.47911000
19.40917969,-94.36310000
19.43969727,-102.68220000
19.47021484,-99.47769000
19.50073242,-93.46180000
19.53125000,-92.28056000
19.56176758,-93.59117000
19.59228516,-96.15485000
19.62280273,-92.66644000
19.65332031,-87.15699000
19.68383789,-85.06667000
19.71435547,-86.37346000
19.74487305,-92.04171000
19.77539063,-93.45686000
19.80590820,-88.81998000
19.83642578,-89.83016000
19.86694336,-91.07213000
19.89746094,-88.21712000
19.92797852,-87.32071000
19.95849609,-89.00580000
19.98901367,-97.44702000
20.01953125,-95.09811000
20.05004883,-87.73932000
20.08056641,-86.72838000
20.11108398,-89.39088000
20.14160156,-92.67875000
20.17211914,-92.14600000
20.20263672,-92.10389000
20.23315430,-93.38242000
20.26367188,-94.73916000
20.29418945,-86.65172000
20.32470703,-84.50657000
20.35522461,-88.77185000
20.38574219,-96.27092000
20.41625977,-84.60324000
20.44677734,-82.99989000
20.47729492,-86.96375000
20.50781250,-100.56970000
20.53833008,-91.11733000
20.56884766,-87.76032000
20.59936523,-88.60770000
20.62988281,-96.72687000
20.66040039,-93.21007000
20.69091797,-87.34013000
20.72143555,-87.54585000
20.75195313,-93.75625000
20.78247070,-91.18069000
20.81298828,-89.00429000
20.84350586,-96.18240000
20.87402344,-95.31944000
20.90454102,-88.64732000
20.93505859,-88.68399000
20.96557617,-93.54910000
20.99609375,-104.28040000
21.02661133,-100.44220000
21.05712891,-92.51397000
21.08764648,-88.98402000
21.11816406,-88.20636000
21.14868164,-90.26247000
21.17919922,-105.05930000
21.20971680,-92.29531000
21.24023438,-88.21297000
21.27075195,-88.65189000
21.30126953,-91.92935000
21.33178711,-97.39104000
21.36230469,-95.69971000
21.39282227,-98.91290000
21.42333984,-95.39581000
21.45385742,-90.57198000
21.48437500,-90.14099000
21.51489258,-95.01713000
21.54541016,-99.55852000
21.57592773,-91.60552000
21.60644531,-91.78172000
21.63696289,-97.51462000
21.66748047,-97.06786000
21.69799805,-90.04192000
21.72851563,-89.79924000
21.75903320,-95.04272000
21.78955078,-102.10180000
21.82006836,-98.71413000
21.85058594,-97.23590000
21.88110352,-104.68960000
21.91162109,-95.04218000
21.94213867,-91.30398000
21.97265625,-92.80481000
22.00317383,-105.01490000
22.03369141,-96.42519000
22.06420898,-92.85831000
22.09472656,-93.26839000
22.12524414,-92.01741000
22.15576172,-94.17714000
22.18627930,-99.89266000
22.21679688,-98.94871000
22.24731445,-94.01839000
22.27783203,-91.77675000
22.30834961,-91.06630000
22.33886719,-92.10081000
22.36938477,-97.69586000
22.39990234,-110.40910000
22.43041992,-109.35040000
22.46093750,-97.63908000
22.49145508,-94.82103000
22.52197266,-98.55056000
22.55249023,-111.10590000
22.58300781,-105.21160000
22.61352539,-96.98902000
22.64404297,-94.07953000
22.67456055,-93.59428000
22.70507813,-92.67712000
22.73559570,-93.19663000
22.76611328,-101.40110000
22.79663086,-99.63190000
22.82714844,-93.94180000
22.85766602,-94.70646000
22.88818359,-93.94691000
22.91870117,-94.63833000
22.94921875,-94.81441000
22.97973633,-90.96100000
23.01025391,-90.76799000
23.04077148,-96.10081000
23.07128906,-104.32590000
23.10180664,-95.47714000
23.13232422,-97.44285000
23.16284180,-110.53100000
23.19335938,-105.40040000
23.22387695,-104.43610000
23.25439453,-99.09821000
23.28491211,-94.08100000
23.31542969,-92.02301000
23.34594727,-93.48592000
23.37646484,-98.72681000
23.40698242,-107.58240000
23.43750000,-96.04407000
23.46801758,-93.10800000
23.49853516,-94.43892000
23.52905273,-96.10038000
23.55957031,-94.18718000
23.59008789,-94.47649000
23.62060547,-100.00070000
23.65112305,-101.85210000
23.68164063,-96.36206000
23.71215820,-92.93027000
23.74267578,-93.23105000
23.77319336,-98.93684000
23.80371094,-101.95350000
23.83422852,-98.99300000
23.86474609,-97.35879000
23.89526367,-96.27918000
23.92578125,-96.13452000
23.95629883,-94.27802000
23.98681641,-93.01306000
24.01733398,-93.93680000
24.04785156,-95.71161000
24.07836914,-96.15814000
24.10888672,-97.12117000
24.13940430,-98.45809000
24.16992188,-99.58744000
24.20043945,-98.13907000
24.23095703,-95.69434000
24.26147461,-94.75700000
24.29199219,-95.10662000
24.32250977,-96.06449000
24.35302734,-97.28926000
24.38354492,-100.40220000
24.41406250,-103.65750000
24.44458008,-111.26210000
24.47509766,-103.53600000
24.50561523,-96.82091000
24.53613281,-96.40176000
24.56665039,-98.65646000
24.59716797,-101.38350000
24.62768555,-102.67020000
24.65820313,-99.66499000
24.68872070,-97.05254000
24.71923828,-96.78448000
24.74975586,-98.10357000
24.78027344,-97.84299000
24.81079102,-96.65466000
24.84130859,-96.48429000
24.87182617,-96.34586000
24.90234375,-95.90400000
24.93286133,-96.74294000
24.96337891,-98.26026000
24.99389648,-95.59129000
25.02441406,-93.50600000
25.05493164,-94.17917000
25.08544922,-96.11111000
25.11596680,-95.97504000
25.14648438,-94.13521000
25.17700195,-93.04183000
25.20751953,-92.95200000
25.23803711,-93.18129000
25.26855469,-93.11456000
25.29907227,-92.50014000
25.32958984,-91.83570000
25.36010742,-91.53482000
25.39062500,-91.83575000
25.42114258,-92.55725000
25.45166016,-93.18439000
25.48217773,-93.55466000
25.51269531,-95.18597000
25.54321289,-103.87590000
25.57373047,-97.60643000
25.60424805,-92.73775000
25.63476563,-93.34473000
25.66528320,-97.18655000
25.69580078,-100.65700000
25.72631836,-99.80033000
25.75683594,-95.66811000
25.78735352,-92.36143000
25.81787109,-92.06666000
25.84838867,-94.95383000
25.87890625,-101.04200000
25.90942383,-98.46350000
25.93994141,-95.11212000
25.97045898,-96.47514000
26.00097656,-101.57820000
26.03149414,-99.20712000
26.06201172,-98.05595000
26.09252930,-103.40270000
26.12304688,-111.82540000
26.15356445,-101.07660000
26.18408203,-98.53522000
26.21459961,-98.45218000
26.24511719,-104.42680000
26.27563477,-107.14200000
26.30615234,-98.00551000
26.33666992,-94.96471000
26.36718750,-92.36007000
26.39770508,-89.49438000
26.42822266,-87.49857000
26.45874023,-87.04383000
26.48925781,-88.09334000
26.51977539,-90.49500000
26.55029297,-93.94355000
26.58081055,-97.85561000
26.61132813,-100.87020000
26.64184570,-97.59619000
26.67236328,-94.43883000
26.70288086,-94.56130000
26.73339844,-97.49127000
26.76391602,-103.09050000
26.79443359,-102.62310000
26.82495117,-98.77470000
26.85546875,-96.92596000
26.88598633,-94.82415000
26.91650391,-93.33488000
26.94702148,-92.90724000
26.97753906,-94.14223000
27.00805664,-98.50160000
27.03857422,-108.07760000
27.06909180,-107.90860000
27.09960938,-102.36640000
27.13012695,-98.46483000
27.16064453,-95.89512000
27.19116211,-93.33610000
27.22167969,-91.68145000
27.25219727,-91.07922000
27.28271484,-91.78236000
27.31323242,-95.40434000
27.34375000,-102.84860000
27.37426758,-96.23491000
27.40478516,-93.77708000
27.43530273,-94.55553000
27.46582031,-96.51653000
27.49633789,-98.46107000
27.52685547,-96.27675000
27.55737305,-92.74078000
27.58789063,-91.02711000
27.61840820,-89.91128000
27.64892578,-88.99864000
27.67944336,-89.34837000
27.70996094,-91.43533000
27.74047852,-94.49624000
27.77099609,-100.22810000
27.80151367,-101.72990000
27.83203125,-93.47340000
27.86254883,-90.85948000
27.89306641,-91.32076000
27.92358398,-92.52723000
27.95410156,-91.66299000
27.98461914,-91.08489000
28.01513672,-91.88580000
28.04565430,-92.79430000
28.07617188,-92.80142000
28.10668945,-92.70010000
28.13720703,-93.09490000
28.16772461,-93.25031000
28.19824219,-93.04874000
28.22875977,-93.67355000
28.25927734,-96.08052000
28.28979492,-98.42523000
28.32031250,-96.38131000
28.35083008,-94.02400000
28.38134766,-91.56052000
28.41186523,-89.97466000
28.44238281,-90.44991000
28.47290039,-92.39317000
28.50341797,-93.53390000
28.53393555,-92.31354000
28.56445313,-90.14638000
28.59497070,-88.60814000
28.62548828,-88.44235000
28.65600586,-90.01862000
28.68652344,-93.73285000
28.71704102,-100.11670000
28.74755859,-116.13620000
28.77807617,-105.04120000
28.80859375,-98.87978000
28.83911133,-94.52244000
28.86962891,-91.23512000
28.90014648,-90.20097000
28.93066406,-91.97575000
28.96118164,-97.50500000
28.99169922,-106.63240000
29.02221680,-100.95890000
29.05273438,-97.20811000
29.08325195,-95.32772000
29.11376953,-95.67558000
29.14428711,-98.86874000
29.17480469,-102.67280000
29.20532227,-103.12110000
29.23583984,-102.60380000
29.26635742,-100.23500000
29.29687500,-97.48865000
29.32739258,-94.78191000
29.35791016,-92.64948000
29.38842773,-92.35122000
29.41894531,-94.59184000
29.44946289,-97.49154000
29.47998047,-97.29640000
29.51049805,-96.55529000
29.54101563,-94.95815000
29.57153320,-93.16522000
29.60205078,-92.50210000
29.63256836,-93.29228000
29.66308594,-94.97058000
29.69360352,-96.98269000
29.72412109,-99.54044000
29.75463867,-101.83630000
29.78515625,-102.31290000
29.81567383,-101.26160000
29.84619141,-99.95932000
29.87670898,-96.66622000
29.90722656,-94.45863000
29.93774414,-94.79058000
29.96826172,-95.63264000
29.99877930,-94.08694000
30.02929688,-92.68196000
30.05981445,-92.36607000
30.09033203,-94.13161000
30.12084961,-99.77788000
30.15136719,-109.51060000
30.18188477,-99.89931000
30.21240234,-94.93652000
30.24291992,-93.77290000
30.27343750,-95.03664000
30.30395508,-97.09894000
30.33447266,-100.43750000
30.36499023,-112.04060000
30.39550781,-102.21870000
30.42602539,-97.01382000
30.45654297,-97.63757000
30.48706055,-107.04260000
30.51757813,-102.99540000
30.54809570,-97.37997000
30.57861328,-97.74514000
30.60913086,-102.02150000
30.63964844,-106.28080000
30.67016602,-107.11100000
30.70068359,-113.19040000
30.73120117,-112.92380000
30.76171875,-103.87650000
30.79223633,-98.51717000
30.82275391,-95.72148000
30.85327148,-93.62702000
30.88378906,-91.98762000
30.91430664,-91.50051000
30.94482422,-91.56689000
30.97534180,-90.02245000
31.00585938,-88.54800000
31.03637695,-89.02836000
31.06689453,-91.08958000
31.09741211,-92.77553000
31.12792969,-92.62912000
31.15844727,-91.92897000
31.18896484,-91.86636000
31.21948242,-92.43486000
31.25000000,-93.03687000
31.28051758,-93.31438000
31.31103516,-93.70167000
31.34155273,-94.80014000
31.37207031,-96.34582000
31.40258789,-96.68729000
31.43310547,-94.59983000
31.46362305,-91.98742000
31.49414063,-90.48100000
31.52465820,-88.76630000
31.55517578,-85.90137000
31.58569336,-84.03175000
31.61621094,-84.32448000
31.64672852,-87.15942000
31.67724609,-92.30388000
31.70776367,-96.69638000
31.73828125,-98.77162000
31.76879883,-101.68660000
31.79931641,-108.40900000
31.82983398,-111.43920000
31.86035156,-100.57810000
31.89086914,-95.05654000
31.92138672,-91.46928000
31.95190430,-89.14249000
31.98242188,-88.38200000
32.01293945,-89.63153000
32.04345703,-93.62980000
32.07397461,-103.20890000
32.10449219,-115.44080000
32.13500977,-111.14080000
32.16552734,-110.89600000
32.19604492,-112.18650000
32.22656250,-99.57262000
32.25708008,-93.53046000
32.28759766,-91.12172000
32.31811523,-91.36819000
32.34863281,-94.37850000
32.37915039,-99.01877000
32.40966797,-99.50070000
32.44018555,-102.10260000
32.47070313,-104.02540000
32.50122070,-96.97380000
32.53173828,-92.58806000
32.56225586,-90.06763000
32.59277344,-89.47421000
32.62329102,-91.36266000
32.65380859,-95.33885000
32.68432617,-94.78207000
32.71484375,-91.51122000
32.74536133,-89.02557000
32.77587891,-87.46380000
32.80639648,-87.43325000
32.83691406,-89.24302000
32.86743164,-92.76008000
32.89794922,-96.21173000
32.92846680,-96.36700000
32.95898438,-94.38834000
32.98950195,-94.33903000
33.02001953,-98.49300000
33.05053711,-102.05620000
33.08105469,-94.78793000
33.11157227,-90.86333000
33.14208984,-88.54959000
33.17260742,-86.99963000
33.20312500,-85.95776000
33.23364258,-85.55526000
33.26416016,-85.94720000
33.29467773,-87.11697000
33.32519531,-89.01283000
33.35571289,-90.95715000
33.38623047,-90.29846000
33.41674805,-88.54854000
33.44726563,-88.70438000
33.47778320,-91.32920000
33.50830078,-95.69371000
33.53881836,-99.39130000
33.56933594,-103.63150000
33.59985352,-114.84050000
33.63037109,-100.83110000
33.66088867,-97.08162000
33.69140625,-96.14120000
33.72192383,-95.38558000
33.75244141,-94.13192000
33.78295898,-92.59446000
33.81347656,-90.92393000
33.84399414,-89.07866000
33.87451172,-87.30426000
33.90502930,-86.30885000
33.93554688,-86.52187000
33.96606445,-87.64139000
33.99658203,-89.00578000
34.02709961,-90.50446000
34.05761719,-92.04553000
34.08813477,-92.50528000
34.11865234,-91.88875000
34.14916992,-91.89447000
34.17968750,-92.78258000
34.21020508,-93.26234000
34.24072266,-92.57201000
34.27124023,-92.07909000
34.30175781,-92.94315000
34.33227539,-95.01767000
34.36279297,-97.11343000
34.39331055,-99.27110000
34.42382813,-101.09830000
34.45434570,-99.20992000
34.48486328,-97.01721000
34.51538086,-93.88963000
34.54589844,-90.31757000
34.57641602,-88.29614000
34.60693359,-88.02612000
34.63745117,-88.96942000
34.66796875,-89.91581000
34.69848633,-89.69511000
34.72900391,-88.81745000
34.75952148,-88.69027000
34.79003906,-89.77543000
34.82055664,-91.10908000
34.85107422,-91.92593000
34.88159180,-93.30139000
34.91210938,-97.07734000
34.94262695,-112.33300000
34.97314453,-96.51845000
35.00366211,-90.59155000
35.03417969,-88.57129000
35.06469727,-88.95222000
35.09521484,-91.05592000
35.12573242,-92.28815000
35.15625000,-91.52885000
35.18676758,-92.38786000
35.21728516,-94.70094000
35.24780273,-95.47101000
35.27832031,-94.87601000
35.30883789,-92.75807000
35.33935547,-91.51407000
35.36987305,-91.70605000
35.40039063,-92.08485000
35.43090820,-92.34427000
35.46142578,-93.02960000
35.49194336,-93.50661000
35.52246094,-93.43202000
35.55297852,-93.87580000
35.58349609,-95.92833000
35.61401367,-101.12180000
35.64453125,-102.09700000
35.67504883,-95.63779000
35.70556641,-91.73682000
35.73608398,-89.65412000
35.76660156,-88.96808000
35.79711914,-89.01550000
35.82763672,-89.80809000
35.85815430,-91.41440000
35.88867188,-92.12257000
35.91918945,-91.88168000
35.94970703,-92.12555000
35.98022461,-92.41917000
36.01074219,-92.62367000
36.04125977,-93.95465000
36.07177734,-98.54015000
36.10229492,-114.69950000
36.13281250,-103.51360000
36.16333008,-98.41645000
36.19384766,-95.84634000
36.22436523,-94.26906000
36.25488281,-93.75716000
36.28540039,-94.93211000
36.31591797,-97.67259000
36.34643555,-96.94078000
36.37695313,-93.63998000
36.40747070,-92.11963000
36.43798828,-92.59880000
36.46850586,-94.70470000
36.49902344,-97.04243000
36.52954102,-96.86745000
36.56005859,-94.80728000
36.59057617,-92.77455000
36.62109375,-91.25372000
36.65161133,-90.83514000
36.68212891,-91.62210000
36.71264648,-92.94328000
36.74316406,-93.98690000
36.77368164,-95.21942000
36.80419922,-97.07436000
36.83471680,-98.34396000
36.86523438,-99.78835000
36.89575195,-104.91210000
36.92626953,-108.82050000
36.95678711,-101.17570000
36.98730469,-102.24940000
37.01782227,-103.66710000
37.04833984,-94.51714000
37.07885742,-91.02719000
37.10937500,-90.49874000
37.13989258,-91.81713000
37.17041016,-93.99490000
37.20092773,-95.46860000
37.23144531,-96.37252000
37.26196289,-97.20050000
37.29248047,-97.10054000
37.32299805,-97.67307000
37.35351563,-98.31733000
37.38403320,-98.56850000
37.41455078,-101.91670000
37.44506836,-105.03230000
37.47558594,-101.72190000
37.50610352,-99.93511000
37.53662109,-99.32278000
37.56713867,-100.78110000
37.59765625,-102.70420000
37.62817383,-101.61570000
37.65869141,-100.13180000
37.68920898,-100.39900000
37.71972656,-102.62990000
37.75024414,-99.33747000
37.78076172,-95.74301000
37.81127930,-94.80907000
37.84179688,-96.60005000
37.87231445,-99.37941000
37.90283203,-96.45202000
37.93334961,-93.93243000
37.96386719,-93.24505000
37.99438477,-94.70870000
38.02490234,-98.79440000
38.05541992,-97.46729000
38.08593750,-93.61619000
38.11645508,-91.74770000
38.14697266,-90.89241000
38.17749023,-89.74258000
38.20800781,-88.24741000
38.23852539,-87.96484000
38.26904297,-90.00462000
38.29956055,-94.92773000
38.33007813,-100.65290000
38.36059570,-100.12830000
38.39111328,-97.53226000
38.42163086,-97.06741000
38.45214844,-99.63884000
38.48266602,-105.76810000
38.51318359,-98.78963000
38.54370117,-92.63459000
38.57421875,-90.48421000
38.60473633,-91.31706000
38.63525391,-94.95927000
38.66577148,-99.30112000
38.69628906,-95.34956000
38.72680664,-92.13960000
38.75732422,-92.23615000
38.78784180,-95.90309000
38.81835938,-103.20450000
38.84887695,-107.14860000
38.87939453,-115.94330000
38.90991211,-97.83780000
38.94042969,-92.39090000
38.97094727,-90.35476000
39.00146484,-90.38925000
39.03198242,-92.12352000
39.06250000,-95.89713000
39.09301758,-100.37830000
39.12353516,-95.21079000
39.15405273,-91.97411000
39.18457031,-90.51621000
39.21508789,-89.89716000
39.24560547,-90.95116000
39.27612305,-92.61623000
39.30664063,-92.15218000
39.33715820,-93.28534000
39.36767578,-99.87601000
39.39819336,-97.55768000
39.42871094,-93.77950000
39.45922852,-92.46017000
39.48974609,-90.84502000
39.52026367,-91.38432000
39.55078125,-95.57103000
39.58129883,-97.26376000
39.61181641,-92.62730000
39.64233398,-90.01184000
39.67285156,-88.62571000
39.70336914,-88.47849000
39.73388672,-89.94505000
39.76440430,-90.38145000
39.79492188,-89.98619000
39.82543945,-93.86923000
39.85595703,-112.00390000
39.88647461,-94.38594000
39.91699219,-92.25426000
39.94750977,-93.27417000
39.97802734,-93.42673000
40.00854492,-93.26061000
40.03906250,-95.49145000
40.06958008,-103.30300000
40.10009766,-98.24570000
40.13061523,-90.13161000
40.16113281,-86.85016000
40.19165039,-86.49258000
40.22216797,-88.64745000
40.25268555,-93.81871000
40.28320313,-107.56080000
40.31372070,-98.47052000
40.34423828,-95.78083000
40.37475586,-98.86821000
40.40527344,-104.20270000
40.43579102,-101.92640000
40.46630859,-97.91144000
40.49682617,-98.73936000
40.52734375,-104.92670000
40.55786133,-94.51784000
40.58837891,-89.57115000
40.61889648,-88.17781000
40.64941406,-89.47470000
40.67993164,-93.13802000
40.71044922,-96.68507000
40.74096680,-96.56326000
40.77148438,-97.41508000
40.80200195,-98.36339000
40.83251953,-96.40434000
40.86303711,-98.97309000
40.89355469,-101.15350000
40.92407227,-91.50254000
40.95458984,-89.76042000
40.98510742,-91.92326000
41.01562500,-95.06001000
41.04614258,-97.45364000
41.07666016,-106.65520000
41.10717773,-99.31303000
41.13769531,-92.24823000
41.16821289,-91.26353000
41.19873047,-93.57558000
41.22924805,-97.25728000
41.25976563,-100.96030000
41.29028320,-102.48260000
41.32080078,-100.41280000
41.35131836,-98.51788000
41.38183594,-93.80089000
41.41235352,-89.70535000
41.44287109,-87.98905000
41.47338867,-88.41007000
41.50390625,-90.79739000
41.53442383,-95.29329000
41.56494141,-98.27966000
41.59545898,-94.54404000
41.62597656,-92.65896000
41.65649414,-93.40473000
41.68701172,-93.22894000
41.71752930,-91.25228000
41.74804688,-90.64144000
41.77856445,-91.71642000
41.80908203,-95.69886000
41.83959961,-104.17880000
41.87011719,-102.52150000
41.90063477,-97.69153000
41.93115234,-89.67635000
41.96166992,-87.07249000
41.99218750,-88.38518000
42.02270508,-91.49118000
42.05322266,-91.83447000
42.08374023,-90.34118000
42.11425781,-90.00553000
42.14477539,-90.50353000
42.17529297,-89.88698000
42.20581055,-89.90342000
42.23632813,-92.56685000
42.26684570,-94.95232000
42.29736328,-92.16376000
42.32788086,-90.70157000
42.35839844,-91.17932000
42.38891602,-92.81805000
42.41943359,-94.85257000
42.44995117,-96.44036000
42.48046875,-96.88692000
42.51098633,-97.78493000
42.54150391,-100.54870000
42.57202148,-95.63203000
42.60253906,-90.85793000
42.63305664,-89.41669000
42.66357422,-89.76416000
42.69409180,-90.05159000
42.72460938,-89.91100000
42.75512695,-90.22772000
42.78564453,-91.69616000
42.81616211,-94.69353000
42.84667969,-98.53161000
42.87719727,-100.00760000
42.90771484,-97.30628000
42.93823242,-94.66373000
42.96875000,-96.30489000
42.99926758,-107.71830000
43.02978516,-94.02510000
43.06030273,-90.99018000
43.09082031,-92.12002000
43.12133789,-94.20769000
43.15185547,-94.75082000
43.18237305,-94.34859000
43.21289063,-94.71035000
43.24340820,-95.38228000
43.27392578,-96.70174000
43.30444336,-97.47734000
43.33496094,-93.23373000
43.36547852,-90.49390000
43.39599609,-89.88538000
43.42651367,-90.60914000
43.45703125,-91.81199000
43.48754883,-91.10315000
43.51806641,-88.61800000
43.54858398,-86.93185000
43.57910156,-86.25347000
43.60961914,-86.29591000
43.64013672,-87.58210000
43.67065430,-90.83533000
43.70117188,-93.83729000
43.73168945,-93.43861000
43.76220703,-94.93201000
43.79272461,-97.96647000
43.82324219,-95.62268000
43.85375977,-93.75975000
43.88427734,-96.48950000
43.91479492,-112.45860000
43.94531250,-100.29110000
43.97583008,-95.69782000
44.00634766,-94.00667000
44.03686523,-93.37653000
44.06738281,-93.08398000
44.09790039,-92.90948000
44.12841797,-92.76192000
44.15893555,-92.21042000
44.18945313,-91.09291000
44.21997070,-90.68983000
44.25048828,-92.34038000
44.28100586,-95.59480000
44.31152344,-97.33296000
44.34204102,-97.83868000
44.37255859,-99.81299000
44.40307617,-104.66590000
44.43359375,-102.81420000
44.46411133,-98.85601000
44.49462891,-97.86541000
44.52514648,-98.89825000
44.55566406,-101.12070000
44.58618164,-102.57130000
44.61669922,-100.29540000
44.64721680,-96.63425000
44.67773438,-94.55810000
44.70825195,-94.33679000
44.73876953,-95.95419000
44.76928711,-99.42514000
44.79980469,-98.96928000
44.83032227,-98.13171000
44.86083984,-104.15460000
44.89135742,-106.06860000
44.92187500,-98.92849000
44.95239258,-98.47086000
44.98291016,-99.35927000
45.01342773,-99.23874000
45.04394531,-99.95207000
45.07446289,-100.72970000
45.10498047,-99.77473000
45.13549805,-97.05034000
45.16601563,-95.77621000
45.19653320,-96.13980000
45.22705078,-96.53752000
45.25756836,-95.48697000
45.28808594,-92.86252000
45.31860352,-91.93459000
45.34912109,-93.21028000
45.37963867,-94.98261000
45.41015625,-95.37891000
45.44067383,-94.61391000
45.47119141,-95.36095000
45.50170898,-97.56095000
45.53222656,-98.05194000
45.56274414,-99.46872000
45.59326172,-101.07680000
45.62377930,-99.91288000
45.65429688,-98.15221000
45.68481445,-95.94498000
45.71533203,-94.34734000
45.74584961,-94.43349000
45.77636719,-96.25409000
45.80688477,-98.74246000
45.83740234,-99.94019000
45.86791992,-100.16820000
45.89843750,-101.67010000
45.92895508,-102.28930000
45.95947266,-99.01324000
45.98999023,-97.15257000
46.02050781,-96.11462000
46.05102539,-93.04082000
46.08154297,-90.55656000
46.11206055,-90.54243000
46.14257813,-93.12485000
46.17309570,-96.01699000
46.20361328,-95.91709000
46.23413086,-95.78894000
46.26464844,-97.41319000
46.29516602,-104.38580000
46.32568359,-107.33300000
46.35620117,-99.21727000
46.38671875,-98.76125000
46.41723633,-99.88026000
46.44775391,-97.82723000
46.47827148,-95.23719000
46.50878906,-94.19952000
46.53930664,-95.98095000
46.56982422,-101.65830000
46.60034180,-106.53260000
46.63085938,-104.29390000
46.66137695,-101.06450000
46.69189453,-101.96000000
46.72241211,-104.01810000
46.75292969,-102.09170000
46.78344727,-99.30647000
46.81396484,-95.49233000
46.84448242,-93.97468000
46.87500000,-95.16617000
46.90551758,-98.43234000
46.93603516,-102.25240000
46.96655273,-105.17290000
46.99707031,-115.25860000
47.02758789,-102.71770000
47.05810547,-95.43547000
47.08862305,-94.83458000
47.11914063,-100.40490000
47.14965820,-119.10550000
47.18017578,-115.02830000
47.21069336,-101.26460000
47.24121094,-98.12625000
47.27172852,-99.50955000
47.30224609,-97.37048000
47.33276367,-94.05798000
47.36328125,-93.05218000
47.39379883,-92.73277000
47.42431641,-91.53786000
47.45483398,-89.93401000
47.48535156,-89.00529000
47.51586914,-89.46544000
47.54638672,-91.37434000
47.57690430,-94.05383000
47.60742188,-99.43818000
47.63793945,-102.19280000
47.66845703,-93.25752000
47.69897461,-91.42852000
47.72949219,-93.41254000
47.76000977,-97.96718000
47.79052734,-98.43703000
47.82104492,-94.80243000
47.85156250,-93.10953000
47.88208008,-92.53421000
47.91259766,-91.85286000
47.94311523,-92.33787000
47.97363281,-96.68626000
48.00415039,-127.62650000
48.03466797,-98.18356000
48.06518555,-95.13688000
48.09570313,-94.05265000
48.12622070,-92.44053000
48.15673828,-90.89082000
48.18725586,-90.48793000
48.21777344,-91.78864000
48.24829102,-95.01088000
48.27880859,-99.01114000
48.30932617,-100.33750000
48.33984375,-100.11250000
48.37036133,-102.93010000
48.40087891,-106.26300000
48.43139648,-98.69189000
48.46191406,-94.82130000
48.49243164,-94.13871000
48.52294922,-95.90044000
48.55346680,-96.12457000
48.58398438,-93.68320000
48.61450195,-93.20074000
48.64501953,-95.53437000
48.67553711,-100.70360000
48.70605469,-102.75170000
48.73657227,-96.08983000
48.76708984,-92.87345000
48.79760742,-92.34527000
48.82812500,-92.36484000
48.85864258,-91.40199000
48.88916016,-90.56117000
48.91967773,-90.86997000
48.95019531,-92.37487000
48.98071289,-94.00898000
49.01123047,-96.15874000
49.04174805,-104.91320000
49.07226563,-102.55930000
49.10278320,-96.14121000
49.13330078,-95.26288000
49.16381836,-95.11761000
49.19433594,-95.48804000
49.22485352,-97.84627000
49.25537109,-102.34060000
49.28588867,-105.60040000
49.31640625,-104.84230000
49.34692383,-100.57550000
49.37744141,-97.38878000
49.40795898,-97.71413000
49.43847656,-102.31550000
49.46899414,-111.21290000
49.49951172,-109.91860000
49.53002930,-99.56358000
49.56054688,-94.92263000
49.59106445,-94.28841000
49.62158203,-98.52153000
49.65209961,-109.94840000
49.68261719,-96.96674000
49.71313477,-94.06197000
49.74365234,-93.24557000
49.77416992,-92.89623000
49.80468750,-93.09841000
49.83520508,-93.28899000
49.86572266,-93.21392000
49.89624023,-93.73043000
49.92675781,-96.25853000
49.95727539,-102.38890000
49.98779297,-109.49930000
50.01831055,-116.35380000
