Frequency,Channel A
(MHz),(dBu)

0.00000000,-38.56271000
0.03051758,-38.90984000
0.06103516,-43.35518000
0.09155273,-48.30252000
0.12207031,-52.88199000
0.15258789,-59.09731000
0.18310547,-68.76874000
0.21362305,-73.61221000
0.24414063,-67.25803000
0.27465820,-64.57137000
0.30517578,-62.37289000
0.33569336,-61.51800000
0.36621094,-62.62634000
0.39672852,-66.52179000
0.42724609,-67.78960000
0.45776367,-69.02026000
0.48828125,-66.09632000
0.51879883,-59.00145000
0.54931641,-56.97104000
0.57983398,-58.79164000
0.61035156,-64.81696000
0.64086914,-73.28513000
0.67138672,-65.53160000
0.70190430,-63.07624000
0.73242188,-64.17528000
0.76293945,-67.90641000
0.79345703,-76.77367000
0.82397461,-72.96880000
0.85449219,-64.36918000
0.88500977,-62.45753000
0.91552734,-65.13911000
0.94604492,-75.65436000
0.97656250,-65.39956000
1.00708008,-61.30293000
1.03759766,-62.39337000
1.06811523,-71.00825000
1.09863281,-71.95342000
1.12915039,-65.83035000
1.15966797,-67.53650000
1.19018555,-73.82323000
1.22070313,-71.32515000
1.25122070,-70.02770000
1.28173828,-72.95196000
1.31225586,-70.92055000
1.34277344,-67.33456000
1.37329102,-66.34824000
1.40380859,-66.98983000
1.43432617,-67.95359000
1.46484375,-68.12998000
1.49536133,-69.33040000
1.52587891,-75.76567000
1.55639648,-79.33045000
1.58691406,-68.45607000
1.61743164,-64.45856000
1.64794922,-62.90313000
1.67846680,-63.39265000
1.70898438,-65.89100000
1.73950195,-70.77780000
1.77001953,-75.94389000
1.80053711,-72.07381000
1.83105469,-69.76643000
1.86157227,-69.07348000
1.89208984,-68.71762000
1.92260742,-68.05008000
1.95312500,-67.46590000
1.98364258,-68.91727000
2.01416016,-72.26205000
2.04467773,-71.10802000
2.07519531,-71.07114000
2.10571289,-79.33178000
2.13623047,-76.18964000
2.16674805,-68.54761000
2.19726563,-66.35658000
2.22778320,-66.55524000
2.25830078,-68.63612000
2.28881836,-71.65053000
2.31933594,-72.26455000
2.34985352,-71.88651000
2.38037109,-73.27702000
2.41088867,-74.28809000
2.44140625,-72.56940000
2.47192383,-71.39954000
2.50244141,-70.67081000
2.53295898,-68.83014000
2.56347656,-67.34668000
2.59399414,-67.61090000
2.62451172,-68.57393000
2.65502930,-68.04051000
2.68554688,-68.37434000
2.71606445,-73.12312000
2.74658203,-80.34042000
2.77709961,-70.84142000
2.80761719,-68.94527000
2.83813477,-70.07791000
2.86865234,-70.45215000
2.89916992,-68.79640000
2.92968750,-67.90210000
2.96020508,-68.31174000
2.99072266,-68.02584000
3.02124023,-66.07652000
3.05175781,-65.21357000
3.08227539,-65.75024000
3.11279297,-66.40319000
3.14331055,-68.40699000
3.17382813,-74.21853000
3.20434570,-68.21113000
3.23486328,-63.82767000
3.26538086,-63.49057000
3.29589844,-66.14808000
3.32641602,-69.38885000
3.35693359,-68.11944000
3.38745117,-66.70501000
3.41796875,-66.92399000
3.44848633,-67.72343000
3.47900391,-67.58160000
3.50952148,-66.57268000
3.54003906,-66.01216000
3.57055664,-66.16683000
3.60107422,-65.84075000
3.63159180,-65.32024000
3.66210938,-65.36428000
3.69262695,-64.99152000
3.72314453,-64.84397000
3.75366211,-66.19206000
3.78417969,-67.12699000
3.81469727,-65.17299000
3.84521484,-63.69606000
3.87573242,-64.07224000
3.90625000,-65.66215000
3.93676758,-65.87087000
3.96728516,-64.17590000
3.99780273,-62.96236000
4.02832031,-63.01840000
4.05883789,-63.75078000
4.08935547,-63.68026000
4.11987305,-63.27895000
4.15039063,-63.48343000
4.18090820,-63.78069000
4.21142578,-64.75738000
4.24194336,-68.26833000
4.27246094,-73.40630000
4.30297852,-69.89301000
4.33349609,-68.07791000
4.36401367,-68.91176000
4.39453125,-69.71702000
4.42504883,-68.56754000
4.45556641,-67.68486000
4.48608398,-68.09192000
4.51660156,-68.86850000
4.54711914,-69.13412000
4.57763672,-69.39178000
4.60815430,-69.97429000
4.63867188,-70.66542000
4.66918945,-70.35617000
4.69970703,-69.14740000
4.73022461,-68.37264000
4.76074219,-67.95721000
4.79125977,-67.50298000
4.82177734,-67.09268000
4.85229492,-67.08598000
4.88281250,-67.58772000
4.91333008,-68.03817000
4.94384766,-68.13607000
4.97436523,-68.01713000
5.00488281,-68.04288000
5.03540039,-68.87267000
5.06591797,-70.10192000
5.09643555,-70.63912000
5.12695313,-71.03315000
5.15747070,-71.53365000
5.18798828,-71.64520000
5.21850586,-71.59745000
5.24902344,-71.31873000
5.27954102,-70.83984000
5.31005859,-70.92633000
5.34057617,-72.34010000
5.37109375,-75.45067000
5.40161133,-78.75883000
5.43212891,-77.92023000
5.46264648,-76.27293000
5.49316406,-75.38264000
5.52368164,-74.05689000
5.55419922,-71.95387000
5.58471680,-70.35238000
5.61523438,-69.33981000
5.64575195,-67.92809000
5.67626953,-66.59258000
5.70678711,-65.82242000
5.73730469,-64.93287000
5.76782227,-63.67006000
5.79833984,-62.64445000
5.82885742,-62.27007000
5.85937500,-62.40426000
5.88989258,-62.44423000
5.92041016,-62.29367000
5.95092773,-62.36016000
5.98144531,-62.56606000
6.01196289,-62.54967000
6.04248047,-62.33555000
6.07299805,-62.48815000
6.10351563,-63.36594000
6.13403320,-64.41974000
6.16455078,-65.09391000
6.19506836,-65.95946000
6.22558594,-67.28758000
6.25610352,-68.58517000
6.28662109,-68.93593000
6.31713867,-67.90071000
6.34765625,-67.14288000
6.37817383,-68.02766000
6.40869141,-70.63714000
6.43920898,-73.00632000
6.46972656,-72.71371000
6.50024414,-72.63114000
6.53076172,-74.49152000
6.56127930,-76.53775000
6.59179688,-75.83409000
6.62231445,-75.42986000
6.65283203,-76.23468000
6.68334961,-77.65632000
6.71386719,-77.17172000
6.74438477,-74.78003000
6.77490234,-74.30687000
6.80541992,-76.31281000
6.83593750,-79.76256000
6.86645508,-81.09924000
6.89697266,-81.32092000
6.92749023,-84.25068000
6.95800781,-87.88965000
6.98852539,-84.42195000
7.01904297,-81.31695000
7.04956055,-80.34352000
7.08007813,-82.52646000
7.11059570,-89.11002000
7.14111328,-86.34736000
7.17163086,-84.59724000
7.20214844,-84.85677000
7.23266602,-81.86515000
7.26318359,-80.90155000
7.29370117,-83.50407000
7.32421875,-89.86671000
7.35473633,-96.40569000
7.38525391,-88.17207000
7.41577148,-82.55829000
7.44628906,-80.90668000
7.47680664,-82.57033000
7.50732422,-86.28268000
7.53784180,-86.32713000
7.56835938,-85.08739000
7.59887695,-84.03346000
7.62939453,-81.67221000
7.65991211,-79.97808000
7.69042969,-79.44414000
7.72094727,-80.02611000
7.75146484,-82.59155000
7.78198242,-86.74931000
7.81250000,-83.37681000
7.84301758,-80.94273000
7.87353516,-82.80034000
7.90405273,-86.79796000
7.93457031,-82.13284000
7.96508789,-79.86700000
7.99560547,-81.74005000
8.02612305,-86.74783000
8.05664063,-82.62146000
8.08715820,-79.53473000
8.11767578,-80.19334000
8.14819336,-84.26762000
8.17871094,-89.33880000
8.20922852,-89.40340000
8.23974609,-92.68098000
8.27026367,-90.74509000
8.30078125,-87.25240000
8.33129883,-89.13538000
8.36181641,-95.97919000
8.39233398,-115.34370000
8.42285156,-90.91463000
8.45336914,-85.13188000
8.48388672,-83.36343000
8.51440430,-84.23454000
8.54492188,-88.70576000
8.57543945,-96.27847000
8.60595703,-89.24161000
8.63647461,-86.82054000
8.66699219,-87.08722000
8.69750977,-88.10707000
8.72802734,-88.98204000
8.75854492,-90.92889000
8.78906250,-92.35330000
8.81958008,-89.56952000
8.85009766,-86.68937000
8.88061523,-83.87511000
8.91113281,-82.21246000
8.94165039,-82.47124000
8.97216797,-84.68985000
9.00268555,-88.25512000
9.03320313,-90.23872000
9.06372070,-89.14962000
9.09423828,-86.31152000
9.12475586,-83.62683000
9.15527344,-82.19967000
9.18579102,-82.03008000
9.21630859,-83.19490000
9.24682617,-86.72493000
9.27734375,-98.45307000
9.30786133,-93.45216000
9.33837891,-88.24288000
9.36889648,-88.36836000
9.39941406,-90.32105000
9.42993164,-91.72741000
9.46044922,-89.91159000
9.49096680,-85.61693000
9.52148438,-82.54726000
9.55200195,-81.75475000
9.58251953,-83.67029000
9.61303711,-89.64707000
9.64355469,-100.73620000
9.67407227,-95.24459000
9.70458984,-94.25697000
9.73510742,-101.11740000
9.76562500,-97.11931000
9.79614258,-88.80185000
9.82666016,-85.16601000
9.85717773,-82.97357000
9.88769531,-83.06744000
9.91821289,-88.51838000
9.94873047,-89.71896000
9.97924805,-83.13806000
10.00976563,-85.42480000
10.04028320,-90.14747000
10.07080078,-81.53828000
10.10131836,-80.25694000
10.13183594,-83.14941000
10.16235352,-84.83362000
10.19287109,-83.72488000
10.22338867,-87.21933000
10.25390625,-92.53529000
10.28442383,-84.07011000
10.31494141,-82.33083000
10.34545898,-85.22620000
10.37597656,-85.87805000
10.40649414,-80.97720000
10.43701172,-79.60564000
10.46752930,-82.31896000
10.49804688,-91.41411000
10.52856445,-80.35403000
10.55908203,-75.65062000
10.58959961,-75.11992000
10.62011719,-77.85163000
10.65063477,-84.01096000
10.68115234,-94.63409000
10.71166992,-84.88867000
10.74218750,-81.08325000
10.77270508,-82.18550000
10.80322266,-89.74878000
10.83374023,-91.51665000
10.86425781,-84.74867000
10.89477539,-82.98068000
10.92529297,-83.28783000
10.95581055,-85.08450000
10.98632813,-82.20814000
11.01684570,-79.52891000
11.04736328,-80.29290000
11.07788086,-81.38195000
11.10839844,-79.62537000
11.13891602,-80.03482000
11.16943359,-82.59795000
11.19995117,-82.89039000
11.23046875,-83.58711000
11.26098633,-84.01463000
11.29150391,-82.45056000
11.32202148,-83.46660000
11.35253906,-91.05666000
11.38305664,-91.57278000
11.41357422,-84.07584000
11.44409180,-83.41859000
11.47460938,-84.72111000
11.50512695,-83.71825000
11.53564453,-83.02483000
11.56616211,-83.72861000
11.59667969,-82.50797000
11.62719727,-79.55164000
11.65771484,-77.43652000
11.68823242,-76.15535000
11.71875000,-76.04196000
11.74926758,-78.40701000
11.77978516,-86.86873000
11.81030273,-90.02269000
11.84082031,-83.69623000
11.87133789,-86.53688000
11.90185547,-91.58151000
11.93237305,-83.12469000
11.96289063,-77.75560000
11.99340820,-75.88510000
12.02392578,-77.35649000
12.05444336,-82.61089000
12.08496094,-93.81429000
12.11547852,-101.55630000
12.14599609,-86.65065000
12.17651367,-79.49825000
12.20703125,-76.95667000
12.23754883,-77.88288000
12.26806641,-81.02520000
12.29858398,-83.48047000
12.32910156,-86.77078000
12.35961914,-92.45098000
12.39013672,-90.57061000
12.42065430,-88.44834000
12.45117188,-87.91791000
12.48168945,-86.30561000
12.51220703,-83.56080000
12.54272461,-83.29793000
12.57324219,-88.00290000
12.60375977,-98.34573000
12.63427734,-82.93727000
12.66479492,-78.19142000
12.69531250,-76.78979000
12.72583008,-78.32690000
12.75634766,-84.27055000
12.78686523,-84.18602000
12.81738281,-77.96264000
12.84790039,-77.24613000
12.87841797,-83.40995000
12.90893555,-85.80875000
12.93945313,-78.56141000
12.96997070,-79.27921000
13.00048828,-82.03293000
13.03100586,-81.34210000
13.06152344,-83.82270000
13.09204102,-101.16610000
13.12255859,-86.36246000
13.15307617,-86.70783000
13.18359375,-101.26990000
13.21411133,-85.05688000
13.24462891,-81.90565000
13.27514648,-80.61874000
13.30566406,-78.80787000
13.33618164,-78.42783000
13.36669922,-81.17833000
13.39721680,-90.90224000
13.42773438,-83.79041000
13.45825195,-78.92131000
13.48876953,-71.79317000
13.51928711,-65.88213000
13.54980469,-63.77855000
13.58032227,-65.58756000
13.61083984,-73.08543000
13.64135742,-82.83536000
13.67187500,-73.16766000
13.70239258,-72.13181000
13.73291016,-76.21907000
13.76342773,-87.81932000
13.79394531,-74.99932000
13.82446289,-73.25851000
13.85498047,-76.16476000
13.88549805,-87.00138000
13.91601563,-83.88057000
13.94653320,-78.07528000
13.97705078,-79.31092000
14.00756836,-86.96074000
14.03808594,-82.16084000
14.06860352,-80.89687000
14.09912109,-87.97610000
14.12963867,-84.19292000
14.16015625,-79.42130000
14.19067383,-79.77275000
14.22119141,-83.59569000
14.25170898,-84.72638000
14.28222656,-79.86543000
14.31274414,-75.57069000
14.34326172,-72.85992000
14.37377930,-72.75404000
14.40429688,-76.49219000
14.43481445,-84.26833000
14.46533203,-76.46791000
14.49584961,-73.45382000
14.52636719,-73.79509000
14.55688477,-75.17549000
14.58740234,-73.66914000
14.61791992,-71.37894000
14.64843750,-71.43756000
14.67895508,-74.88451000
14.70947266,-75.30321000
14.73999023,-70.47919000
14.77050781,-69.34013000
14.80102539,-72.09502000
14.83154297,-74.14347000
14.86206055,-69.11551000
14.89257813,-67.32411000
14.92309570,-69.15630000
14.95361328,-72.13369000
14.98413086,-68.80404000
15.01464844,-66.72993000
15.04516602,-68.13654000
15.07568359,-71.38894000
15.10620117,-68.63059000
15.13671875,-66.64397000
15.16723633,-68.61697000
15.19775391,-74.96224000
15.22827148,-72.45396000
15.25878906,-69.49121000
15.28930664,-71.22554000
15.31982422,-80.11588000
15.35034180,-79.79613000
15.38085938,-73.66828000
15.41137695,-73.46028000
15.44189453,-75.25856000
15.47241211,-77.72363000
15.50292969,-84.93269000
15.53344727,-79.75114000
15.56396484,-72.65550000
15.59448242,-70.96420000
15.62500000,-74.02746000
15.65551758,-97.04507000
15.68603516,-75.93964000
15.71655273,-73.40330000
15.74707031,-77.80509000
15.77758789,-86.99754000
15.80810547,-76.05170000
15.83862305,-74.73599000
15.86914063,-79.31545000
15.89965820,-84.31271000
15.93017578,-75.84455000
15.96069336,-74.35148000
15.99121094,-77.42432000
16.02172852,-89.99258000
16.05224609,-81.22242000
16.08276367,-76.72250000
16.11328125,-78.04768000
16.14379883,-87.21386000
16.17431641,-87.22008000
16.20483398,-82.41479000
16.23535156,-85.12021000
16.26586914,-87.44851000
16.29638672,-81.53709000
16.32690430,-78.64119000
16.35742188,-78.51114000
16.38793945,-81.14593000
16.41845703,-83.49434000
16.44897461,-82.23851000
16.47949219,-85.25371000
16.51000977,-87.79723000
16.54052734,-79.43758000
16.57104492,-77.44054000
16.60156250,-80.56960000
16.63208008,-101.24960000
16.66259766,-82.75114000
16.69311523,-80.19626000
16.72363281,-83.76723000
16.75415039,-85.54615000
16.78466797,-80.09143000
16.81518555,-79.21410000
16.84570313,-82.73110000
16.87622070,-90.52452000
16.90673828,-87.10865000
16.93725586,-86.62132000
16.96777344,-92.45561000
16.99829102,-100.44490000
17.02880859,-89.87640000
17.05932617,-87.92492000
17.08984375,-88.88234000
17.12036133,-91.58858000
17.15087891,-98.11555000
17.18139648,-95.97247000
17.21191406,-90.82991000
17.24243164,-92.66472000
17.27294922,-95.23262000
17.30346680,-88.51856000
17.33398438,-87.31847000
17.36450195,-91.15131000
17.39501953,-103.31580000
17.42553711,-102.25740000
17.45605469,-99.31854000
17.48657227,-92.46642000
17.51708984,-88.45949000
17.54760742,-88.46521000
17.57812500,-95.14985000
17.60864258,-98.06344000
17.63916016,-91.29514000
17.66967773,-94.86790000
17.70019531,-84.70641000
17.73071289,-77.32612000
17.76123047,-73.16649000
17.79174805,-71.43259000
17.82226563,-72.35373000
17.85278320,-76.81321000
17.88330078,-88.37269000
17.91381836,-91.37801000
17.94433594,-87.93980000
17.97485352,-87.96240000
18.00537109,-92.24442000
18.03588867,-102.12380000
18.06640625,-92.45811000
18.09692383,-91.87479000
18.12744141,-92.98776000
18.15795898,-92.28149000
18.18847656,-91.18839000
18.21899414,-90.18658000
18.24951172,-90.17010000
18.28002930,-92.59340000
18.31054688,-99.37788000
18.34106445,-102.58800000
18.37158203,-97.01690000
18.40209961,-95.08508000
18.43261719,-92.45773000
18.46313477,-89.83176000
18.49365234,-89.33231000
18.52416992,-91.26702000
18.55468750,-94.86659000
18.58520508,-96.96087000
18.61572266,-94.65642000
18.64624023,-93.39974000
18.67675781,-95.73434000
18.70727539,-100.14050000
18.73779297,-97.77470000
18.76831055,-95.88087000
18.79882813,-95.93884000
18.82934570,-99.22607000
18.85986328,-104.58560000
18.89038086,-95.33705000
18.92089844,-92.83981000
18.95141602,-94.17358000
18.98193359,-97.57928000
19.01245117,-101.54490000
19.04296875,-102.29040000
19.07348633,-101.33510000
19.10400391,-100.08370000
19.13452148,-97.11636000
19.16503906,-96.43401000
19.19555664,-97.20962000
19.22607422,-94.86713000
19.25659180,-94.10183000
19.28710938,-95.22149000
19.31762695,-93.66971000
19.34814453,-92.96336000
19.37866211,-96.01012000
19.40917969,-102.41200000
19.43969727,-98.59918000
19.47021484,-94.99431000
19.50073242,-93.08759000
19.53125000,-91.52477000
19.56176758,-90.26988000
19.59228516,-90.22806000
19.62280273,-92.47461000
19.65332031,-97.95066000
19.68383789,-96.35803000
19.71435547,-90.07294000
19.74487305,-86.95664000
19.77539063,-86.06854000
19.80590820,-86.77095000
19.83642578,-88.93083000
19.86694336,-92.46070000
19.89746094,-94.01230000
19.92797852,-92.37296000
19.95849609,-92.56116000
19.98901367,-96.72258000
20.01953125,-99.59837000
20.05004883,-91.66151000
20.08056641,-88.55756000
20.11108398,-88.59746000
20.14160156,-91.24951000
20.17211914,-96.07306000
20.20263672,-100.43120000
20.23315430,-102.03000000
20.26367188,-100.14950000
20.29418945,-96.17799000
20.32470703,-92.55557000
20.35522461,-90.89803000
20.38574219,-90.81490000
20.41625977,-91.62161000
20.44677734,-93.50879000
20.47729492,-96.99807000
20.50781250,-101.04720000
20.53833008,-98.61543000
20.56884766,-95.07738000
20.59936523,-94.33607000
20.62988281,-96.20384000
20.66040039,-101.02430000
20.69091797,-107.15800000
20.72143555,-101.38490000
20.75195313,-97.70451000
20.78247070,-95.31543000
20.81298828,-92.88760000
20.84350586,-91.19392000
20.87402344,-91.20434000
20.90454102,-92.80995000
20.93505859,-95.85623000
20.96557617,-102.98870000
20.99609375,-103.44800000
21.02661133,-94.16377000
21.05712891,-90.66132000
21.08764648,-90.65219000
21.11816406,-94.37122000
21.14868164,-108.30470000
21.17919922,-99.13880000
21.20971680,-93.11680000
21.24023438,-90.78819000
21.27075195,-89.93527000
21.30126953,-90.51973000
21.33178711,-93.39133000
21.36230469,-99.20963000
21.39282227,-96.35712000
21.42333984,-92.72542000
21.45385742,-93.03592000
21.48437500,-98.05996000
21.51489258,-100.84090000
21.54541016,-93.83304000
21.57592773,-92.36047000
21.60644531,-95.39577000
21.63696289,-103.99230000
21.66748047,-95.00991000
21.69799805,-89.84177000
21.72851563,-88.21484000
21.75903320,-89.58455000
21.78955078,-94.85568000
21.82006836,-109.96050000
21.85058594,-103.45320000
21.88110352,-105.88940000
21.91162109,-103.30150000
21.94213867,-95.98645000
21.97265625,-96.78909000
22.00317383,-106.00840000
22.03369141,-92.03996000
22.06420898,-86.97194000
22.09472656,-85.03333000
22.12524414,-85.40057000
22.15576172,-88.52192000
22.18627930,-95.42448000
22.21679688,-93.41183000
22.24731445,-88.16751000
22.27783203,-86.02189000
22.30834961,-86.31675000
22.33886719,-89.77059000
22.36938477,-96.84391000
22.39990234,-92.15657000
22.43041992,-89.33797000
22.46093750,-89.25444000
22.49145508,-88.97058000
22.52197266,-87.92238000
22.55249023,-87.79103000
22.58300781,-90.09083000
22.61352539,-98.10151000
22.64404297,-98.11668000
22.67456055,-93.38264000
22.70507813,-96.08077000
22.73559570,-119.69440000
22.76611328,-97.92622000
22.79663086,-94.26009000
22.82714844,-94.37282000
22.85766602,-96.58383000
22.88818359,-97.66029000
22.91870117,-95.58725000
22.94921875,-95.18989000
22.97973633,-97.87070000
23.01025391,-102.86410000
23.04077148,-100.08150000
23.07128906,-97.49785000
23.10180664,-97.74978000
23.13232422,-94.91269000
23.16284180,-91.59161000
23.19335938,-91.00480000
23.22387695,-92.99809000
23.25439453,-95.56904000
23.28491211,-95.78839000
23.31542969,-97.34003000
23.34594727,-103.91280000
23.37646484,-103.56560000
23.40698242,-96.92292000
23.43750000,-95.37254000
23.46801758,-97.65523000
23.49853516,-97.65517000
23.52905273,-94.65997000
23.55957031,-95.35007000
23.59008789,-101.28010000
23.62060547,-104.90610000
23.65112305,-93.17191000
23.68164063,-89.77649000
23.71215820,-90.93817000
23.74267578,-97.24030000
23.77319336,-98.16789000
23.80371094,-95.03379000
23.83422852,-96.99054000
23.86474609,-101.59020000
23.89526367,-97.16842000
23.92578125,-94.10237000
23.95629883,-94.85907000
23.98681641,-98.59032000
24.01733398,-97.48111000
24.04785156,-94.04171000
24.07836914,-92.23473000
24.10888672,-91.55473000
24.13940430,-92.71401000
24.16992188,-98.21515000
24.20043945,-111.64210000
24.23095703,-97.16078000
24.26147461,-95.05812000
24.29199219,-95.41091000
24.32250977,-96.44112000
24.35302734,-99.86766000
24.38354492,-108.25780000
24.41406250,-101.78080000
24.44458008,-96.66831000
24.47509766,-95.92330000
24.50561523,-100.96340000
24.53613281,-97.15698000
24.56665039,-93.37900000
24.59716797,-96.22411000
24.62768555,-99.86395000
24.65820313,-93.00614000
24.68872070,-91.23523000
24.71923828,-91.66779000
24.74975586,-91.54741000
24.78027344,-91.58044000
24.81079102,-94.03287000
24.84130859,-102.71460000
24.87182617,-103.30430000
24.90234375,-97.43880000
24.93286133,-96.06277000
24.96337891,-96.36946000
24.99389648,-100.00230000
25.02441406,-99.77229000
25.05493164,-95.28917000
25.08544922,-95.80125000
25.11596680,-100.90120000
25.14648438,-93.68420000
25.17700195,-91.05416000
25.20751953,-94.38366000
25.23803711,-95.97970000
25.26855469,-89.78587000
25.29907227,-88.06299000
25.32958984,-89.62246000
25.36010742,-95.05013000
25.39062500,-114.22500000
25.42114258,-102.57310000
25.45166016,-101.79480000
25.48217773,-109.99630000
25.51269531,-104.66450000
25.54321289,-99.08516000
25.57373047,-96.48658000
25.60424805,-94.46605000
25.63476563,-92.57165000
25.66528320,-91.23349000
25.69580078,-90.81127000
25.72631836,-91.47437000
25.75683594,-94.31039000
25.78735352,-98.65176000
25.81787109,-94.88682000
25.84838867,-92.40391000
25.87890625,-91.34205000
25.90942383,-89.92976000
25.93994141,-89.46265000
25.97045898,-91.02769000
26.00097656,-94.46570000
26.03149414,-96.77635000
26.06201172,-94.58992000
26.09252930,-92.47115000
26.12304688,-92.88031000
26.15356445,-94.49081000
26.18408203,-95.08253000
26.21459961,-96.65781000
26.24511719,-93.11948000
26.27563477,-91.20831000
26.30615234,-93.79886000
26.33666992,-96.08949000
26.36718750,-91.75648000
26.39770508,-89.30971000
26.42822266,-87.77103000
26.45874023,-86.39785000
26.48925781,-86.22234000
26.51977539,-88.10001000
26.55029297,-92.44267000
26.58081055,-96.15324000
26.61132813,-91.66870000
26.64184570,-88.66106000
26.67236328,-88.53542000
26.70288086,-91.49491000
26.73339844,-99.72685000
26.76391602,-109.32560000
26.79443359,-100.77160000
26.82495117,-100.52080000
26.85546875,-97.42522000
26.88598633,-94.57547000
26.91650391,-94.22889000
26.94702148,-94.54549000
26.97753906,-93.07968000
27.00805664,-91.31763000
27.03857422,-91.18791000
27.06909180,-93.30513000
27.09960938,-94.75480000
27.13012695,-91.90474000
27.16064453,-90.38721000
27.19116211,-91.93806000
27.22167969,-97.78113000
27.25219727,-95.93497000
27.28271484,-90.26869000
27.31323242,-88.47240000
27.34375000,-89.77021000
27.37426758,-94.34045000
27.40478516,-95.25494000
27.43530273,-92.85146000
27.46582031,-94.40476000
27.49633789,-99.73389000
27.52685547,-104.22420000
27.55737305,-103.69050000
27.58789063,-99.02751000
27.61840820,-96.38917000
27.64892578,-97.62477000
27.67944336,-104.72820000
27.70996094,-101.74500000
27.74047852,-97.15395000
27.77099609,-96.37309000
27.80151367,-95.37234000
27.83203125,-95.74739000
27.86254883,-99.90454000
27.89306641,-100.07790000
27.92358398,-97.93039000
27.95410156,-98.38772000
27.98461914,-95.21407000
28.01513672,-93.75510000
28.04565430,-97.92360000
28.07617188,-106.71660000
28.10668945,-96.90106000
28.13720703,-97.76196000
28.16772461,-107.37970000
28.19824219,-99.37456000
28.22875977,-93.00793000
28.25927734,-90.53088000
28.28979492,-91.93531000
28.32031250,-98.62428000
28.35083008,-101.16270000
28.38134766,-99.65143000
28.41186523,-99.47127000
28.44238281,-95.38887000
28.47290039,-94.22626000
28.50341797,-94.89960000
28.53393555,-94.86169000
28.56445313,-93.73969000
28.59497070,-93.62098000
28.62548828,-96.49228000
28.65600586,-96.30303000
28.68652344,-89.35371000
28.71704102,-85.95911000
28.74755859,-85.66005000
28.77807617,-87.85146000
28.80859375,-89.49634000
28.83911133,-89.18731000
28.86962891,-91.11836000
28.90014648,-94.50807000
28.93066406,-94.90253000
28.96118164,-97.83029000
28.99169922,-106.39620000
29.02221680,-97.96399000
29.05273438,-94.06167000
29.08325195,-93.40607000
29.11376953,-95.73271000
29.14428711,-101.38490000
29.17480469,-104.69370000
29.20532227,-104.37000000
29.23583984,-118.79820000
29.26635742,-101.66850000
29.29687500,-95.13632000
29.32739258,-91.60759000
29.35791016,-89.04705000
29.38842773,-88.20316000
29.41894531,-88.89279000
29.44946289,-90.04478000
29.47998047,-91.56592000
29.51049805,-93.62878000
29.54101563,-95.57225000
29.57153320,-100.08160000
29.60205078,-109.06030000
29.63256836,-93.59727000
29.66308594,-89.45583000
29.69360352,-89.82826000
29.72412109,-97.24574000
29.75463867,-97.81403000
29.78515625,-90.30804000
29.81567383,-90.76662000
29.84619141,-97.86156000
29.87670898,-102.48890000
29.90722656,-94.50995000
29.93774414,-91.86432000
29.96826172,-90.02408000
29.99877930,-88.51648000
30.02929688,-88.05611000
30.05981445,-89.70651000
30.09033203,-93.40201000
30.12084961,-94.42459000
30.15136719,-94.89598000
30.18188477,-97.49229000
30.21240234,-96.03648000
30.24291992,-92.87202000
30.27343750,-91.07400000
30.30395508,-90.20039000
30.33447266,-90.24651000
30.36499023,-92.78195000
30.39550781,-98.80205000
30.42602539,-93.33987000
30.45654297,-90.32380000
30.48706055,-90.99971000
30.51757813,-94.12244000
30.54809570,-99.42270000
30.57861328,-110.62250000
30.60913086,-99.46130000
30.63964844,-95.86257000
30.67016602,-102.63090000
30.70068359,-97.31205000
30.73120117,-90.09995000
30.76171875,-89.96541000
30.79223633,-95.08659000
30.82275391,-103.28560000
30.85327148,-99.13191000
30.88378906,-98.50743000
30.91430664,-97.38007000
30.94482422,-94.62820000
30.97534180,-93.72749000
31.00585938,-98.46693000
31.03637695,-95.92639000
31.06689453,-88.35878000
31.09741211,-86.23650000
31.12792969,-87.63725000
31.15844727,-92.92659000
31.18896484,-104.16530000
31.21948242,-102.44270000
31.25000000,-99.75082000
31.28051758,-94.09322000
31.31103516,-89.70911000
31.34155273,-86.90764000
31.37207031,-86.28511000
31.40258789,-89.15195000
31.43310547,-97.65695000
31.46362305,-95.24602000
31.49414063,-93.16016000
31.52465820,-95.91573000
31.55517578,-101.14010000
31.58569336,-103.61240000
31.61621094,-107.93980000
31.64672852,-108.08560000
31.67724609,-97.27104000
31.70776367,-90.91046000
31.73828125,-87.87502000
31.76879883,-87.84805000
31.79931641,-90.82668000
31.82983398,-97.83749000
31.86035156,-104.51020000
31.89086914,-95.26543000
31.92138672,-92.12796000
31.95190430,-93.76659000
31.98242188,-98.09889000
32.01293945,-90.41350000
32.04345703,-86.66752000
32.07397461,-86.12244000
32.10449219,-87.32189000
32.13500977,-89.62258000
32.16552734,-95.32487000
32.19604492,-105.64490000
32.22656250,-95.12672000
32.25708008,-94.88699000
32.28759766,-100.29720000
32.31811523,-108.55470000
32.34863281,-98.57600000
32.37915039,-91.81835000
32.40966797,-88.24683000
32.44018555,-88.00739000
32.47070313,-92.78130000
32.50122070,-103.96480000
32.53173828,-89.53717000
32.56225586,-86.52339000
32.59277344,-86.75416000
32.62329102,-88.86254000
32.65380859,-91.34853000
32.68432617,-92.16789000
32.71484375,-93.13660000
32.74536133,-94.97817000
32.77587891,-95.23984000
32.80639648,-98.39182000
32.83691406,-116.24020000
32.86743164,-104.09940000
32.89794922,-103.16060000
32.92846680,-104.38620000
32.95898438,-110.78310000
32.98950195,-124.21140000
33.02001953,-106.33110000
33.05053711,-97.34926000
33.08105469,-93.12721000
33.11157227,-91.53697000
33.14208984,-91.37445000
33.17260742,-91.78793000
33.20312500,-92.32051000
33.23364258,-93.25546000
33.26416016,-95.39084000
33.29467773,-98.97068000
33.32519531,-100.67340000
33.35571289,-96.53518000
33.38623047,-91.54480000
33.41674805,-88.65225000
33.44726563,-87.74715000
33.47778320,-88.39748000
33.50830078,-90.50121000
33.53881836,-94.07054000
33.56933594,-97.29906000
33.59985352,-97.29629000
33.63037109,-96.37927000
33.66088867,-96.75376000
33.69140625,-101.15460000
33.72192383,-104.88710000
33.75244141,-95.87219000
33.78295898,-92.01435000
33.81347656,-89.47104000
33.84399414,-88.27827000
33.87451172,-89.42066000
33.90502930,-94.05747000
33.93554688,-97.15644000
33.96606445,-91.61942000
33.99658203,-90.37335000
34.02709961,-93.58722000
34.05761719,-99.36116000
34.08813477,-94.87871000
34.11865234,-93.86629000
34.14916992,-95.59100000
34.17968750,-95.94804000
34.21020508,-95.15694000
34.24072266,-93.88835000
34.27124023,-91.94548000
34.30175781,-90.53384000
34.33227539,-90.39009000
34.36279297,-91.78368000
34.39331055,-92.85440000
34.42382813,-90.83720000
34.45434570,-89.00778000
34.48486328,-88.62746000
34.51538086,-89.01614000
34.54589844,-89.20940000
34.57641602,-89.33185000
34.60693359,-90.54913000
34.63745117,-93.45727000
34.66796875,-96.69727000
34.69848633,-95.89172000
34.72900391,-92.44415000
34.75952148,-89.89880000
34.79003906,-89.48811000
34.82055664,-92.04871000
34.85107422,-97.02343000
34.88159180,-93.82630000
34.91210938,-90.86798000
34.94262695,-90.55489000
34.97314453,-91.46760000
35.00366211,-92.31205000
35.03417969,-92.47353000
35.06469727,-92.64894000
35.09521484,-93.71619000
35.12573242,-92.87138000
35.15625000,-89.37256000
35.18676758,-88.03669000
35.21728516,-89.76891000
35.24780273,-91.91962000
35.27832031,-89.83351000
35.30883789,-89.01226000
35.33935547,-91.09348000
35.36987305,-94.31987000
35.40039063,-93.23466000
35.43090820,-91.47710000
35.46142578,-92.72266000
35.49194336,-99.66866000
35.52246094,-101.39300000
35.55297852,-93.92651000
35.58349609,-91.73993000
35.61401367,-92.49340000
35.64453125,-96.68370000
35.67504883,-99.40563000
35.70556641,-94.47838000
35.73608398,-92.45841000
35.76660156,-92.21378000
35.79711914,-92.14180000
35.82763672,-92.42088000
35.85815430,-93.80540000
35.88867188,-94.67242000
35.91918945,-94.57793000
35.94970703,-96.62762000
35.98022461,-103.07730000
36.01074219,-126.92770000
36.04125977,-107.34590000
36.07177734,-100.51590000
36.10229492,-97.67027000
36.13281250,-97.22072000
36.16333008,-97.59277000
36.19384766,-97.16640000
36.22436523,-95.37937000
36.25488281,-93.87375000
36.28540039,-94.70686000
36.31591797,-99.08905000
36.34643555,-99.57938000
36.37695313,-97.43836000
36.40747070,-101.66010000
36.43798828,-100.66540000
36.46850586,-94.16798000
36.49902344,-92.92256000
36.52954102,-95.27237000
36.56005859,-100.34390000
36.59057617,-108.14910000
36.62109375,-106.03370000
36.65161133,-97.78020000
36.68212891,-97.94080000
36.71264648,-108.76110000
36.74316406,-98.90367000
36.77368164,-93.95839000
36.80419922,-93.53644000
36.83471680,-96.11867000
36.86523438,-98.26822000
36.89575195,-93.86922000
36.92626953,-90.41866000
36.95678711,-89.28412000
36.98730469,-90.36777000
37.01782227,-93.56251000
37.04833984,-96.32668000
37.07885742,-93.79797000
37.10937500,-91.37383000
37.13989258,-91.41147000
37.17041016,-94.72600000
37.20092773,-101.12050000
37.23144531,-105.20700000
37.26196289,-101.39220000
37.29248047,-94.77177000
37.32299805,-93.90504000
37.35351563,-99.10476000
37.38403320,-106.55320000
37.41455078,-94.48258000
37.44506836,-91.60827000
37.47558594,-91.92590000
37.50610352,-93.08366000
37.53662109,-94.63795000
37.56713867,-101.87750000
37.59765625,-97.35551000
37.62817383,-91.65106000
37.65869141,-91.93078000
37.68920898,-96.83994000
37.71972656,-96.08440000
37.75024414,-90.98537000
37.78076172,-88.70629000
37.81127930,-88.43221000
37.84179688,-90.19157000
37.87231445,-94.76814000
37.90283203,-103.53000000
37.93334961,-99.73934000
37.96386719,-95.54309000
37.99438477,-95.46954000
38.02490234,-95.23460000
38.05541992,-94.23191000
38.08593750,-97.28462000
38.11645508,-110.80250000
38.14697266,-103.50500000
38.17749023,-97.31766000
38.20800781,-97.21367000
38.23852539,-100.01200000
38.26904297,-90.57921000
38.29956055,-85.89948000
38.33007813,-84.87194000
38.36059570,-86.91570000
38.39111328,-92.81448000
38.42163086,-100.24000000
38.45214844,-94.69679000
38.48266602,-93.32782000
38.51318359,-94.54997000
38.54370117,-97.77924000
38.57421875,-108.35820000
38.60473633,-100.32390000
38.63525391,-92.69713000
38.66577148,-90.54094000
38.69628906,-91.56765000
38.72680664,-94.60541000
38.75732422,-96.41443000
38.78784180,-94.92599000
38.81835938,-93.07166000
38.84887695,-92.10567000
38.87939453,-91.44154000
38.90991211,-90.58322000
38.94042969,-90.31678000
38.97094727,-90.67131000
39.00146484,-90.28142000
39.03198242,-90.10143000
39.06250000,-91.65025000
39.09301758,-94.25130000
39.12353516,-95.43011000
39.15405273,-94.99254000
39.18457031,-95.40364000
39.21508789,-98.23196000
39.24560547,-97.16895000
39.27612305,-91.56556000
39.30664063,-88.76733000
39.33715820,-88.71316000
39.36767578,-90.97459000
39.39819336,-93.56179000
39.42871094,-92.74785000
39.45922852,-89.60925000
39.48974609,-88.02544000
39.52026367,-89.87786000
39.55078125,-94.80087000
39.58129883,-91.52833000
39.61181641,-88.86646000
39.64233398,-88.15955000
39.67285156,-88.03093000
39.70336914,-89.05685000
39.73388672,-89.03761000
39.76440430,-87.15501000
39.79492188,-86.79614000
39.82543945,-88.59666000
39.85595703,-92.00270000
39.88647461,-97.05646000
39.91699219,-97.70396000
39.94750977,-88.12598000
39.97802734,-83.43559000
40.00854492,-82.12096000
40.03906250,-83.75111000
40.06958008,-88.47305000
40.10009766,-96.90209000
40.13061523,-106.27750000
40.16113281,-115.74900000
40.19165039,-99.42836000
40.22216797,-92.43386000
40.25268555,-89.23946000
40.28320313,-85.39162000
40.31372070,-81.99878000
40.34423828,-81.58599000
40.37475586,-84.86530000
40.40527344,-91.26825000
40.43579102,-94.57970000
40.46630859,-95.81810000
40.49682617,-92.15776000
40.52734375,-92.39137000
40.55786133,-102.09920000
40.58837891,-95.26091000
40.61889648,-91.74431000
40.64941406,-88.88484000
40.67993164,-84.92775000
40.71044922,-84.00254000
40.74096680,-85.90466000
40.77148438,-88.69960000
40.80200195,-90.83352000
40.83251953,-94.86674000
40.86303711,-95.59581000
40.89355469,-92.75672000
40.92407227,-91.38290000
40.95458984,-87.27939000
40.98510742,-84.05732000
41.01562500,-83.76468000
41.04614258,-86.73736000
41.07666016,-93.32840000
41.10717773,-104.33380000
41.13769531,-111.71110000
41.16821289,-111.39180000
41.19873047,-99.73639000
41.22924805,-91.47202000
41.25976563,-89.74595000
41.29028320,-90.36220000
41.32080078,-83.81415000
41.35131836,-80.30236000
41.38183594,-80.76024000
41.41235352,-84.03481000
41.44287109,-86.76055000
41.47338867,-89.27075000
41.50390625,-96.36269000
41.53442383,-98.35674000
41.56494141,-94.96937000
41.59545898,-96.57452000
41.62597656,-100.88630000
41.65649414,-87.65240000
41.68701172,-83.71201000
41.71752930,-84.29135000
41.74804688,-88.51990000
41.77856445,-96.16963000
41.80908203,-97.45820000
41.83959961,-92.04085000
41.87011719,-89.57946000
41.90063477,-90.30197000
41.93115234,-95.41743000
41.96166992,-91.60091000
41.99218750,-84.21189000
42.02270508,-81.40199000
42.05322266,-82.06844000
42.08374023,-85.62476000
42.11425781,-89.94649000
42.14477539,-89.54233000
42.17529297,-87.20405000
42.20581055,-87.72518000
42.23632813,-92.03426000
42.26684570,-91.94109000
42.29736328,-92.78510000
42.32788086,-89.58513000
42.35839844,-83.09322000
42.38891602,-81.85483000
42.41943359,-84.31754000
42.44995117,-89.67365000
42.48046875,-96.24144000
42.51098633,-92.90565000
42.54150391,-88.77330000
42.57202148,-88.04040000
42.60253906,-89.68465000
42.63305664,-90.12502000
42.66357422,-86.46351000
42.69409180,-82.75982000
42.72460938,-81.62751000
42.75512695,-83.61647000
42.78564453,-87.57310000
42.81616211,-86.19541000
42.84667969,-84.00568000
42.87719727,-84.12085000
42.90771484,-85.47044000
42.93823242,-86.93109000
42.96875000,-89.51636000
42.99926758,-96.55280000
43.02978516,-91.75053000
43.06030273,-87.06824000
43.09082031,-86.44634000
43.12133789,-88.87986000
43.15185547,-101.00840000
43.18237305,-90.44347000
43.21289063,-84.03172000
43.24340820,-82.78571000
43.27392578,-84.94050000
43.30444336,-89.38876000
43.33496094,-87.25114000
43.36547852,-84.30393000
43.39599609,-84.74733000
43.42651367,-88.86407000
43.45703125,-98.42277000
43.48754883,-101.26190000
43.51806641,-93.12466000
43.54858398,-88.34969000
43.57910156,-87.05281000
43.60961914,-88.64153000
43.64013672,-89.95945000
43.67065430,-87.25308000
43.70117188,-84.90510000
43.73168945,-84.63734000
43.76220703,-86.69237000
43.79272461,-91.93897000
43.82324219,-108.57810000
43.85375977,-96.14960000
43.88427734,-93.17353000
43.91479492,-95.79767000
43.94531250,-104.14690000
43.97583008,-94.84801000
44.00634766,-88.88332000
44.03686523,-85.75412000
44.06738281,-85.25417000
44.09790039,-88.11641000
44.12841797,-96.48578000
44.15893555,-99.57239000
44.18945313,-90.71309000
44.21997070,-87.16282000
44.25048828,-87.04439000
44.28100586,-90.32161000
44.31152344,-96.87099000
44.34204102,-115.96900000
44.37255859,-99.08986000
44.40307617,-95.13060000
44.43359375,-94.65462000
44.46411133,-94.82007000
44.49462891,-96.39622000
44.52514648,-98.93423000
44.55566406,-101.65490000
44.58618164,-98.08173000
44.61669922,-95.55656000
44.64721680,-98.36597000
44.67773438,-101.53410000
44.70825195,-92.70454000
44.73876953,-90.93804000
44.76928711,-93.93889000
44.79980469,-102.47440000
44.83032227,-114.20560000
44.86083984,-134.91510000
44.89135742,-102.22070000
44.92187500,-94.90585000
44.95239258,-92.22182000
44.98291016,-92.59192000
45.01342773,-93.20718000
45.04394531,-90.98344000
45.07446289,-91.01053000
45.10498047,-95.28172000
45.13549805,-96.12216000
45.16601563,-92.06814000
45.19653320,-89.57375000
45.22705078,-88.10043000
45.25756836,-88.59223000
45.28808594,-92.25078000
45.31860352,-98.17937000
45.34912109,-92.96017000
45.37963867,-89.77675000
45.41015625,-89.76100000
45.44067383,-92.66425000
45.47119141,-97.92648000
45.50170898,-95.50934000
45.53222656,-90.73959000
45.56274414,-88.52950000
45.59326172,-88.63013000
45.62377930,-90.77801000
45.65429688,-93.99564000
45.68481445,-93.36790000
45.71533203,-90.38189000
45.74584961,-89.54066000
45.77636719,-91.68408000
45.80688477,-96.87741000
45.83740234,-94.99187000
45.86791992,-91.13675000
45.89843750,-90.82832000
45.92895508,-94.38690000
45.95947266,-103.73140000
45.98999023,-96.60316000
46.02050781,-91.71275000
46.05102539,-89.88618000
46.08154297,-90.08464000
46.11206055,-92.07417000
46.14257813,-95.13192000
46.17309570,-95.84935000
46.20361328,-92.90291000
46.23413086,-90.13663000
46.26464844,-89.24193000
46.29516602,-91.04476000
46.32568359,-96.44669000
46.35620117,-105.62240000
46.38671875,-108.07700000
46.41723633,-113.57030000
46.44775391,-112.38770000
46.47827148,-104.63440000
46.50878906,-98.21144000
46.53930664,-94.26653000
46.56982422,-93.32798000
46.60034180,-94.82433000
46.63085938,-97.42776000
46.66137695,-99.99225000
46.69189453,-102.18020000
46.72241211,-97.43966000
46.75292969,-92.51207000
46.78344727,-89.33528000
46.81396484,-87.94450000
46.84448242,-89.02840000
46.87500000,-92.32954000
46.90551758,-92.46219000
46.93603516,-91.20762000
46.96655273,-92.53304000
46.99707031,-95.68773000
47.02758789,-99.59279000
47.05810547,-100.12780000
47.08862305,-97.89935000
47.11914063,-97.07666000
47.14965820,-94.69276000
47.18017578,-90.99518000
47.21069336,-88.09354000
47.24121094,-86.77132000
47.27172852,-87.33725000
47.30224609,-89.54971000
47.33276367,-92.53085000
47.36328125,-95.43179000
47.39379883,-97.11327000
47.42431641,-95.95114000
47.45483398,-94.19077000
47.48535156,-91.36542000
47.51586914,-88.67490000
47.54638672,-87.50629000
47.57690430,-87.78819000
47.60742188,-89.68042000
47.63793945,-94.42123000
47.66845703,-100.72170000
47.69897461,-95.30779000
47.72949219,-93.01401000
47.76000977,-93.47999000
47.79052734,-95.91552000
47.82104492,-99.98865000
47.85156250,-98.23108000
47.88208008,-91.76463000
47.91259766,-87.71729000
47.94311523,-86.23941000
47.97363281,-86.90388000
48.00415039,-89.04655000
48.03466797,-91.94600000
48.06518555,-94.88704000
48.09570313,-96.67529000
48.12622070,-96.20956000
48.15673828,-95.19570000
48.18725586,-95.45470000
48.21777344,-94.50646000
48.24829102,-90.99458000
48.27880859,-89.60728000
48.30932617,-91.15024000
48.33984375,-96.89632000
48.37036133,-110.44670000
48.40087891,-95.47737000
48.43139648,-93.17692000
48.46191406,-95.23187000
48.49243164,-101.71090000
48.52294922,-104.35910000
48.55346680,-96.80813000
48.58398438,-92.51030000
48.61450195,-91.24677000
48.64501953,-92.66998000
48.67553711,-94.99200000
48.70605469,-97.76234000
48.73657227,-107.72030000
48.76708984,-98.93623000
48.79760742,-92.09047000
48.82812500,-90.54073000
48.85864258,-94.08057000
48.88916016,-106.65600000
48.91967773,-93.20609000
48.95019531,-92.42806000
48.98071289,-95.62539000
49.01123047,-91.99529000
49.04174805,-90.36650000
49.07226563,-91.92480000
49.10278320,-94.67388000
49.13330078,-95.88002000
49.16381836,-96.05163000
49.19433594,-98.53748000
49.22485352,-102.78570000
49.25537109,-92.44894000
49.28588867,-87.18483000
49.31640625,-85.03885000
49.34692383,-85.08530000
49.37744141,-87.01988000
49.40795898,-90.43021000
49.43847656,-94.28974000
49.46899414,-98.08884000
49.49951172,-98.15831000
49.53002930,-93.91712000
49.56054688,-93.79592000
49.59106445,-100.61540000
49.62158203,-102.53130000
49.65209961,-98.15654000
49.68261719,-98.74959000
49.71313477,-95.71609000
49.74365234,-93.31230000
49.77416992,-93.66698000
49.80468750,-97.31128000
49.83520508,-101.61110000
49.86572266,-95.53102000
49.89624023,-91.30464000
49.92675781,-88.91905000
49.95727539,-88.78789000
49.98779297,-91.63433000
50.01831055,-95.63522000
