Frequency,Channel A
(MHz),(dBu)

0.00000000,-23.28352000
0.03051758,-23.65466000
0.06103516,-28.87797000
0.09155273,-38.86427000
0.12207031,-57.46242000
0.15258789,-62.54230000
0.18310547,-59.69933000
0.21362305,-60.56604000
0.24414063,-65.75900000
0.27465820,-74.06823000
0.30517578,-78.75858000
0.33569336,-66.77982000
0.36621094,-61.91587000
0.39672852,-60.97897000
0.42724609,-63.17789000
0.45776367,-69.14973000
0.48828125,-70.36389000
0.51879883,-64.24556000
0.54931641,-63.67732000
0.57983398,-61.73393000
0.61035156,-58.39170000
0.64086914,-57.06443000
0.67138672,-58.30682000
0.70190430,-63.77758000
0.73242188,-74.57013000
0.76293945,-63.49084000
0.79345703,-61.12732000
0.82397461,-62.18025000
0.85449219,-66.61327000
0.88500977,-80.32605000
0.91552734,-75.16634000
0.94604492,-71.25109000
0.97656250,-75.89151000
1.00708008,-72.86988000
1.03759766,-62.80338000
1.06811523,-60.00462000
1.09863281,-61.51363000
1.12915039,-66.57713000
1.15966797,-65.92320000
1.19018555,-64.24125000
1.22070313,-66.51285000
1.25122070,-71.87218000
1.28173828,-70.99868000
1.31225586,-69.55592000
1.34277344,-70.84913000
1.37329102,-72.18427000
1.40380859,-71.67612000
1.43432617,-71.08094000
1.46484375,-74.01051000
1.49536133,-74.58044000
1.52587891,-67.65063000
1.55639648,-65.26019000
1.58691406,-66.72282000
1.61743164,-73.78534000
1.64794922,-77.16538000
1.67846680,-70.37961000
1.70898438,-71.19612000
1.73950195,-78.70980000
1.77001953,-74.31892000
1.80053711,-69.40864000
1.83105469,-68.57149000
1.86157227,-69.93348000
1.89208984,-71.06367000
1.92260742,-72.06369000
1.95312500,-77.51354000
1.98364258,-79.22011000
2.01416016,-69.51820000
2.04467773,-66.06319000
2.07519531,-65.78893000
2.10571289,-67.73621000
2.13623047,-70.55466000
2.16674805,-74.77879000
2.19726563,-77.85922000
2.22778320,-72.00624000
2.25830078,-70.86176000
2.28881836,-73.51201000
2.31933594,-75.27210000
2.34985352,-72.13387000
2.38037109,-70.10389000
2.41088867,-70.88626000
2.44140625,-76.14442000
2.47192383,-77.51845000
2.50244141,-72.12128000
2.53295898,-71.54406000
2.56347656,-74.08636000
2.59399414,-77.67374000
2.62451172,-74.86007000
2.65502930,-69.78459000
2.68554688,-67.26334000
2.71606445,-67.98486000
2.74658203,-71.97050000
2.77709961,-71.88211000
2.80761719,-69.20827000
2.83813477,-68.17068000
2.86865234,-67.64453000
2.89916992,-68.74316000
2.92968750,-71.27025000
2.96020508,-72.05226000
2.99072266,-72.50747000
3.02124023,-70.14873000
3.05175781,-66.17532000
3.08227539,-65.38412000
3.11279297,-69.19968000
3.14331055,-87.40501000
3.17382813,-71.66745000
3.20434570,-67.29581000
3.23486328,-65.78859000
3.26538086,-67.00865000
3.29589844,-68.66142000
3.32641602,-65.35684000
3.35693359,-63.74976000
3.38745117,-64.69478000
3.41796875,-66.36668000
3.44848633,-67.29906000
3.47900391,-67.26287000
3.50952148,-65.83372000
3.54003906,-64.66521000
3.57055664,-64.59270000
3.60107422,-65.13276000
3.63159180,-65.55917000
3.66210938,-65.73553000
3.69262695,-65.58319000
3.72314453,-65.35390000
3.75366211,-65.15308000
3.78417969,-63.99909000
3.81469727,-63.08422000
3.84521484,-63.39892000
3.87573242,-63.75401000
3.90625000,-63.76571000
3.93676758,-64.21366000
3.96728516,-64.96550000
3.99780273,-66.48077000
4.02832031,-67.77853000
4.05883789,-65.63969000
4.08935547,-64.02622000
4.11987305,-65.34370000
4.15039063,-69.19724000
4.18090820,-68.17952000
4.21142578,-66.54668000
4.24194336,-68.23095000
4.27246094,-70.47530000
4.30297852,-69.69562000
4.33349609,-68.79413000
4.36401367,-68.84627000
4.39453125,-70.15443000
4.42504883,-71.56660000
4.45556641,-71.44427000
4.48608398,-71.17194000
4.51660156,-71.43228000
4.54711914,-71.88602000
4.57763672,-72.77322000
4.60815430,-75.69925000
4.63867188,-77.20477000
4.66918945,-72.37035000
4.69970703,-70.52161000
4.73022461,-70.90798000
4.76074219,-71.13982000
4.79125977,-71.27040000
4.82177734,-72.98967000
4.85229492,-74.26063000
4.88281250,-72.34143000
4.91333008,-71.25449000
4.94384766,-71.85973000
4.97436523,-73.07626000
5.00488281,-74.25971000
5.03540039,-75.14539000
5.06591797,-74.30943000
5.09643555,-72.67289000
5.12695313,-71.38816000
5.15747070,-71.62788000
5.18798828,-74.28110000
5.21850586,-75.80515000
5.24902344,-74.05768000
5.27954102,-73.71171000
5.31005859,-74.08138000
5.34057617,-74.84085000
5.37109375,-76.13811000
5.40161133,-75.52187000
5.43212891,-74.62727000
5.46264648,-75.05774000
5.49316406,-76.24698000
5.52368164,-77.74860000
5.55419922,-79.70210000
5.58471680,-76.13902000
5.61523438,-70.78543000
5.64575195,-68.16589000
5.67626953,-67.20185000
5.70678711,-66.18377000
5.73730469,-65.20866000
5.76782227,-65.24184000
5.79833984,-65.45702000
5.82885742,-64.89162000
5.85937500,-64.46272000
5.88989258,-64.52887000
5.92041016,-65.08182000
5.95092773,-65.81842000
5.98144531,-65.01253000
6.01196289,-63.87261000
6.04248047,-64.27840000
6.07299805,-65.18463000
6.10351563,-64.79021000
6.13403320,-64.65680000
6.16455078,-65.94331000
6.19506836,-67.38786000
6.22558594,-67.40039000
6.25610352,-67.84591000
6.28662109,-69.41396000
6.31713867,-70.52748000
6.34765625,-70.76095000
6.37817383,-70.24571000
6.40869141,-69.99712000
6.43920898,-71.66199000
6.46972656,-75.15141000
6.50024414,-76.05674000
6.53076172,-75.37344000
6.56127930,-75.70343000
6.59179688,-76.12489000
6.62231445,-77.58829000
6.65283203,-81.41930000
6.68334961,-88.58363000
6.71386719,-86.73662000
6.74438477,-80.71591000
6.77490234,-77.96825000
6.80541992,-78.29012000
6.83593750,-80.97236000
6.86645508,-79.23076000
6.89697266,-76.85094000
6.92749023,-77.59186000
6.95800781,-81.25134000
6.98852539,-87.89086000
7.01904297,-94.35051000
7.04956055,-85.24675000
7.08007813,-81.80210000
7.11059570,-82.51578000
7.14111328,-83.46535000
7.17163086,-81.12968000
7.20214844,-80.99708000
7.23266602,-83.53049000
7.26318359,-83.23914000
7.29370117,-80.34863000
7.32421875,-79.17522000
7.35473633,-80.38967000
7.38525391,-84.95300000
7.41577148,-89.26994000
7.44628906,-86.53314000
7.47680664,-86.63232000
7.50732422,-87.87271000
7.53784180,-88.08347000
7.56835938,-87.27876000
7.59887695,-86.35799000
7.62939453,-86.18217000
7.65991211,-85.46337000
7.69042969,-84.28992000
7.72094727,-84.32420000
7.75146484,-85.54310000
7.78198242,-87.62070000
7.81250000,-90.55402000
7.84301758,-92.33624000
7.87353516,-89.97820000
7.90405273,-88.21567000
7.93457031,-89.37870000
7.96508789,-89.27452000
7.99560547,-85.17073000
8.02612305,-83.56059000
8.05664063,-85.14606000
8.08715820,-90.90839000
8.11767578,-90.72498000
8.14819336,-83.08185000
8.17871094,-79.75787000
8.20922852,-79.19730000
8.23974609,-80.15616000
8.27026367,-80.93979000
8.30078125,-81.45608000
8.33129883,-81.83803000
8.36181641,-81.86310000
8.39233398,-83.15714000
8.42285156,-87.19510000
8.45336914,-92.42061000
8.48388672,-92.59509000
8.51440430,-88.89478000
8.54492188,-85.68541000
8.57543945,-85.88631000
8.60595703,-93.66386000
8.63647461,-89.95488000
8.66699219,-82.34204000
8.69750977,-81.03535000
8.72802734,-83.41692000
8.75854492,-90.17667000
8.78906250,-107.48270000
8.81958008,-92.63889000
8.85009766,-90.94944000
8.88061523,-92.21524000
8.91113281,-92.13062000
8.94165039,-93.17366000
8.97216797,-102.59730000
9.00268555,-95.80512000
9.03320313,-86.89537000
9.06372070,-83.10963000
9.09423828,-82.63524000
9.12475586,-85.94946000
9.15527344,-94.33568000
9.18579102,-92.31779000
9.21630859,-89.99848000
9.24682617,-89.84361000
9.27734375,-88.23531000
9.30786133,-85.93196000
9.33837891,-84.66238000
9.36889648,-84.90490000
9.39941406,-87.09133000
9.42993164,-93.13132000
9.46044922,-98.29189000
9.49096680,-90.62366000
9.52148438,-86.98701000
9.55200195,-85.56873000
9.58251953,-86.49131000
9.61303711,-89.10114000
9.64355469,-93.34433000
9.67407227,-106.67390000
9.70458984,-95.46840000
9.73510742,-88.96411000
9.76562500,-85.40780000
9.79614258,-84.00688000
9.82666016,-86.29861000
9.85717773,-90.52010000
9.88769531,-87.41516000
9.91821289,-86.64326000
9.94873047,-82.42261000
9.97924805,-78.51311000
10.00976563,-77.82158000
10.04028320,-79.93855000
10.07080078,-84.14544000
10.10131836,-90.10301000
10.13183594,-89.11530000
10.16235352,-84.28010000
10.19287109,-85.20562000
10.22338867,-97.15585000
10.25390625,-82.72841000
10.28442383,-77.66368000
10.31494141,-76.69283000
10.34545898,-77.81915000
10.37597656,-79.30587000
10.40649414,-79.53741000
10.43701172,-78.16530000
10.46752930,-78.06753000
10.49804688,-80.87776000
10.52856445,-84.57822000
10.55908203,-85.02877000
10.58959961,-89.21475000
10.62011719,-95.55267000
10.65063477,-85.76897000
10.68115234,-83.48997000
10.71166992,-81.62601000
10.74218750,-79.58198000
10.77270508,-79.83023000
10.80322266,-82.50377000
10.83374023,-83.51785000
10.86425781,-82.26327000
10.89477539,-82.78903000
10.92529297,-84.53839000
10.95581055,-86.01800000
10.98632813,-87.31259000
11.01684570,-90.45592000
11.04736328,-93.52581000
11.07788086,-86.26163000
11.10839844,-83.81645000
11.13891602,-85.97232000
11.16943359,-84.93544000
11.19995117,-80.75464000
11.23046875,-80.07657000
11.26098633,-82.17363000
11.29150391,-81.51592000
11.32202148,-77.47399000
11.35253906,-76.01374000
11.38305664,-77.78712000
11.41357422,-82.68504000
11.44409180,-85.13519000
11.47460938,-81.78084000
11.50512695,-80.91162000
11.53564453,-84.02675000
11.56616211,-87.88947000
11.59667969,-84.36981000
11.62719727,-82.85229000
11.65771484,-81.86967000
11.68823242,-81.11046000
11.71875000,-80.68763000
11.74926758,-80.55315000
11.77978516,-81.68763000
11.81030273,-83.48896000
11.84082031,-84.39050000
11.87133789,-86.78559000
11.90185547,-93.82484000
11.93237305,-94.49158000
11.96289063,-97.23293000
11.99340820,-89.94747000
12.02392578,-86.43649000
12.05444336,-88.71472000
12.08496094,-93.84994000
12.11547852,-112.58840000
12.14599609,-86.87661000
12.17651367,-81.04755000
12.20703125,-80.04688000
12.23754883,-83.77753000
12.26806641,-83.24978000
12.29858398,-78.04089000
12.32910156,-76.73064000
12.35961914,-77.44428000
12.39013672,-79.16207000
12.42065430,-82.71918000
12.45117188,-84.76174000
12.48168945,-82.80457000
12.51220703,-84.62211000
12.54272461,-90.30772000
12.57324219,-91.90327000
12.60375977,-93.91435000
12.63427734,-85.43352000
12.66479492,-84.62611000
12.69531250,-89.54343000
12.72583008,-89.25182000
12.75634766,-94.82360000
12.78686523,-87.73540000
12.81738281,-82.81615000
12.84790039,-82.92131000
12.87841797,-81.82542000
12.90893555,-79.70111000
12.93945313,-81.24634000
12.96997070,-90.94714000
13.00048828,-90.96799000
13.03100586,-87.05379000
13.06152344,-92.31142000
13.09204102,-102.57400000
13.12255859,-88.52869000
13.15307617,-84.32301000
13.18359375,-85.68434000
13.21411133,-85.70201000
13.24462891,-81.83369000
13.27514648,-79.94273000
13.30566406,-77.26871000
13.33618164,-76.49134000
13.36669922,-79.86789000
13.39721680,-96.44253000
13.42773438,-86.15587000
13.45825195,-82.53256000
13.48876953,-71.06956000
13.51928711,-64.68723000
13.54980469,-62.34838000
13.58032227,-63.29487000
13.61083984,-67.40785000
13.64135742,-74.70023000
13.67187500,-85.24409000
13.70239258,-90.62808000
13.73291016,-81.71756000
13.76342773,-80.28481000
13.79394531,-83.51048000
13.82446289,-96.84216000
13.85498047,-88.98132000
13.88549805,-86.41196000
13.91601563,-79.96917000
13.94653320,-74.98441000
13.97705078,-74.06398000
14.00756836,-77.39860000
14.03808594,-82.20776000
14.06860352,-77.93007000
14.09912109,-77.51662000
14.12963867,-82.37080000
14.16015625,-98.26836000
14.19067383,-85.39898000
14.22119141,-84.70648000
14.25170898,-87.67712000
14.28222656,-85.15723000
14.31274414,-82.41199000
14.34326172,-80.33290000
14.37377930,-79.54771000
14.40429688,-80.14954000
14.43481445,-81.02348000
14.46533203,-81.82126000
14.49584961,-83.40587000
14.52636719,-83.78500000
14.55688477,-79.62968000
14.58740234,-77.26166000
14.61791992,-78.48008000
14.64843750,-85.05142000
14.67895508,-91.81782000
14.70947266,-82.62214000
14.73999023,-80.63521000
14.77050781,-80.46243000
14.80102539,-80.29588000
14.83154297,-80.29733000
14.86206055,-80.04054000
14.89257813,-80.02582000
14.92309570,-83.26828000
14.95361328,-94.81937000
14.98413086,-86.93782000
15.01464844,-84.28954000
15.04516602,-85.47379000
15.07568359,-83.52431000
15.10620117,-80.30265000
15.13671875,-79.82266000
15.16723633,-81.58822000
15.19775391,-83.08719000
15.22827148,-82.20235000
15.25878906,-80.56406000
15.28930664,-79.60283000
15.31982422,-79.22710000
15.35034180,-78.58079000
15.38085938,-77.81639000
15.41137695,-77.83118000
15.44189453,-78.86987000
15.47241211,-80.78227000
15.50292969,-84.82339000
15.53344727,-87.38743000
15.56396484,-80.05230000
15.59448242,-78.03803000
15.62500000,-80.54025000
15.65551758,-86.41156000
15.68603516,-84.50433000
15.71655273,-82.63060000
15.74707031,-83.15731000
15.77758789,-85.48203000
15.80810547,-88.00740000
15.83862305,-86.20545000
15.86914063,-85.01779000
15.89965820,-86.72365000
15.93017578,-93.96720000
15.96069336,-91.60361000
15.99121094,-83.07461000
16.02172852,-80.58471000
16.05224609,-82.23856000
16.08276367,-89.50539000
16.11328125,-106.53550000
16.14379883,-91.55861000
16.17431641,-85.80018000
16.20483398,-83.95737000
16.23535156,-87.75171000
16.26586914,-102.94580000
16.29638672,-88.60030000
16.32690430,-88.25481000
16.35742188,-88.29846000
16.38793945,-86.11462000
16.41845703,-85.48962000
16.44897461,-83.36707000
16.47949219,-81.50256000
16.51000977,-81.43863000
16.54052734,-82.72152000
16.57104492,-85.82887000
16.60156250,-89.25394000
16.63208008,-83.84840000
16.66259766,-81.43382000
16.69311523,-83.88978000
16.72363281,-94.07108000
16.75415039,-89.35432000
16.78466797,-89.09552000
16.81518555,-96.17142000
16.84570313,-93.48943000
16.87622070,-94.63350000
16.90673828,-97.30865000
16.93725586,-92.62261000
16.96777344,-92.32102000
16.99829102,-94.86496000
17.02880859,-93.21224000
17.05932617,-85.67735000
17.08984375,-81.94332000
17.12036133,-81.56091000
17.15087891,-84.05601000
17.18139648,-89.29898000
17.21191406,-98.56309000
17.24243164,-104.29940000
17.27294922,-96.13339000
17.30346680,-96.18079000
17.33398438,-101.37860000
17.36450195,-100.41640000
17.39501953,-91.21589000
17.42553711,-87.10923000
17.45605469,-87.37487000
17.48657227,-93.07288000
17.51708984,-92.46711000
17.54760742,-87.75485000
17.57812500,-88.52813000
17.60864258,-93.32005000
17.63916016,-99.15315000
17.66967773,-87.13966000
17.70019531,-79.72722000
17.73071289,-75.90617000
17.76123047,-74.20095000
17.79174805,-74.13808000
17.82226563,-75.79970000
17.85278320,-79.31567000
17.88330078,-83.87398000
17.91381836,-88.14129000
17.94433594,-91.69799000
17.97485352,-87.78564000
18.00537109,-85.10583000
18.03588867,-86.60666000
18.06640625,-92.35542000
18.09692383,-92.69206000
18.12744141,-90.91771000
18.15795898,-92.30140000
18.18847656,-97.19178000
18.21899414,-105.57700000
18.24951172,-95.69260000
18.28002930,-94.75632000
18.31054688,-102.27270000
18.34106445,-103.22550000
18.37158203,-95.75751000
18.40209961,-92.11671000
18.43261719,-89.17433000
18.46313477,-89.31947000
18.49365234,-94.22321000
18.52416992,-97.62467000
18.55468750,-93.23913000
18.58520508,-95.62502000
18.61572266,-104.71620000
18.64624023,-100.66000000
18.67675781,-109.95000000
18.70727539,-96.86893000
18.73779297,-91.16435000
18.76831055,-89.89746000
18.79882813,-90.63495000
18.82934570,-91.61975000
18.85986328,-91.43864000
18.89038086,-90.77031000
18.92089844,-91.49936000
18.95141602,-96.79601000
18.98193359,-106.63510000
19.01245117,-95.53913000
19.04296875,-94.79423000
19.07348633,-96.88322000
19.10400391,-97.47386000
19.13452148,-97.09960000
19.16503906,-94.28928000
19.19555664,-90.77766000
19.22607422,-88.94189000
19.25659180,-88.48425000
19.28710938,-89.58828000
19.31762695,-91.94212000
19.34814453,-92.48544000
19.37866211,-92.26777000
19.40917969,-92.51668000
19.43969727,-92.94510000
19.47021484,-94.17688000
19.50073242,-95.54462000
19.53125000,-100.41330000
19.56176758,-105.38060000
19.59228516,-96.12462000
19.62280273,-96.42525000
19.65332031,-97.45612000
19.68383789,-93.44382000
19.71435547,-92.49176000
19.74487305,-94.93519000
19.77539063,-96.40456000
19.80590820,-92.35895000
19.83642578,-91.50046000
19.86694336,-95.56241000
19.89746094,-109.68380000
19.92797852,-102.85070000
19.95849609,-99.14168000
19.98901367,-97.81435000
20.01953125,-99.95644000
20.05004883,-108.45160000
20.08056641,-107.54530000
20.11108398,-103.63130000
20.14160156,-105.12200000
20.17211914,-97.94228000
20.20263672,-95.63077000
20.23315430,-98.40930000
20.26367188,-103.49390000
20.29418945,-100.82670000
20.32470703,-97.06059000
20.35522461,-93.96493000
20.38574219,-93.60900000
20.41625977,-97.57376000
20.44677734,-128.55120000
20.47729492,-96.86286000
20.50781250,-92.88135000
20.53833008,-93.86217000
20.56884766,-99.25793000
20.59936523,-94.95696000
20.62988281,-93.06209000
20.66040039,-95.03920000
20.69091797,-92.24160000
20.72143555,-90.42667000
20.75195313,-92.81656000
20.78247070,-98.22593000
20.81298828,-96.37763000
20.84350586,-94.99615000
20.87402344,-96.45334000
20.90454102,-97.58324000
20.93505859,-97.41721000
20.96557617,-97.70875000
20.99609375,-97.28006000
21.02661133,-95.50560000
21.05712891,-92.90127000
21.08764648,-90.03714000
21.11816406,-88.43598000
21.14868164,-89.36119000
21.17919922,-93.61981000
21.20971680,-95.10515000
21.24023438,-91.99844000
21.27075195,-92.09801000
21.30126953,-94.07658000
21.33178711,-94.69847000
21.36230469,-93.19424000
21.39282227,-93.50669000
21.42333984,-96.97473000
21.45385742,-97.80070000
21.48437500,-98.01189000
21.51489258,-94.44380000
21.54541016,-90.12222000
21.57592773,-89.82339000
21.60644531,-94.38805000
21.63696289,-104.89930000
21.66748047,-95.39352000
21.69799805,-96.85844000
21.72851563,-108.11320000
21.75903320,-93.10266000
21.78955078,-90.87279000
21.82006836,-92.95959000
21.85058594,-96.48739000
21.88110352,-97.83501000
21.91162109,-99.19431000
21.94213867,-108.03860000
21.97265625,-98.20856000
22.00317383,-92.35589000
22.03369141,-93.48878000
22.06420898,-103.98900000
22.09472656,-94.87678000
22.12524414,-91.19399000
22.15576172,-89.65240000
22.18627930,-88.17516000
22.21679688,-88.84660000
22.24731445,-93.95197000
22.27783203,-102.45790000
22.30834961,-91.94282000
22.33886719,-87.99429000
22.36938477,-86.93059000
22.39990234,-88.84568000
22.43041992,-95.82385000
22.46093750,-102.58210000
22.49145508,-95.28359000
22.52197266,-96.56417000
22.55249023,-104.39210000
22.58300781,-98.32898000
22.61352539,-93.91705000
22.64404297,-93.40583000
22.67456055,-94.82091000
22.70507813,-93.19241000
22.73559570,-90.41523000
22.76611328,-90.35033000
22.79663086,-94.23541000
22.82714844,-98.49937000
22.85766602,-93.09518000
22.88818359,-91.77760000
22.91870117,-91.99940000
22.94921875,-90.65049000
22.97973633,-89.28735000
23.01025391,-88.03143000
23.04077148,-87.29890000
23.07128906,-87.67533000
23.10180664,-88.32378000
23.13232422,-88.61015000
23.16284180,-89.27838000
23.19335938,-92.11360000
23.22387695,-102.18970000
23.25439453,-96.04573000
23.28491211,-91.90238000
23.31542969,-93.60950000
23.34594727,-98.69724000
23.37646484,-101.79940000
23.40698242,-109.74760000
23.43750000,-104.57260000
23.46801758,-97.66093000
23.49853516,-94.47116000
23.52905273,-93.55360000
23.55957031,-96.00949000
23.59008789,-106.85660000
23.62060547,-102.94890000
23.65112305,-99.13857000
23.68164063,-102.89810000
23.71215820,-121.61000000
23.74267578,-99.96799000
23.77319336,-94.86469000
23.80371094,-93.94351000
23.83422852,-96.50447000
23.86474609,-98.81030000
23.89526367,-95.75331000
23.92578125,-94.09782000
23.95629883,-94.81164000
23.98681641,-97.88425000
24.01733398,-104.43190000
24.04785156,-121.66480000
24.07836914,-105.58210000
24.10888672,-107.84390000
24.13940430,-106.07440000
24.16992188,-99.57294000
24.20043945,-98.74045000
24.23095703,-95.12813000
24.26147461,-91.93213000
24.29199219,-92.73718000
24.32250977,-97.97639000
24.35302734,-96.49647000
24.38354492,-93.19753000
24.41406250,-94.77621000
24.44458008,-103.52730000
24.47509766,-102.41460000
24.50561523,-97.77983000
24.53613281,-96.60458000
24.56665039,-92.05833000
24.59716797,-89.05686000
24.62768555,-89.32483000
24.65820313,-92.95739000
24.68872070,-97.75250000
24.71923828,-96.88712000
24.74975586,-92.86804000
24.78027344,-89.79066000
24.81079102,-89.86083000
24.84130859,-93.25967000
24.87182617,-95.43134000
24.90234375,-93.86995000
24.93286133,-94.31062000
24.96337891,-96.08092000
24.99389648,-96.93531000
25.02441406,-94.88034000
25.05493164,-92.99462000
25.08544922,-93.30338000
25.11596680,-95.49947000
25.14648438,-95.81391000
25.17700195,-94.72363000
25.20751953,-95.59674000
25.23803711,-98.66805000
25.26855469,-106.57250000
25.29907227,-102.56730000
25.32958984,-96.74629000
25.36010742,-95.44339000
25.39062500,-95.87417000
25.42114258,-96.97714000
25.45166016,-94.62971000
25.48217773,-92.12909000
25.51269531,-93.50059000
25.54321289,-99.74312000
25.57373047,-101.58960000
25.60424805,-100.83970000
25.63476563,-95.61040000
25.66528320,-91.72565000
25.69580078,-92.09129000
25.72631836,-96.90990000
25.75683594,-107.68220000
25.78735352,-98.06848000
25.81787109,-94.60394000
25.84838867,-94.88733000
25.87890625,-98.40157000
25.90942383,-94.96711000
25.93994141,-88.45050000
25.97045898,-85.46240000
26.00097656,-85.10745000
26.03149414,-87.04182000
26.06201172,-91.21252000
26.09252930,-94.20021000
26.12304688,-91.23927000
26.15356445,-87.78839000
26.18408203,-86.02200000
26.21459961,-86.52907000
26.24511719,-89.40523000
26.27563477,-94.54728000
26.30615234,-99.04179000
26.33666992,-96.15659000
26.36718750,-97.15388000
26.39770508,-100.43150000
26.42822266,-92.87541000
26.45874023,-89.60023000
26.48925781,-88.79406000
26.51977539,-88.47515000
26.55029297,-88.64951000
26.58081055,-91.10862000
26.61132813,-97.11470000
26.64184570,-101.33580000
26.67236328,-106.58840000
26.70288086,-109.70460000
26.73339844,-102.95430000
26.76391602,-99.70918000
26.79443359,-95.61638000
26.82495117,-95.07842000
26.85546875,-99.56648000
26.88598633,-110.28030000
26.91650391,-105.20070000
26.94702148,-115.53090000
26.97753906,-106.14970000
27.00805664,-103.14210000
27.03857422,-100.70310000
27.06909180,-94.20379000
27.09960938,-91.61922000
27.13012695,-91.72328000
27.16064453,-91.81308000
27.19116211,-91.32621000
27.22167969,-92.62416000
27.25219727,-95.79072000
27.28271484,-95.96295000
27.31323242,-94.03825000
27.34375000,-92.89420000
27.37426758,-91.61526000
27.40478516,-90.21923000
27.43530273,-89.64897000
27.46582031,-91.38573000
27.49633789,-97.78449000
27.52685547,-100.97520000
27.55737305,-96.31463000
27.58789063,-98.50190000
27.61840820,-110.43430000
27.64892578,-103.28410000
27.67944336,-96.35785000
27.70996094,-90.34995000
27.74047852,-87.72925000
27.77099609,-88.92778000
27.80151367,-94.34589000
27.83203125,-103.04280000
27.86254883,-98.76210000
27.89306641,-93.62465000
27.92358398,-91.87447000
27.95410156,-92.01832000
27.98461914,-90.71452000
28.01513672,-88.16035000
28.04565430,-86.94418000
28.07617188,-87.41935000
28.10668945,-88.72468000
28.13720703,-89.15313000
28.16772461,-88.61012000
28.19824219,-89.15009000
28.22875977,-91.97943000
28.25927734,-94.60188000
28.28979492,-93.50074000
28.32031250,-94.37684000
28.35083008,-98.44620000
28.38134766,-101.72910000
28.41186523,-102.26300000
28.44238281,-100.54800000
28.47290039,-96.51691000
28.50341797,-92.82936000
28.53393555,-90.65462000
28.56445313,-91.16296000
28.59497070,-96.00023000
28.62548828,-117.52950000
28.65600586,-100.07480000
28.68652344,-100.05690000
28.71704102,-103.47050000
28.74755859,-98.99094000
28.77807617,-96.21111000
28.80859375,-97.11327000
28.83911133,-104.39950000
28.86962891,-99.92385000
28.90014648,-93.60199000
28.93066406,-90.77538000
28.96118164,-89.04725000
28.99169922,-89.67904000
29.02221680,-90.84750000
29.05273438,-87.08298000
29.08325195,-85.20175000
29.11376953,-86.41399000
29.14428711,-89.49177000
29.17480469,-91.33819000
29.20532227,-91.19824000
29.23583984,-90.93213000
29.26635742,-90.63121000
29.29687500,-90.03590000
29.32739258,-89.62415000
29.35791016,-90.61752000
29.38842773,-95.10201000
29.41894531,-108.78650000
29.44946289,-94.06701000
29.47998047,-89.61316000
29.51049805,-87.86950000
29.54101563,-87.45572000
29.57153320,-88.22572000
29.60205078,-90.27080000
29.63256836,-93.68433000
29.66308594,-99.80385000
29.69360352,-105.13270000
29.72412109,-100.86940000
29.75463867,-103.89770000
29.78515625,-106.65110000
29.81567383,-102.37950000
29.84619141,-101.21620000
29.87670898,-104.73810000
29.90722656,-103.53790000
29.93774414,-94.03736000
29.96826172,-90.83615000
29.99877930,-90.55672000
30.02929688,-91.88428000
30.05981445,-93.38103000
30.09033203,-93.85555000
30.12084961,-93.19614000
30.15136719,-91.62758000
30.18188477,-90.05595000
30.21240234,-89.20287000
30.24291992,-88.98133000
30.27343750,-88.78369000
30.30395508,-88.73376000
30.33447266,-89.91096000
30.36499023,-91.00812000
30.39550781,-89.15089000
30.42602539,-87.36339000
30.45654297,-86.64412000
30.48706055,-86.22089000
30.51757813,-85.72429000
30.54809570,-85.41541000
30.57861328,-85.84039000
30.60913086,-87.97913000
30.63964844,-93.50556000
30.67016602,-97.47063000
30.70068359,-90.56908000
30.73120117,-87.54769000
30.76171875,-87.33672000
30.79223633,-88.78846000
30.82275391,-89.06677000
30.85327148,-87.66766000
30.88378906,-87.38840000
30.91430664,-89.46497000
30.94482422,-94.93774000
30.97534180,-101.27310000
31.00585938,-95.75441000
31.03637695,-93.21091000
31.06689453,-92.33677000
31.09741211,-91.98661000
31.12792969,-92.09019000
31.15844727,-91.82639000
31.18896484,-89.97015000
31.21948242,-88.57998000
31.25000000,-89.09436000
31.28051758,-91.04166000
31.31103516,-93.16098000
31.34155273,-92.92072000
31.37207031,-90.77264000
31.40258789,-89.32522000
31.43310547,-88.82803000
31.46362305,-89.34171000
31.49414063,-90.97305000
31.52465820,-93.40405000
31.55517578,-94.92446000
31.58569336,-92.36493000
31.61621094,-88.67325000
31.64672852,-87.03546000
31.67724609,-88.32771000
31.70776367,-92.93456000
31.73828125,-95.12733000
31.76879883,-93.13966000
31.79931641,-93.06167000
31.82983398,-92.41341000
31.86035156,-90.34766000
31.89086914,-88.86188000
31.92138672,-89.04247000
31.95190430,-90.69342000
31.98242188,-92.45688000
32.01293945,-92.76181000
32.04345703,-93.36567000
32.07397461,-96.33934000
32.10449219,-101.43590000
32.13500977,-100.12060000
32.16552734,-93.48812000
32.19604492,-90.16554000
32.22656250,-88.61815000
32.25708008,-87.59731000
32.28759766,-87.80000000
32.31811523,-89.24667000
32.34863281,-89.79507000
32.37915039,-89.14230000
32.40966797,-88.92986000
32.44018555,-89.16644000
32.47070313,-89.79214000
32.50122070,-91.52020000
32.53173828,-94.36161000
32.56225586,-93.69712000
32.59277344,-91.58398000
32.62329102,-91.05180000
32.65380859,-90.69930000
32.68432617,-89.56394000
32.71484375,-89.05984000
32.74536133,-89.99844000
32.77587891,-90.38870000
32.80639648,-89.24557000
32.83691406,-89.35181000
32.86743164,-92.14730000
32.89794922,-97.56194000
32.92846680,-98.41087000
32.95898438,-96.30840000
32.98950195,-94.66843000
33.02001953,-95.03734000
33.05053711,-99.87344000
33.08105469,-100.87730000
33.11157227,-94.99342000
33.14208984,-92.28569000
33.17260742,-90.66754000
33.20312500,-89.67121000
33.23364258,-89.24599000
33.26416016,-89.12785000
33.29467773,-88.98193000
33.32519531,-88.72447000
33.35571289,-87.92930000
33.38623047,-86.79343000
33.41674805,-86.50133000
33.44726563,-87.47657000
33.47778320,-89.09921000
33.50830078,-90.20108000
33.53881836,-90.85445000
33.56933594,-91.92052000
33.59985352,-93.41828000
33.63037109,-94.33536000
33.66088867,-93.85910000
33.69140625,-92.19494000
33.72192383,-90.79350000
33.75244141,-91.03489000
33.78295898,-92.54356000
33.81347656,-93.02031000
33.84399414,-91.82605000
33.87451172,-91.02074000
33.90502930,-91.07614000
33.93554688,-91.65154000
33.96606445,-92.31037000
33.99658203,-91.46838000
34.02709961,-89.14857000
34.05761719,-87.24423000
34.08813477,-86.04877000
34.11865234,-85.34854000
34.14916992,-85.13844000
34.17968750,-85.39503000
34.21020508,-86.14146000
34.24072266,-87.86740000
34.27124023,-91.36803000
34.30175781,-97.87053000
34.33227539,-111.62640000
34.36279297,-101.15890000
34.39331055,-95.61900000
34.42382813,-92.86626000
34.45434570,-91.22104000
34.48486328,-89.85255000
34.51538086,-88.15316000
34.54589844,-86.08826000
34.57641602,-84.81584000
34.60693359,-84.93660000
34.63745117,-86.02994000
34.66796875,-86.40377000
34.69848633,-85.31429000
34.72900391,-84.41335000
34.75952148,-84.26746000
34.79003906,-84.18741000
34.82055664,-83.49113000
34.85107422,-82.83124000
34.88159180,-83.26283000
34.91210938,-85.31396000
34.94262695,-89.18338000
34.97314453,-94.39574000
35.00366211,-96.54064000
35.03417969,-94.89796000
35.06469727,-94.57375000
35.09521484,-94.46926000
35.12573242,-91.90079000
35.15625000,-89.66714000
35.18676758,-88.80853000
35.21728516,-88.05116000
35.24780273,-86.19648000
35.27832031,-84.22524000
35.30883789,-83.31294000
35.33935547,-83.69116000
35.36987305,-84.76401000
35.40039063,-85.79178000
35.43090820,-87.30617000
35.46142578,-90.12224000
35.49194336,-93.38081000
35.52246094,-93.18920000
35.55297852,-90.13889000
35.58349609,-87.61993000
35.61401367,-86.18069000
35.64453125,-85.86632000
35.67504883,-87.22478000
35.70556641,-91.54130000
35.73608398,-105.41260000
35.76660156,-96.98425000
35.79711914,-91.93427000
35.82763672,-90.79552000
35.85815430,-91.30276000
35.88867188,-91.55463000
35.91918945,-89.64329000
35.94970703,-87.51471000
35.98022461,-86.55915000
36.01074219,-86.74670000
36.04125977,-87.59529000
36.07177734,-88.40477000
36.10229492,-88.66251000
36.13281250,-88.64471000
36.16333008,-88.90996000
36.19384766,-89.24335000
36.22436523,-89.68155000
36.25488281,-90.97655000
36.28540039,-93.02481000
36.31591797,-93.50714000
36.34643555,-91.91860000
36.37695313,-90.87215000
36.40747070,-91.27879000
36.43798828,-92.26018000
36.46850586,-91.19135000
36.49902344,-89.10506000
36.52954102,-87.88990000
36.56005859,-87.33773000
36.59057617,-86.74813000
36.62109375,-85.91544000
36.65161133,-85.26592000
36.68212891,-85.37525000
36.71264648,-86.78901000
36.74316406,-89.46458000
36.77368164,-90.30412000
36.80419922,-89.00117000
36.83471680,-89.32703000
36.86523438,-91.59690000
36.89575195,-94.20325000
36.92626953,-94.83581000
36.95678711,-93.83348000
36.98730469,-91.74603000
37.01782227,-88.71449000
37.04833984,-86.62257000
37.07885742,-86.59042000
37.10937500,-89.16640000
37.13989258,-95.30540000
37.17041016,-100.15200000
37.20092773,-96.74819000
37.23144531,-96.92856000
37.26196289,-100.42960000
37.29248047,-103.05130000
37.32299805,-100.29560000
37.35351563,-99.85597000
37.38403320,-101.16610000
37.41455078,-101.70210000
37.44506836,-101.83620000
37.47558594,-101.86870000
37.50610352,-100.48540000
37.53662109,-97.00928000
37.56713867,-93.94065000
37.59765625,-92.64285000
37.62817383,-92.57724000
37.65869141,-92.78313000
37.68920898,-93.01019000
37.71972656,-93.95157000
37.75024414,-96.48375000
37.78076172,-96.53746000
37.81127930,-92.06706000
37.84179688,-89.73477000
37.87231445,-89.66710000
37.90283203,-89.81609000
37.93334961,-87.96772000
37.96386719,-86.56560000
37.99438477,-87.37957000
38.02490234,-90.94817000
38.05541992,-97.82424000
38.08593750,-102.33200000
38.11645508,-97.44154000
38.14697266,-94.93919000
38.17749023,-95.17579000
38.20800781,-97.05558000
38.23852539,-99.33553000
38.26904297,-100.58050000
38.29956055,-98.18591000
38.33007813,-97.13799000
38.36059570,-99.66188000
38.39111328,-103.79180000
38.42163086,-100.50470000
38.45214844,-95.25292000
38.48266602,-91.73946000
38.51318359,-90.81404000
38.54370117,-92.55385000
38.57421875,-95.02357000
38.60473633,-92.08302000
38.63525391,-89.22585000
38.66577148,-88.78900000
38.69628906,-90.28976000
38.72680664,-92.92098000
38.75732422,-95.61707000
38.78784180,-97.37373000
38.81835938,-98.72021000
38.84887695,-100.02590000
38.87939453,-100.07870000
38.90991211,-98.71265000
38.94042969,-96.80603000
38.97094727,-97.33649000
39.00146484,-100.22900000
39.03198242,-93.74627000
39.06250000,-90.34851000
39.09301758,-91.00404000
39.12353516,-96.94847000
39.15405273,-106.68460000
39.18457031,-95.70776000
39.21508789,-94.63460000
39.24560547,-91.61369000
39.27612305,-88.63971000
39.30664063,-88.37791000
39.33715820,-90.10413000
39.36767578,-93.15485000
39.39819336,-97.49196000
39.42871094,-101.23950000
39.45922852,-99.87858000
39.48974609,-96.84700000
39.52026367,-96.45837000
39.55078125,-98.82895000
39.58129883,-101.48530000
39.61181641,-100.02810000
39.64233398,-97.04735000
39.67285156,-94.56030000
39.70336914,-91.79276000
39.73388672,-88.94038000
39.76440430,-88.11878000
39.79492188,-89.96578000
39.82543945,-94.07298000
39.85595703,-97.39236000
39.88647461,-97.34991000
39.91699219,-96.31104000
39.94750977,-94.57022000
39.97802734,-93.01685000
40.00854492,-93.16029000
40.03906250,-96.67014000
40.06958008,-104.71170000
40.10009766,-98.41896000
40.13061523,-96.84293000
40.16113281,-97.90828000
40.19165039,-94.66920000
40.22216797,-92.51936000
40.25268555,-94.16464000
40.28320313,-99.58829000
40.31372070,-97.31399000
40.34423828,-95.93414000
40.37475586,-99.17891000
40.40527344,-101.78660000
40.43579102,-97.15316000
40.46630859,-93.97908000
40.49682617,-91.39935000
40.52734375,-89.84065000
40.55786133,-91.20042000
40.58837891,-96.62404000
40.61889648,-95.16887000
40.64941406,-90.32637000
40.67993164,-88.75230000
40.71044922,-89.16055000
40.74096680,-91.24004000
40.77148438,-95.66140000
40.80200195,-102.53080000
40.83251953,-105.76890000
40.86303711,-103.77320000
40.89355469,-100.65780000
40.92407227,-98.79196000
40.95458984,-96.51755000
40.98510742,-93.60780000
41.01562500,-91.10999000
41.04614258,-90.06628000
41.07666016,-91.63289000
41.10717773,-97.51057000
41.13769531,-97.94836000
41.16821289,-94.55707000
41.19873047,-97.54134000
41.22924805,-109.29600000
41.25976563,-101.77920000
41.29028320,-96.18285000
41.32080078,-88.37138000
41.35131836,-84.72672000
41.38183594,-84.60318000
41.41235352,-87.92805000
41.44287109,-97.03183000
41.47338867,-97.74339000
41.50390625,-91.31606000
41.53442383,-90.40210000
41.56494141,-91.83213000
41.59545898,-94.17001000
41.62597656,-91.99523000
41.65649414,-86.85919000
41.68701172,-84.42216000
41.71752930,-84.47941000
41.74804688,-86.91637000
41.77856445,-92.05478000
41.80908203,-97.51138000
41.83959961,-97.82431000
41.87011719,-99.99049000
41.90063477,-109.87670000
41.93115234,-98.77972000
41.96166992,-93.16682000
41.99218750,-93.10240000
42.02270508,-96.41145000
42.05322266,-93.86315000
42.08374023,-91.56165000
42.11425781,-91.34605000
42.14477539,-91.11681000
42.17529297,-89.83195000
42.20581055,-87.22953000
42.23632813,-85.47340000
42.26684570,-85.88554000
42.29736328,-89.10107000
42.32788086,-95.32474000
42.35839844,-90.95575000
42.38891602,-85.00317000
42.41943359,-82.84593000
42.44995117,-84.24605000
42.48046875,-89.40176000
42.51098633,-96.83555000
42.54150391,-96.84483000
42.57202148,-90.33164000
42.60253906,-87.78645000
42.63305664,-87.80952000
42.66357422,-87.75565000
42.69409180,-87.34051000
42.72460938,-88.68374000
42.75512695,-92.79312000
42.78564453,-100.31840000
42.81616211,-101.93700000
42.84667969,-93.06573000
42.87719727,-88.39441000
42.90771484,-86.35432000
42.93823242,-86.23285000
42.96875000,-87.83982000
42.99926758,-91.73558000
43.02978516,-100.43670000
43.06030273,-105.59260000
43.09082031,-99.13871000
43.12133789,-97.35706000
43.15185547,-96.79246000
43.18237305,-99.97810000
43.21289063,-98.66402000
43.24340820,-90.56978000
43.27392578,-87.16499000
43.30444336,-86.78470000
43.33496094,-89.25333000
43.36547852,-95.96892000
43.39599609,-96.70184000
43.42651367,-91.64329000
43.45703125,-91.45222000
43.48754883,-93.28606000
43.51806641,-91.24590000
43.54858398,-90.07378000
43.57910156,-93.55773000
43.60961914,-108.76190000
43.64013672,-101.81460000
43.67065430,-98.78062000
43.70117188,-98.23197000
43.73168945,-96.70342000
43.76220703,-93.99545000
43.79272461,-91.80515000
43.82324219,-92.04707000
43.85375977,-95.31960000
43.88427734,-103.86430000
43.91479492,-99.98837000
43.94531250,-91.07983000
43.97583008,-88.61077000
44.00634766,-89.10255000
44.03686523,-90.81946000
44.06738281,-92.11330000
44.09790039,-92.31291000
44.12841797,-91.77299000
44.15893555,-91.40076000
44.18945313,-92.46624000
44.21997070,-96.21799000
44.25048828,-102.69170000
44.28100586,-101.26540000
44.31152344,-99.92554000
44.34204102,-96.19574000
44.37255859,-93.10055000
44.40307617,-94.04346000
44.43359375,-100.16710000
44.46411133,-110.01640000
44.49462891,-106.59490000
44.52514648,-105.52100000
44.55566406,-100.25980000
44.58618164,-94.77588000
44.61669922,-92.18701000
44.64721680,-92.73225000
44.67773438,-95.72311000
44.70825195,-98.18436000
44.73876953,-96.95784000
44.76928711,-95.14622000
44.79980469,-94.54373000
44.83032227,-93.28322000
44.86083984,-91.67469000
44.89135742,-90.84258000
44.92187500,-90.28878000
44.95239258,-89.96444000
44.98291016,-90.11420000
45.01342773,-90.37453000
45.04394531,-91.32157000
45.07446289,-94.17906000
45.10498047,-97.31696000
45.13549805,-96.40767000
45.16601563,-95.43051000
45.19653320,-95.99079000
45.22705078,-99.19719000
45.25756836,-101.10180000
45.28808594,-96.08738000
45.31860352,-94.87564000
45.34912109,-96.63593000
45.37963867,-99.03332000
45.41015625,-100.99670000
45.44067383,-102.89960000
45.47119141,-97.90652000
45.50170898,-92.91566000
45.53222656,-91.04227000
45.56274414,-92.43954000
45.59326172,-99.69000000
45.62377930,-100.84580000
45.65429688,-92.87525000
45.68481445,-91.31455000
45.71533203,-92.99701000
45.74584961,-98.18033000
45.77636719,-102.37660000
45.80688477,-97.05627000
45.83740234,-97.86281000
45.86791992,-101.37540000
45.89843750,-98.86484000
45.92895508,-101.10550000
45.95947266,-103.02650000
45.98999023,-98.87688000
46.02050781,-98.79774000
46.05102539,-100.17260000
46.08154297,-97.85004000
46.11206055,-94.20348000
46.14257813,-92.54356000
46.17309570,-94.74480000
46.20361328,-108.85250000
46.23413086,-93.54852000
46.26464844,-89.65324000
46.29516602,-90.98888000
46.32568359,-97.40070000
46.35620117,-110.19370000
46.38671875,-109.71920000
46.41723633,-101.66730000
46.44775391,-97.89163000
46.47827148,-99.22926000
46.50878906,-107.93160000
46.53930664,-106.70380000
46.56982422,-97.24786000
46.60034180,-91.91388000
46.63085938,-89.09108000
46.66137695,-88.78600000
46.69189453,-90.91816000
46.72241211,-95.21427000
46.75292969,-101.39650000
46.78344727,-111.59760000
46.81396484,-106.73750000
46.84448242,-102.91540000
46.87500000,-99.08015000
46.90551758,-97.22821000
46.93603516,-100.35070000
46.96655273,-107.18020000
46.99707031,-96.87897000
47.02758789,-93.41315000
47.05810547,-93.75235000
47.08862305,-96.54105000
47.11914063,-98.56849000
47.14965820,-98.24050000
47.18017578,-98.38850000
47.21069336,-99.52752000
47.24121094,-95.49119000
47.27172852,-91.25383000
47.30224609,-89.08691000
47.33276367,-88.71291000
47.36328125,-89.57539000
47.39379883,-91.20197000
47.42431641,-92.96711000
47.45483398,-92.78510000
47.48535156,-92.08065000
47.51586914,-93.41302000
47.54638672,-99.16473000
47.57690430,-104.66680000
47.60742188,-93.43805000
47.63793945,-89.49769000
47.66845703,-87.95207000
47.69897461,-87.77321000
47.72949219,-88.87978000
47.76000977,-90.71432000
47.79052734,-90.28415000
47.82104492,-88.38905000
47.85156250,-87.93343000
47.88208008,-88.69934000
47.91259766,-89.56248000
47.94311523,-90.98973000
47.97363281,-93.69147000
48.00415039,-97.14501000
48.03466797,-102.46980000
48.06518555,-112.89590000
48.09570313,-97.85408000
48.12622070,-93.47732000
48.15673828,-92.87551000
48.18725586,-94.50992000
48.21777344,-97.43943000
48.24829102,-101.96290000
48.27880859,-101.62730000
48.30932617,-94.54063000
48.33984375,-90.70664000
48.37036133,-89.30149000
48.40087891,-89.85374000
48.43139648,-92.34042000
48.46191406,-96.64452000
48.49243164,-97.16150000
48.52294922,-96.18500000
48.55346680,-98.63605000
48.58398438,-93.20072000
48.61450195,-89.45900000
48.64501953,-89.59180000
48.67553711,-92.03857000
48.70605469,-93.74640000
48.73657227,-94.36508000
48.76708984,-95.99441000
48.79760742,-100.24430000
48.82812500,-97.43633000
48.85864258,-92.08531000
48.88916016,-91.09168000
48.91967773,-93.33767000
48.95019531,-97.41724000
48.98071289,-99.90552000
49.01123047,-99.13880000
49.04174805,-96.56345000
49.07226563,-94.44276000
49.10278320,-93.57536000
49.13330078,-94.23592000
49.16381836,-96.61106000
49.19433594,-101.21780000
49.22485352,-102.11680000
49.25537109,-96.25421000
49.28588867,-93.56313000
49.31640625,-93.14116000
49.34692383,-94.02197000
49.37744141,-96.50041000
49.40795898,-98.76877000
49.43847656,-98.34993000
49.46899414,-97.17320000
49.49951172,-96.41483000
49.53002930,-95.79185000
49.56054688,-93.00081000
49.59106445,-91.61176000
49.62158203,-92.74329000
49.65209961,-96.73788000
49.68261719,-105.87470000
49.71313477,-112.20400000
49.74365234,-105.20570000
49.77416992,-100.26770000
49.80468750,-97.82356000
49.83520508,-96.32912000
49.86572266,-93.31087000
49.89624023,-90.46881000
49.92675781,-89.56871000
49.95727539,-91.15700000
49.98779297,-95.50114000
50.01831055,-103.23100000
