Frequency,Channel A
(MHz),(dBu)

0.00000000,-40.86008000
0.03051758,-41.41685000
0.06103516,-47.17831000
0.09155273,-53.23677000
0.12207031,-53.28721000
0.15258789,-55.08505000
0.18310547,-56.29212000
0.21362305,-56.93162000
0.24414063,-58.32478000
0.27465820,-60.34504000
0.30517578,-62.61687000
0.33569336,-64.23206000
0.36621094,-66.16484000
0.39672852,-67.20240000
0.42724609,-60.93383000
0.45776367,-57.32803000
0.48828125,-57.45239000
0.51879883,-61.58344000
0.54931641,-67.24995000
0.57983398,-61.74460000
0.61035156,-59.48847000
0.64086914,-61.59912000
0.67138672,-70.27903000
0.70190430,-62.25957000
0.73242188,-57.70872000
0.76293945,-56.02718000
0.79345703,-55.73375000
0.82397461,-57.39212000
0.85449219,-62.36390000
0.88500977,-70.65810000
0.91552734,-64.88242000
0.94604492,-61.77147000
0.97656250,-61.29357000
1.00708008,-63.22285000
1.03759766,-66.17858000
1.06811523,-62.99651000
1.09863281,-60.29674000
1.12915039,-60.82551000
1.15966797,-64.82362000
1.19018555,-69.54633000
1.22070313,-67.84771000
1.25122070,-67.00854000
1.28173828,-64.99498000
1.31225586,-62.78194000
1.34277344,-61.84393000
1.37329102,-62.33560000
1.40380859,-64.73859000
1.43432617,-67.08704000
1.46484375,-66.18562000
1.49536133,-66.85335000
1.52587891,-68.06104000
1.55639648,-64.83122000
1.58691406,-62.44593000
1.61743164,-61.91063000
1.64794922,-62.27487000
1.67846680,-63.08764000
1.70898438,-64.57999000
1.73950195,-66.83112000
1.77001953,-69.00394000
1.80053711,-70.34084000
1.83105469,-71.15525000
1.86157227,-70.79212000
1.89208984,-69.94316000
1.92260742,-69.73287000
1.95312500,-69.10004000
1.98364258,-67.42789000
2.01416016,-66.43418000
2.04467773,-67.24562000
2.07519531,-69.66602000
2.10571289,-69.59992000
2.13623047,-67.13776000
2.16674805,-66.15055000
2.19726563,-66.19301000
2.22778320,-66.74351000
2.25830078,-68.56589000
2.28881836,-70.20460000
2.31933594,-69.56554000
2.34985352,-70.91180000
2.38037109,-76.06553000
2.41088867,-72.62231000
2.44140625,-68.33602000
2.47192383,-66.74457000
2.50244141,-66.42284000
2.53295898,-66.97493000
2.56347656,-68.89655000
2.59399414,-73.04942000
2.62451172,-73.66858000
2.65502930,-69.92245000
2.68554688,-69.27831000
2.71606445,-70.49374000
2.74658203,-70.65582000
2.77709961,-70.45038000
2.80761719,-69.98978000
2.83813477,-68.69464000
2.86865234,-68.37064000
2.89916992,-69.23257000
2.92968750,-69.74752000
2.96020508,-68.99800000
2.99072266,-67.77931000
3.02124023,-66.14741000
3.05175781,-64.25726000
3.08227539,-63.40380000
3.11279297,-64.52173000
3.14331055,-66.77272000
3.17382813,-66.52266000
3.20434570,-65.90997000
3.23486328,-67.79593000
3.26538086,-70.98301000
3.29589844,-69.18253000
3.32641602,-65.81699000
3.35693359,-63.77180000
3.38745117,-63.08762000
3.41796875,-63.62917000
3.44848633,-65.17744000
3.47900391,-67.52620000
3.50952148,-70.39006000
3.54003906,-70.63707000
3.57055664,-67.36393000
3.60107422,-65.23407000
3.63159180,-64.65585000
3.66210938,-64.59273000
3.69262695,-64.65630000
3.72314453,-65.80087000
3.75366211,-69.15622000
3.78417969,-74.34167000
3.81469727,-71.39312000
3.84521484,-67.73358000
3.87573242,-66.06293000
3.90625000,-65.08200000
3.93676758,-64.57726000
3.96728516,-65.20145000
3.99780273,-67.32130000
4.02832031,-70.21574000
4.05883789,-71.01103000
4.08935547,-69.73199000
4.11987305,-68.78947000
4.15039063,-67.99625000
4.18090820,-66.72439000
4.21142578,-65.71262000
4.24194336,-65.83580000
4.27246094,-67.21661000
4.30297852,-69.19815000
4.33349609,-70.50468000
4.36401367,-70.28650000
4.39453125,-68.99522000
4.42504883,-67.40198000
4.45556641,-65.87581000
4.48608398,-64.91942000
4.51660156,-65.02631000
4.54711914,-66.25713000
4.57763672,-68.35026000
4.60815430,-71.40933000
4.63867188,-72.02713000
4.66918945,-68.16685000
4.69970703,-66.00424000
4.73022461,-65.37248000
4.76074219,-64.99513000
4.79125977,-64.93175000
4.82177734,-66.08972000
4.85229492,-69.14085000
4.88281250,-75.14456000
4.91333008,-77.88802000
4.94384766,-70.89786000
4.97436523,-67.20660000
5.00488281,-65.65710000
5.03540039,-65.53292000
5.06591797,-66.40352000
5.09643555,-68.22022000
5.12695313,-71.50889000
5.15747070,-77.17536000
5.18798828,-79.66624000
5.21850586,-75.02068000
5.24902344,-72.32013000
5.27954102,-70.94203000
5.31005859,-70.09497000
5.34057617,-69.36374000
5.37109375,-68.64251000
5.40161133,-67.90425000
5.43212891,-67.26960000
5.46264648,-67.55193000
5.49316406,-69.88946000
5.52368164,-73.80415000
5.55419922,-71.09589000
5.58471680,-66.98247000
5.61523438,-64.32350000
5.64575195,-62.61760000
5.67626953,-61.73023000
5.70678711,-61.59309000
5.73730469,-62.20415000
5.76782227,-63.74509000
5.79833984,-66.35301000
5.82885742,-67.71692000
5.85937500,-65.01321000
5.88989258,-62.36687000
5.92041016,-61.00033000
5.95092773,-60.67076000
5.98144531,-61.25351000
6.01196289,-62.95192000
6.04248047,-66.35960000
6.07299805,-73.09766000
6.10351563,-77.73933000
6.13403320,-69.59643000
6.16455078,-65.87889000
6.19506836,-64.36665000
6.22558594,-64.27052000
6.25610352,-65.06451000
6.28662109,-66.71548000
6.31713867,-70.14034000
6.34765625,-76.83783000
6.37817383,-76.65822000
6.40869141,-71.28721000
6.43920898,-68.72598000
6.46972656,-67.89037000
6.50024414,-68.31606000
6.53076172,-69.97224000
6.56127930,-73.48599000
6.59179688,-81.01840000
6.62231445,-80.79997000
6.65283203,-74.17448000
6.68334961,-71.34547000
6.71386719,-70.04051000
6.74438477,-69.51326000
6.77490234,-69.76027000
6.80541992,-71.04855000
6.83593750,-73.80899000
6.86645508,-79.20061000
6.89697266,-96.16456000
6.92749023,-81.91285000
6.95800781,-75.53641000
6.98852539,-72.47534000
7.01904297,-71.31056000
7.04956055,-71.48599000
7.08007813,-72.34101000
7.11059570,-73.63862000
7.14111328,-76.05177000
7.17163086,-80.81607000
7.20214844,-94.13675000
7.23266602,-85.80573000
7.26318359,-79.05395000
7.29370117,-76.41238000
7.32421875,-75.63783000
7.35473633,-75.91203000
7.38525391,-76.75322000
7.41577148,-78.09086000
7.44628906,-80.42244000
7.47680664,-85.00310000
7.50732422,-98.27849000
7.53784180,-90.39755000
7.56835938,-83.71268000
7.59887695,-80.97054000
7.62939453,-79.31207000
7.65991211,-77.82068000
7.69042969,-77.13146000
7.72094727,-77.99258000
7.75146484,-80.17999000
7.78198242,-82.05960000
7.81250000,-84.42687000
7.84301758,-94.70882000
7.87353516,-88.08836000
7.90405273,-80.69846000
7.93457031,-78.16402000
7.96508789,-78.05292000
7.99560547,-79.77943000
8.02612305,-82.20399000
8.05664063,-83.79907000
8.08715820,-85.35695000
8.11767578,-86.87264000
8.14819336,-86.81241000
8.17871094,-85.78689000
8.20922852,-84.75684000
8.23974609,-84.03487000
8.27026367,-83.54359000
8.30078125,-82.69753000
8.33129883,-80.94898000
8.36181641,-78.70834000
8.39233398,-76.94632000
8.42285156,-76.41007000
8.45336914,-77.53138000
8.48388672,-80.44933000
8.51440430,-85.28145000
8.54492188,-95.34702000
8.57543945,-91.23727000
8.60595703,-84.65591000
8.63647461,-82.22934000
8.66699219,-80.67376000
8.69750977,-79.19774000
8.72802734,-78.49310000
8.75854492,-78.76724000
8.78906250,-79.78397000
8.81958008,-81.91766000
8.85009766,-87.39414000
8.88061523,-98.42574000
8.91113281,-83.84812000
8.94165039,-79.71178000
8.97216797,-78.52692000
9.00268555,-78.82812000
9.03320313,-79.70462000
9.06372070,-80.94106000
9.09423828,-82.95773000
9.12475586,-85.25669000
9.15527344,-87.16125000
9.18579102,-91.42482000
9.21630859,-102.57880000
9.24682617,-91.96168000
9.27734375,-86.87321000
9.30786133,-83.41011000
9.33837891,-81.05721000
9.36889648,-80.02002000
9.39941406,-80.36156000
9.42993164,-82.60356000
9.46044922,-87.53755000
9.49096680,-90.01891000
9.52148438,-84.90639000
9.55200195,-80.79787000
9.58251953,-77.98009000
9.61303711,-76.36282000
9.64355469,-75.71029000
9.67407227,-75.88754000
9.70458984,-77.08798000
9.73510742,-79.31373000
9.76562500,-81.75291000
9.79614258,-82.70890000
9.82666016,-81.08720000
9.85717773,-78.31197000
9.88769531,-76.45292000
9.91821289,-76.38361000
9.94873047,-77.91692000
9.97924805,-79.60905000
10.00976563,-80.72335000
10.04028320,-82.81632000
10.07080078,-85.09029000
10.10131836,-82.80880000
10.13183594,-78.70728000
10.16235352,-76.02699000
10.19287109,-75.65144000
10.22338867,-78.19669000
10.25390625,-83.78951000
10.28442383,-87.18817000
10.31494141,-89.55621000
10.34545898,-89.44340000
10.37597656,-83.71941000
10.40649414,-80.34062000
10.43701172,-78.04267000
10.46752930,-76.33659000
10.49804688,-75.35477000
10.52856445,-75.12837000
10.55908203,-75.49982000
10.58959961,-76.44471000
10.62011719,-78.26445000
10.65063477,-81.34003000
10.68115234,-85.21410000
10.71166992,-87.59315000
10.74218750,-89.06105000
10.77270508,-90.99092000
10.80322266,-89.87991000
10.83374023,-87.54340000
10.86425781,-87.09724000
10.89477539,-87.84592000
10.92529297,-88.39388000
10.95581055,-82.96802000
10.98632813,-77.92931000
11.01684570,-75.98779000
11.04736328,-76.50050000
11.07788086,-78.63914000
11.10839844,-80.21358000
11.13891602,-78.44651000
11.16943359,-75.71425000
11.19995117,-73.91851000
11.23046875,-73.53915000
11.26098633,-74.17148000
11.29150391,-74.07650000
11.32202148,-73.65372000
11.35253906,-75.15937000
11.38305664,-79.81061000
11.41357422,-86.59514000
11.44409180,-85.52311000
11.47460938,-82.08231000
11.50512695,-78.47770000
11.53564453,-75.90261000
11.56616211,-74.51396000
11.59667969,-74.40804000
11.62719727,-75.99344000
11.65771484,-79.34312000
11.68823242,-82.92088000
11.71875000,-88.25995000
11.74926758,-94.71801000
11.77978516,-82.03302000
11.81030273,-78.45908000
11.84082031,-77.66035000
11.87133789,-78.69711000
11.90185547,-81.54462000
11.93237305,-82.32864000
11.96289063,-79.09619000
11.99340820,-77.65909000
12.02392578,-78.94418000
12.05444336,-83.36583000
12.08496094,-92.41335000
12.11547852,-98.25736000
12.14599609,-90.91126000
12.17651367,-90.86627000
12.20703125,-92.50089000
12.23754883,-85.38718000
12.26806641,-81.64546000
12.29858398,-79.77474000
12.32910156,-79.20694000
12.35961914,-80.78007000
12.39013672,-85.40177000
12.42065430,-94.97073000
12.45117188,-88.92336000
12.48168945,-79.30990000
12.51220703,-76.38139000
12.54272461,-76.76425000
12.57324219,-77.37168000
12.60375977,-75.76636000
12.63427734,-73.75358000
12.66479492,-72.67073000
12.69531250,-73.05202000
12.72583008,-75.04489000
12.75634766,-78.48254000
12.78686523,-82.89608000
12.81738281,-86.28478000
12.84790039,-84.11403000
12.87841797,-81.33974000
12.90893555,-80.14899000
12.93945313,-79.00196000
12.96997070,-77.87868000
13.00048828,-77.84364000
13.03100586,-78.91213000
13.06152344,-80.06232000
13.09204102,-80.29415000
13.12255859,-80.95218000
13.15307617,-84.00864000
13.18359375,-84.36298000
13.21411133,-80.02689000
13.24462891,-77.18458000
13.27514648,-74.85276000
13.30566406,-73.81971000
13.33618164,-74.89491000
13.36669922,-78.52374000
13.39721680,-84.83163000
13.42773438,-82.17667000
13.45825195,-82.18021000
13.48876953,-82.44224000
13.51928711,-70.55943000
13.54980469,-66.56156000
13.58032227,-67.04017000
13.61083984,-72.28700000
13.64135742,-93.09212000
13.67187500,-80.11291000
13.70239258,-78.35120000
13.73291016,-80.38445000
13.76342773,-85.89018000
13.79394531,-86.78842000
13.82446289,-79.98750000
13.85498047,-77.54302000
13.88549805,-77.56688000
13.91601563,-79.14220000
13.94653320,-81.02271000
13.97705078,-81.89774000
14.00756836,-84.37062000
14.03808594,-87.27489000
14.06860352,-81.50520000
14.09912109,-79.61755000
14.12963867,-81.32318000
14.16015625,-82.16412000
14.19067383,-78.83997000
14.22119141,-76.22717000
14.25170898,-75.24507000
14.28222656,-76.01847000
14.31274414,-78.96808000
14.34326172,-85.04811000
14.37377930,-86.21754000
14.40429688,-81.59465000
14.43481445,-80.62489000
14.46533203,-80.01300000
14.49584961,-77.23874000
14.52636719,-75.36666000
14.55688477,-74.91929000
14.58740234,-75.02228000
14.61791992,-75.60790000
14.64843750,-77.26609000
14.67895508,-79.84361000
14.70947266,-83.64352000
14.73999023,-94.21845000
14.77050781,-86.00776000
14.80102539,-81.08532000
14.83154297,-80.56702000
14.86206055,-79.69125000
14.89257813,-76.87703000
14.92309570,-75.06694000
14.95361328,-74.85337000
14.98413086,-76.09356000
15.01464844,-78.70337000
15.04516602,-82.71652000
15.07568359,-89.34415000
15.10620117,-105.12990000
15.13671875,-86.14167000
15.16723633,-80.26656000
15.19775391,-77.12182000
15.22827148,-75.93604000
15.25878906,-76.56599000
15.28930664,-79.02960000
15.31982422,-84.13444000
15.35034180,-94.43519000
15.38085938,-84.93977000
15.41137695,-81.09543000
15.44189453,-79.99141000
15.47241211,-78.74220000
15.50292969,-76.95689000
15.53344727,-75.93447000
15.56396484,-76.50684000
15.59448242,-79.37759000
15.62500000,-86.02599000
15.65551758,-98.67163000
15.68603516,-92.54865000
15.71655273,-87.93036000
15.74707031,-83.68012000
15.77758789,-81.26281000
15.80810547,-79.73976000
15.83862305,-78.13880000
15.86914063,-76.88097000
15.89965820,-76.90428000
15.93017578,-78.71804000
15.96069336,-82.50919000
15.99121094,-88.58099000
16.02172852,-98.64752000
16.05224609,-88.39028000
16.08276367,-82.35616000
16.11328125,-79.55327000
16.14379883,-78.34681000
16.17431641,-78.03730000
16.20483398,-78.69787000
16.23535156,-80.93788000
16.26586914,-86.04410000
16.29638672,-104.55480000
16.32690430,-89.46487000
16.35742188,-83.90620000
16.38793945,-81.41046000
16.41845703,-80.31747000
16.44897461,-80.78491000
16.47949219,-82.84711000
16.51000977,-83.43367000
16.54052734,-81.50531000
16.57104492,-80.58964000
16.60156250,-80.98244000
16.63208008,-82.35549000
16.66259766,-85.40538000
16.69311523,-94.71068000
16.72363281,-89.42147000
16.75415039,-82.22444000
16.78466797,-79.88774000
16.81518555,-79.68597000
16.84570313,-80.39449000
16.87622070,-81.50959000
16.90673828,-83.24261000
16.93725586,-85.18082000
16.96777344,-85.35582000
16.99829102,-84.05242000
17.02880859,-82.91669000
17.05932617,-82.54890000
17.08984375,-83.16486000
17.12036133,-84.74059000
17.15087891,-87.00919000
17.18139648,-88.82262000
17.21191406,-87.40365000
17.24243164,-83.99699000
17.27294922,-81.75991000
17.30346680,-81.34659000
17.33398438,-82.73718000
17.36450195,-85.91842000
17.39501953,-90.14326000
17.42553711,-90.10938000
17.45605469,-86.19701000
17.48657227,-83.94350000
17.51708984,-83.44228000
17.54760742,-83.40979000
17.57812500,-83.39847000
17.60864258,-83.97546000
17.63916016,-84.67312000
17.66967773,-84.65705000
17.70019531,-84.45729000
17.73071289,-82.15326000
17.76123047,-77.23405000
17.79174805,-73.77973000
17.82226563,-72.90504000
17.85278320,-74.69141000
17.88330078,-79.07053000
17.91381836,-85.73947000
17.94433594,-92.07027000
17.97485352,-94.74136000
18.00537109,-94.07098000
18.03588867,-90.17455000
18.06640625,-88.92401000
18.09692383,-89.21059000
18.12744141,-90.13170000
18.15795898,-91.95786000
18.18847656,-91.66753000
18.21899414,-89.08778000
18.24951172,-87.78297000
18.28002930,-87.52069000
18.31054688,-87.99960000
18.34106445,-90.56911000
18.37158203,-100.23380000
18.40209961,-99.13812000
18.43261719,-92.93979000
18.46313477,-90.06525000
18.49365234,-87.45597000
18.52416992,-86.87504000
18.55468750,-88.43550000
18.58520508,-91.36642000
18.61572266,-91.85277000
18.64624023,-89.08792000
18.67675781,-87.64732000
18.70727539,-88.37741000
18.73779297,-90.99982000
18.76831055,-94.21144000
18.79882813,-96.29515000
18.82934570,-96.17065000
18.85986328,-93.07853000
18.89038086,-90.03453000
18.92089844,-88.06718000
18.95141602,-87.26804000
18.98193359,-87.89063000
19.01245117,-90.36949000
19.04296875,-95.44540000
19.07348633,-101.92990000
19.10400391,-101.37800000
19.13452148,-103.59990000
19.16503906,-107.69650000
19.19555664,-98.45938000
19.22607422,-95.48401000
19.25659180,-96.56000000
19.28710938,-103.94300000
19.31762695,-98.87648000
19.34814453,-93.82115000
19.37866211,-94.89571000
19.40917969,-102.92570000
19.43969727,-99.97186000
19.47021484,-94.97308000
19.50073242,-94.30861000
19.53125000,-94.31581000
19.56176758,-92.13271000
19.59228516,-90.87058000
19.62280273,-91.78618000
19.65332031,-94.64265000
19.68383789,-100.65540000
19.71435547,-98.25325000
19.74487305,-91.96701000
19.77539063,-88.52929000
19.80590820,-86.32718000
19.83642578,-85.62549000
19.86694336,-87.22157000
19.89746094,-92.30653000
19.92797852,-107.47340000
19.95849609,-95.32687000
19.98901367,-91.68146000
20.01953125,-93.31561000
20.05004883,-100.96660000
20.08056641,-93.38336000
20.11108398,-90.09473000
20.14160156,-91.73509000
20.17211914,-93.03458000
20.20263672,-88.25248000
20.23315430,-85.96917000
20.26367188,-87.23240000
20.29418945,-93.67409000
20.32470703,-109.13300000
20.35522461,-95.25534000
20.38574219,-91.76079000
20.41625977,-88.35234000
20.44677734,-85.97652000
20.47729492,-85.52631000
20.50781250,-87.52933000
20.53833008,-91.92883000
20.56884766,-93.16763000
20.59936523,-90.63450000
20.62988281,-89.88774000
20.66040039,-91.95712000
20.69091797,-102.54200000
20.72143555,-95.09737000
20.75195313,-87.88565000
20.78247070,-85.71655000
20.81298828,-85.93887000
20.84350586,-87.62889000
20.87402344,-89.45039000
20.90454102,-88.15335000
20.93505859,-85.92411000
20.96557617,-85.09666000
20.99609375,-85.01183000
21.02661133,-85.17517000
21.05712891,-86.38905000
21.08764648,-88.84880000
21.11816406,-90.64236000
21.14868164,-91.15833000
21.17919922,-92.13150000
21.20971680,-90.92048000
21.24023438,-87.64989000
21.27075195,-85.99475000
21.30126953,-86.66116000
21.33178711,-89.23920000
21.36230469,-89.69872000
21.39282227,-86.53553000
21.42333984,-84.13453000
21.45385742,-83.26432000
21.48437500,-83.82309000
21.51489258,-84.84416000
21.54541016,-84.99373000
21.57592773,-85.57983000
21.60644531,-88.27717000
21.63696289,-91.25574000
21.66748047,-88.91978000
21.69799805,-86.80263000
21.72851563,-86.37447000
21.75903320,-86.78122000
21.78955078,-86.75098000
21.82006836,-86.22471000
21.85058594,-86.82533000
21.88110352,-89.80211000
21.91162109,-96.59148000
21.94213867,-105.71760000
21.97265625,-97.29520000
22.00317383,-92.47742000
22.03369141,-90.18623000
22.06420898,-89.97402000
22.09472656,-90.09384000
22.12524414,-88.42407000
22.15576172,-86.60321000
22.18627930,-85.51186000
22.21679688,-85.20593000
22.24731445,-86.70109000
22.27783203,-92.05255000
22.30834961,-101.08530000
22.33886719,-92.69987000
22.36938477,-91.15231000
22.39990234,-90.21751000
22.43041992,-86.79594000
22.46093750,-84.73576000
22.49145508,-84.79736000
22.52197266,-86.28254000
22.55249023,-88.40968000
22.58300781,-91.85168000
22.61352539,-100.69950000
22.64404297,-98.09041000
22.67456055,-91.83046000
22.70507813,-90.17451000
22.73559570,-89.66772000
22.76611328,-88.54020000
22.79663086,-87.57919000
22.82714844,-87.98721000
22.85766602,-89.81238000
22.88818359,-92.41861000
22.91870117,-98.25760000
22.94921875,-103.37680000
22.97973633,-91.09299000
23.01025391,-87.58789000
23.04077148,-87.78184000
23.07128906,-90.97578000
23.10180664,-91.98827000
23.13232422,-89.72414000
23.16284180,-89.98650000
23.19335938,-92.09830000
23.22387695,-92.62199000
23.25439453,-90.80327000
23.28491211,-89.91484000
23.31542969,-91.92661000
23.34594727,-99.73817000
23.37646484,-95.34634000
23.40698242,-90.25871000
23.43750000,-90.38985000
23.46801758,-96.13660000
23.49853516,-97.00804000
23.52905273,-90.27396000
23.55957031,-89.01517000
23.59008789,-90.24925000
23.62060547,-90.57800000
23.65112305,-90.40118000
23.68164063,-93.31288000
23.71215820,-97.77116000
23.74267578,-91.85745000
23.77319336,-89.59563000
23.80371094,-88.86276000
23.83422852,-88.03238000
23.86474609,-89.88776000
23.89526367,-100.26840000
23.92578125,-95.07944000
23.95629883,-89.06303000
23.98681641,-88.07117000
24.01733398,-89.15353000
24.04785156,-90.76186000
24.07836914,-91.31085000
24.10888672,-90.55159000
24.13940430,-90.61217000
24.16992188,-93.29461000
24.20043945,-98.89598000
24.23095703,-97.62555000
24.26147461,-94.62028000
24.29199219,-93.65741000
24.32250977,-92.37157000
24.35302734,-90.70808000
24.38354492,-90.46936000
24.41406250,-92.29462000
24.44458008,-97.08394000
24.47509766,-104.45960000
24.50561523,-96.44069000
24.53613281,-91.72482000
24.56665039,-89.17868000
24.59716797,-88.31839000
24.62768555,-89.53274000
24.65820313,-93.09570000
24.68872070,-95.07780000
24.71923828,-92.34290000
24.74975586,-90.50370000
24.78027344,-90.03685000
24.81079102,-90.82397000
24.84130859,-92.68156000
24.87182617,-95.19950000
24.90234375,-93.68098000
24.93286133,-88.75145000
24.96337891,-86.19747000
24.99389648,-85.81004000
25.02441406,-86.11629000
25.05493164,-85.97493000
25.08544922,-86.23337000
25.11596680,-87.45462000
25.14648438,-88.56300000
25.17700195,-88.10449000
25.20751953,-87.22740000
25.23803711,-87.55064000
25.26855469,-89.34695000
25.29907227,-91.33111000
25.32958984,-90.06142000
25.36010742,-86.31611000
25.39062500,-83.97320000
25.42114258,-83.86110000
25.45166016,-85.91903000
25.48217773,-90.03303000
25.51269531,-94.59786000
25.54321289,-93.24776000
25.57373047,-90.68658000
25.60424805,-89.67215000
25.63476563,-89.87263000
25.66528320,-91.06407000
25.69580078,-92.12185000
25.72631836,-91.90644000
25.75683594,-92.58569000
25.78735352,-96.57587000
25.81787109,-104.08780000
25.84838867,-97.62660000
25.87890625,-96.16142000
25.90942383,-102.10280000
25.93994141,-100.31180000
25.97045898,-91.01691000
26.00097656,-87.48657000
26.03149414,-86.70830000
26.06201172,-88.14543000
26.09252930,-91.83318000
26.12304688,-98.20108000
26.15356445,-103.61660000
26.18408203,-98.40572000
26.21459961,-93.94264000
26.24511719,-90.75885000
26.27563477,-88.79586000
26.30615234,-88.27186000
26.33666992,-89.38426000
26.36718750,-91.56239000
26.39770508,-92.08546000
26.42822266,-91.71291000
26.45874023,-94.25750000
26.48925781,-101.22180000
26.51977539,-95.46362000
26.55029297,-91.04597000
26.58081055,-89.71393000
26.61132813,-89.90202000
26.64184570,-89.80554000
26.67236328,-89.10603000
26.70288086,-89.81734000
26.73339844,-93.09508000
26.76391602,-100.85770000
26.79443359,-103.53650000
26.82495117,-93.11610000
26.85546875,-89.13342000
26.88598633,-87.75320000
26.91650391,-87.70344000
26.94702148,-87.82798000
26.97753906,-88.21652000
27.00805664,-90.21291000
27.03857422,-95.08868000
27.06909180,-98.93353000
27.09960938,-94.89911000
27.13012695,-92.80254000
27.16064453,-92.58253000
27.19116211,-93.70136000
27.22167969,-94.41367000
27.25219727,-92.95090000
27.28271484,-92.04463000
27.31323242,-92.50637000
27.34375000,-91.82298000
27.37426758,-89.75033000
27.40478516,-88.61584000
27.43530273,-88.96761000
27.46582031,-90.61479000
27.49633789,-91.37711000
27.52685547,-89.49065000
27.55737305,-88.57853000
27.58789063,-89.74968000
27.61840820,-92.86622000
27.64892578,-96.94815000
27.67944336,-92.67143000
27.70996094,-89.17794000
27.74047852,-89.62004000
27.77099609,-94.60603000
27.80151367,-96.36402000
27.83203125,-90.79227000
27.86254883,-88.91464000
27.89306641,-89.06739000
27.92358398,-89.99870000
27.95410156,-90.94722000
27.98461914,-93.22552000
28.01513672,-100.61440000
28.04565430,-104.25680000
28.07617188,-96.78024000
28.10668945,-95.59329000
28.13720703,-96.90139000
28.16772461,-101.43020000
28.19824219,-109.90370000
28.22875977,-98.79571000
28.25927734,-95.27409000
28.28979492,-94.26646000
28.32031250,-93.12918000
28.35083008,-92.21736000
28.38134766,-93.45384000
28.41186523,-99.73789000
28.44238281,-106.79500000
28.47290039,-96.14452000
28.50341797,-95.37251000
28.53393555,-101.55530000
28.56445313,-105.17870000
28.59497070,-95.56349000
28.62548828,-94.97006000
28.65600586,-101.34760000
28.68652344,-103.59050000
28.71704102,-98.30499000
28.74755859,-98.37672000
28.77807617,-98.38654000
28.80859375,-96.83617000
28.83911133,-94.76880000
28.86962891,-92.14072000
28.90014648,-90.00001000
28.93066406,-89.09691000
28.96118164,-88.93675000
28.99169922,-88.94280000
29.02221680,-89.77849000
29.05273438,-92.61326000
29.08325195,-97.39424000
29.11376953,-97.27484000
29.14428711,-95.33282000
29.17480469,-96.25990000
29.20532227,-99.28959000
29.23583984,-101.22540000
29.26635742,-104.06220000
29.29687500,-106.15510000
29.32739258,-104.58570000
29.35791016,-105.00800000
29.38842773,-100.26500000
29.41894531,-99.64879000
29.44946289,-105.18910000
29.47998047,-109.07900000
29.51049805,-100.88340000
29.54101563,-93.87806000
29.57153320,-90.88197000
29.60205078,-91.68076000
29.63256836,-97.02608000
29.66308594,-105.94550000
29.69360352,-98.56421000
29.72412109,-95.58170000
29.75463867,-93.95850000
29.78515625,-92.90099000
29.81567383,-92.23776000
29.84619141,-91.98284000
29.87670898,-92.55520000
29.90722656,-95.13653000
29.93774414,-104.75400000
29.96826172,-101.67400000
29.99877930,-94.84331000
30.02929688,-93.53888000
30.05981445,-93.98051000
30.09033203,-95.08743000
30.12084961,-97.33578000
30.15136719,-102.07470000
30.18188477,-108.15020000
30.21240234,-108.90230000
30.24291992,-108.01030000
30.27343750,-95.63860000
30.30395508,-91.41165000
30.33447266,-91.13178000
30.36499023,-93.99468000
30.39550781,-101.12080000
30.42602539,-102.88770000
30.45654297,-94.24602000
30.48706055,-91.30368000
30.51757813,-91.29825000
30.54809570,-93.22075000
30.57861328,-95.64597000
30.60913086,-96.27489000
30.63964844,-94.78539000
30.67016602,-93.49258000
30.70068359,-94.00002000
30.73120117,-96.33357000
30.76171875,-100.05790000
30.79223633,-104.61470000
30.82275391,-97.24323000
30.85327148,-92.99814000
30.88378906,-92.06862000
30.91430664,-92.89842000
30.94482422,-93.37917000
30.97534180,-93.02080000
31.00585938,-94.16103000
31.03637695,-98.60172000
31.06689453,-101.68000000
31.09741211,-98.00587000
31.12792969,-96.36243000
31.15844727,-94.88717000
31.18896484,-92.28235000
31.21948242,-89.45255000
31.25000000,-87.55421000
31.28051758,-87.20276000
31.31103516,-88.86559000
31.34155273,-93.18399000
31.37207031,-102.93150000
31.40258789,-102.90750000
31.43310547,-93.38571000
31.46362305,-90.13497000
31.49414063,-89.75339000
31.52465820,-91.43225000
31.55517578,-95.22121000
31.58569336,-103.31570000
31.61621094,-100.33870000
31.64672852,-93.72025000
31.67724609,-91.23277000
31.70776367,-90.92041000
31.73828125,-91.99398000
31.76879883,-94.05717000
31.79931641,-96.10919000
31.82983398,-97.66949000
31.86035156,-101.06330000
31.89086914,-98.90666000
31.92138672,-93.34564000
31.95190430,-90.82242000
31.98242188,-90.96283000
32.01293945,-93.78616000
32.04345703,-96.93164000
32.07397461,-95.03854000
32.10449219,-94.29787000
32.13500977,-96.31445000
32.16552734,-99.26929000
32.19604492,-97.95973000
32.22656250,-93.00398000
32.25708008,-89.43666000
32.28759766,-88.68948000
32.31811523,-90.75111000
32.34863281,-95.21211000
32.37915039,-101.72390000
32.40966797,-106.24480000
32.44018555,-101.10030000
32.47070313,-96.92008000
32.50122070,-95.54737000
32.53173828,-97.33437000
32.56225586,-102.43640000
32.59277344,-105.26820000
32.62329102,-99.75162000
32.65380859,-96.15775000
32.68432617,-95.27074000
32.71484375,-97.69138000
32.74536133,-106.19460000
32.77587891,-112.19230000
32.80639648,-103.84770000
32.83691406,-103.26870000
32.86743164,-110.66050000
32.89794922,-106.41090000
32.92846680,-100.79080000
32.95898438,-98.94359000
32.98950195,-95.75408000
33.02001953,-93.77969000
33.05053711,-94.18111000
33.08105469,-96.50433000
33.11157227,-98.43482000
33.14208984,-98.37854000
33.17260742,-99.70383000
33.20312500,-103.97340000
33.23364258,-108.63330000
33.26416016,-106.14360000
33.29467773,-100.86830000
33.32519531,-97.32421000
33.35571289,-96.40482000
33.38623047,-98.38673000
33.41674805,-102.12230000
33.44726563,-101.80810000
33.47778320,-102.12260000
33.50830078,-100.74680000
33.53881836,-97.37962000
33.56933594,-97.16129000
33.59985352,-99.75781000
33.63037109,-98.93463000
33.66088867,-94.65706000
33.69140625,-92.99721000
33.72192383,-94.09546000
33.75244141,-96.76950000
33.78295898,-97.34641000
33.81347656,-97.05498000
33.84399414,-98.03771000
33.87451172,-99.69169000
33.90502930,-101.18080000
33.93554688,-100.49390000
33.96606445,-98.66377000
33.99658203,-99.23199000
34.02709961,-101.35190000
34.05761719,-101.02870000
34.08813477,-99.89318000
34.11865234,-98.13236000
34.14916992,-97.04536000
34.17968750,-97.13768000
34.21020508,-96.59125000
34.24072266,-95.50643000
34.27124023,-96.56624000
34.30175781,-101.13790000
34.33227539,-102.96260000
34.36279297,-100.34240000
34.39331055,-97.92286000
34.42382813,-96.38411000
34.45434570,-97.40179000
34.48486328,-96.99905000
34.51538086,-95.39238000
34.54589844,-96.48618000
34.57641602,-100.15440000
34.60693359,-104.71820000
34.63745117,-109.88110000
34.66796875,-118.79210000
34.69848633,-103.70850000
34.72900391,-99.53986000
34.75952148,-99.90466000
34.79003906,-104.39780000
34.82055664,-110.57770000
34.85107422,-103.62260000
34.88159180,-99.61170000
34.91210938,-98.53779000
34.94262695,-98.90939000
34.97314453,-98.20453000
35.00366211,-96.71561000
35.03417969,-96.81000000
35.06469727,-99.46089000
35.09521484,-104.41620000
35.12573242,-101.34360000
35.15625000,-94.61223000
35.18676758,-91.34549000
35.21728516,-91.34348000
35.24780273,-94.67683000
35.27832031,-101.08270000
35.30883789,-104.61990000
35.33935547,-105.90770000
35.36987305,-105.25660000
35.40039063,-104.85520000
35.43090820,-105.04740000
35.46142578,-101.31580000
35.49194336,-98.65276000
35.52246094,-98.58451000
35.55297852,-100.59210000
35.58349609,-101.66330000
35.61401367,-98.68980000
35.64453125,-96.23853000
35.67504883,-96.12954000
35.70556641,-99.47983000
35.73608398,-116.04700000
35.76660156,-101.89680000
35.79711914,-97.42715000
35.82763672,-98.65274000
35.85815430,-105.92190000
35.88867188,-101.77910000
35.91918945,-97.02361000
35.94970703,-95.87703000
35.98022461,-96.76923000
36.01074219,-99.86726000
36.04125977,-108.02000000
36.07177734,-110.42530000
36.10229492,-100.49200000
36.13281250,-97.40778000
36.16333008,-98.67158000
36.19384766,-110.88690000
36.22436523,-98.11102000
36.25488281,-92.60693000
36.28540039,-91.67098000
36.31591797,-93.55104000
36.34643555,-98.24908000
36.37695313,-108.14590000
36.40747070,-99.86131000
36.43798828,-94.97604000
36.46850586,-94.11998000
36.49902344,-95.78980000
36.52954102,-95.64866000
36.56005859,-92.58589000
36.59057617,-91.23360000
36.62109375,-92.20295000
36.65161133,-95.05162000
36.68212891,-98.74810000
36.71264648,-103.03220000
36.74316406,-110.26270000
36.77368164,-141.85280000
36.80419922,-110.18670000
36.83471680,-101.83370000
36.86523438,-96.94281000
36.89575195,-94.66015000
36.92626953,-94.82990000
36.95678711,-97.58525000
36.98730469,-103.24000000
37.01782227,-110.73060000
37.04833984,-118.90130000
37.07885742,-104.95220000
37.10937500,-98.21916000
37.13989258,-96.04584000
37.17041016,-97.63634000
37.20092773,-101.73730000
37.23144531,-96.36262000
37.26196289,-92.55769000
37.29248047,-92.60571000
37.32299805,-96.61423000
37.35351563,-107.91210000
37.38403320,-107.27010000
37.41455078,-99.84474000
37.44506836,-96.44460000
37.47558594,-94.12526000
37.50610352,-92.68111000
37.53662109,-92.27104000
37.56713867,-92.46490000
37.59765625,-92.74277000
37.62817383,-93.03193000
37.65869141,-93.92007000
37.68920898,-95.75745000
37.71972656,-98.42535000
37.75024414,-103.76640000
37.78076172,-106.33060000
37.81127930,-97.81346000
37.84179688,-94.73426000
37.87231445,-94.90369000
37.90283203,-98.76717000
37.93334961,-102.63350000
37.96386719,-95.65323000
37.99438477,-92.93082000
38.02490234,-92.69594000
38.05541992,-92.96022000
38.08593750,-92.79082000
38.11645508,-93.19444000
38.14697266,-95.71210000
38.17749023,-100.63410000
38.20800781,-101.80670000
38.23852539,-99.72009000
38.26904297,-97.62393000
38.29956055,-95.77335000
38.33007813,-95.49712000
38.36059570,-98.16238000
38.39111328,-101.48380000
38.42163086,-95.57474000
38.45214844,-91.22658000
38.48266602,-88.81608000
38.51318359,-87.71227000
38.54370117,-87.83485000
38.57421875,-89.11452000
38.60473633,-91.35261000
38.63525391,-94.38312000
38.66577148,-97.38773000
38.69628906,-98.42184000
38.72680664,-95.04153000
38.75732422,-91.64250000
38.78784180,-90.16685000
38.81835938,-90.37217000
38.84887695,-92.83431000
38.87939453,-102.06120000
38.90991211,-99.23380000
38.94042969,-91.98058000
38.97094727,-90.83020000
39.00146484,-92.82546000
39.03198242,-96.56455000
39.06250000,-96.06369000
39.09301758,-93.05724000
39.12353516,-92.65999000
39.15405273,-95.27634000
39.18457031,-99.77620000
39.21508789,-100.15820000
39.24560547,-96.96072000
39.27612305,-94.26625000
39.30664063,-94.14880000
39.33715820,-97.94656000
39.36767578,-99.11399000
39.39819336,-93.04190000
39.42871094,-90.33722000
39.45922852,-89.65000000
39.48974609,-90.28390000
39.52026367,-92.74808000
39.55078125,-97.06367000
39.58129883,-91.62436000
39.61181641,-86.74335000
39.64233398,-84.91032000
39.67285156,-85.14122000
39.70336914,-86.72550000
39.73388672,-88.89499000
39.76440430,-90.42018000
39.79492188,-89.93480000
39.82543945,-88.03505000
39.85595703,-86.86581000
39.88647461,-87.95704000
39.91699219,-92.95300000
39.94750977,-106.61120000
39.97802734,-94.51756000
40.00854492,-91.72488000
40.03906250,-92.33382000
40.06958008,-93.96251000
40.10009766,-93.48494000
40.13061523,-91.12785000
40.16113281,-90.23064000
40.19165039,-92.72986000
40.22216797,-100.88620000
40.25268555,-95.03531000
40.28320313,-91.28078000
40.31372070,-91.77898000
40.34423828,-95.39429000
40.37475586,-101.72390000
40.40527344,-109.72260000
40.43579102,-106.34860000
40.46630859,-101.94290000
40.49682617,-101.93910000
40.52734375,-105.11900000
40.55786133,-108.46400000
40.58837891,-111.72630000
40.61889648,-109.44310000
40.64941406,-97.02980000
40.67993164,-93.04328000
40.71044922,-92.94975000
40.74096680,-94.01294000
40.77148438,-93.86868000
40.80200195,-94.04709000
40.83251953,-94.62219000
40.86303711,-94.58647000
40.89355469,-95.49264000
40.92407227,-96.41824000
40.95458984,-94.60105000
40.98510742,-93.42310000
41.01562500,-92.19883000
41.04614258,-89.19175000
41.07666016,-87.15169000
41.10717773,-87.35614000
41.13769531,-89.73085000
41.16821289,-92.27803000
41.19873047,-90.83835000
41.22924805,-89.48799000
41.25976563,-90.56818000
41.29028320,-94.94193000
41.32080078,-100.99580000
41.35131836,-93.78305000
41.38183594,-90.36475000
41.41235352,-90.09590000
41.44287109,-91.64659000
41.47338867,-92.47189000
41.50390625,-91.67312000
41.53442383,-91.03766000
41.56494141,-90.70438000
41.59545898,-90.90816000
41.62597656,-91.90993000
41.65649414,-92.99220000
41.68701172,-93.43346000
41.71752930,-94.10504000
41.74804688,-95.81993000
41.77856445,-94.74391000
41.80908203,-91.73357000
41.83959961,-91.02764000
41.87011719,-93.05945000
41.90063477,-96.09430000
41.93115234,-91.66283000
41.96166992,-88.70232000
41.99218750,-90.07552000
42.02270508,-96.83490000
42.05322266,-115.96530000
42.08374023,-99.91168000
42.11425781,-90.98290000
42.14477539,-87.54549000
42.17529297,-87.19881000
42.20581055,-89.69807000
42.23632813,-98.83595000
42.26684570,-96.28291000
42.29736328,-88.70311000
42.32788086,-86.43213000
42.35839844,-85.83954000
42.38891602,-86.05431000
42.41943359,-87.30035000
42.44995117,-87.97394000
42.48046875,-86.23925000
42.51098633,-85.16205000
42.54150391,-86.04883000
42.57202148,-89.04164000
42.60253906,-93.98666000
42.63305664,-103.29220000
42.66357422,-99.69548000
42.69409180,-92.71706000
42.72460938,-90.99339000
42.75512695,-91.53710000
42.78564453,-91.80055000
42.81616211,-91.04561000
42.84667969,-91.70705000
42.87719727,-95.60429000
42.90771484,-104.87090000
42.93823242,-101.58360000
42.96875000,-100.81940000
42.99926758,-113.25210000
43.02978516,-96.52447000
43.06030273,-90.86304000
43.09082031,-88.94252000
43.12133789,-89.24710000
43.15185547,-91.46516000
43.18237305,-95.71227000
43.21289063,-100.02890000
43.24340820,-96.66838000
43.27392578,-93.10027000
43.30444336,-91.80820000
43.33496094,-92.60300000
43.36547852,-95.50832000
43.39599609,-97.02722000
43.42651367,-93.07839000
43.45703125,-89.91595000
43.48754883,-87.84360000
43.51806641,-86.56150000
43.54858398,-85.60025000
43.57910156,-83.99810000
43.60961914,-83.00908000
43.64013672,-84.09795000
43.67065430,-87.65804000
43.70117188,-93.64228000
43.73168945,-100.11990000
43.76220703,-101.24480000
43.79272461,-100.23090000
43.82324219,-99.75150000
43.85375977,-99.73146000
43.88427734,-101.75350000
43.91479492,-106.69150000
43.94531250,-94.72734000
43.97583008,-91.31072000
44.00634766,-91.81564000
44.03686523,-92.49207000
44.06738281,-90.95317000
44.09790039,-90.18866000
44.12841797,-91.00146000
44.15893555,-93.33429000
44.18945313,-98.45631000
44.21997070,-98.98302000
44.25048828,-92.26826000
44.28100586,-89.76617000
44.31152344,-90.08899000
44.34204102,-92.28596000
44.37255859,-94.20353000
44.40307617,-92.79687000
44.43359375,-90.04075000
44.46411133,-88.49582000
44.49462891,-89.16431000
44.52514648,-93.12627000
44.55566406,-96.93048000
44.58618164,-91.31779000
44.61669922,-88.69033000
44.64721680,-89.07973000
44.67773438,-92.95244000
44.70825195,-102.37780000
44.73876953,-97.30752000
44.76928711,-95.62020000
44.79980469,-97.75994000
44.83032227,-95.98239000
44.86083984,-92.52212000
44.89135742,-89.69842000
44.92187500,-88.05763000
44.95239258,-88.23700000
44.98291016,-90.48042000
45.01342773,-95.06483000
45.04394531,-100.19550000
45.07446289,-104.26010000
45.10498047,-112.11000000
45.13549805,-102.07180000
45.16601563,-97.67902000
45.19653320,-94.56448000
45.22705078,-92.03950000
45.25756836,-91.27186000
45.28808594,-93.20135000
45.31860352,-98.38046000
45.34912109,-104.44050000
45.37963867,-107.95880000
45.41015625,-116.61770000
45.44067383,-104.30580000
45.47119141,-97.97534000
45.50170898,-95.71964000
45.53222656,-94.95308000
45.56274414,-94.76859000
45.59326172,-96.08292000
45.62377930,-98.38077000
45.65429688,-99.42763000
45.68481445,-96.92783000
45.71533203,-91.85664000
45.74584961,-89.13398000
45.77636719,-89.62672000
45.80688477,-92.50108000
45.83740234,-93.15281000
45.86791992,-94.64517000
45.89843750,-99.47797000
45.92895508,-94.36618000
45.95947266,-92.65331000
45.98999023,-93.29216000
46.02050781,-94.19395000
46.05102539,-95.05311000
46.08154297,-92.19919000
46.11206055,-89.61893000
46.14257813,-89.24463000
46.17309570,-90.94238000
46.20361328,-93.46022000
46.23413086,-92.74970000
46.26464844,-92.54836000
46.29516602,-95.84118000
46.32568359,-100.73360000
46.35620117,-102.37710000
46.38671875,-113.75460000
46.41723633,-99.77497000
46.44775391,-93.63936000
46.47827148,-92.32937000
46.50878906,-94.24030000
46.53930664,-98.10967000
46.56982422,-99.45602000
46.60034180,-95.48309000
46.63085938,-92.21928000
46.66137695,-91.29075000
46.69189453,-92.36085000
46.72241211,-94.86861000
46.75292969,-96.12901000
46.78344727,-92.83553000
46.81396484,-89.87628000
46.84448242,-89.07224000
46.87500000,-90.26018000
46.90551758,-92.28115000
46.93603516,-93.68523000
46.96655273,-95.35066000
46.99707031,-98.19469000
47.02758789,-100.57070000
47.05810547,-104.27520000
47.08862305,-102.57410000
47.11914063,-97.04350000
47.14965820,-98.54893000
47.18017578,-109.37240000
47.21069336,-101.49910000
47.24121094,-97.69153000
47.27172852,-94.41499000
47.30224609,-92.68024000
47.33276367,-94.94183000
47.36328125,-107.43280000
47.39379883,-98.31535000
47.42431641,-95.43018000
47.45483398,-100.32610000
47.48535156,-106.87990000
47.51586914,-96.74774000
47.54638672,-95.79889000
47.57690430,-97.65301000
47.60742188,-95.33089000
47.63793945,-91.90952000
47.66845703,-90.54664000
47.69897461,-90.90519000
47.72949219,-92.60464000
47.76000977,-94.45253000
47.79052734,-94.52183000
47.82104492,-94.29533000
47.85156250,-95.79339000
47.88208008,-101.06270000
47.91259766,-112.29400000
47.94311523,-112.17830000
47.97363281,-101.33520000
48.00415039,-95.15237000
48.03466797,-93.03632000
48.06518555,-92.57951000
48.09570313,-92.39589000
48.12622070,-91.62606000
48.15673828,-90.80435000
48.18725586,-90.68122000
48.21777344,-90.75603000
48.24829102,-90.70098000
48.27880859,-90.97626000
48.30932617,-91.87058000
48.33984375,-93.20569000
48.37036133,-94.16589000
48.40087891,-95.24864000
48.43139648,-99.34799000
48.46191406,-112.07080000
48.49243164,-98.52608000
48.52294922,-94.43790000
48.55346680,-93.83087000
48.58398438,-94.99747000
48.61450195,-96.54659000
48.64501953,-98.47147000
48.67553711,-102.20620000
48.70605469,-100.44040000
48.73657227,-95.24571000
48.76708984,-92.22004000
48.79760742,-91.47481000
48.82812500,-94.34971000
48.85864258,-99.46954000
48.88916016,-94.33083000
48.91967773,-92.98270000
48.95019531,-94.59466000
48.98071289,-96.12639000
49.01123047,-96.91006000
49.04174805,-97.49108000
49.07226563,-97.96318000
49.10278320,-98.31898000
49.13330078,-96.97762000
49.16381836,-93.72597000
49.19433594,-91.30302000
49.22485352,-90.90265000
49.25537109,-92.14639000
49.28588867,-93.19788000
49.31640625,-92.43533000
49.34692383,-91.45383000
49.37744141,-92.25800000
49.40795898,-95.91415000
49.43847656,-104.08770000
49.46899414,-111.92600000
49.49951172,-104.52560000
49.53002930,-100.22890000
49.56054688,-96.27553000
49.59106445,-93.81356000
49.62158203,-94.67642000
49.65209961,-97.72541000
49.68261719,-94.84779000
49.71313477,-92.41599000
49.74365234,-92.44568000
49.77416992,-94.32765000
49.80468750,-96.79033000
49.83520508,-96.90388000
49.86572266,-96.27461000
49.89624023,-96.65831000
49.92675781,-97.93732000
49.95727539,-101.30750000
49.98779297,-104.11160000
50.01831055,-96.83639000
