Frequency,Channel A
(MHz),(dBu)

0.00000000,-27.58310000
0.03051758,-28.11429000
0.06103516,-34.02033000
0.09155273,-46.92002000
0.12207031,-55.55968000
0.15258789,-55.01563000
0.18310547,-57.66232000
0.21362305,-57.26905000
0.24414063,-57.02040000
0.27465820,-57.06629000
0.30517578,-57.07133000
0.33569336,-57.21313000
0.36621094,-57.24810000
0.39672852,-57.11609000
0.42724609,-57.62380000
0.45776367,-58.98505000
0.48828125,-60.55020000
0.51879883,-61.35688000
0.54931641,-59.84681000
0.57983398,-57.36652000
0.61035156,-55.49496000
0.64086914,-54.12294000
0.67138672,-53.39869000
0.70190430,-53.87461000
0.73242188,-55.49769000
0.76293945,-56.69304000
0.79345703,-56.32785000
0.82397461,-56.24828000
0.85449219,-57.49545000
0.88500977,-59.73685000
0.91552734,-61.68764000
0.94604492,-62.26033000
0.97656250,-61.98119000
1.00708008,-61.66454000
1.03759766,-62.13612000
1.06811523,-64.14263000
1.09863281,-66.41141000
1.12915039,-65.03139000
1.15966797,-62.78149000
1.19018555,-61.03214000
1.22070313,-59.45129000
1.25122070,-58.34711000
1.28173828,-58.10358000
1.31225586,-58.77655000
1.34277344,-60.11100000
1.37329102,-61.49929000
1.40380859,-62.38425000
1.43432617,-62.81931000
1.46484375,-62.97433000
1.49536133,-62.97013000
1.52587891,-63.28266000
1.55639648,-64.63069000
1.58691406,-67.21976000
1.61743164,-68.52098000
1.64794922,-66.42852000
1.67846680,-64.14896000
1.70898438,-62.78093000
1.73950195,-62.44869000
1.77001953,-62.93775000
1.80053711,-63.51084000
1.83105469,-63.39819000
1.86157227,-62.86842000
1.89208984,-62.55447000
1.92260742,-62.45704000
1.95312500,-62.18106000
1.98364258,-61.60709000
2.01416016,-61.17042000
2.04467773,-61.45786000
2.07519531,-62.70348000
2.10571289,-64.47379000
2.13623047,-65.71155000
2.16674805,-65.75294000
2.19726563,-65.02902000
2.22778320,-64.22595000
2.25830078,-63.70782000
2.28881836,-63.60374000
2.31933594,-63.83342000
2.34985352,-64.10611000
2.38037109,-64.18731000
2.41088867,-64.14938000
2.44140625,-64.16478000
2.47192383,-64.21615000
2.50244141,-64.21259000
2.53295898,-64.25050000
2.56347656,-64.52020000
2.59399414,-64.91500000
2.62451172,-64.85741000
2.65502930,-63.94376000
2.68554688,-62.65987000
2.71606445,-61.79697000
2.74658203,-61.71316000
2.77709961,-62.22130000
2.80761719,-62.84614000
2.83813477,-63.32314000
2.86865234,-63.65699000
2.89916992,-63.78185000
2.92968750,-63.67977000
2.96020508,-63.47081000
2.99072266,-63.09130000
3.02124023,-62.35482000
3.05175781,-61.41503000
3.08227539,-60.80711000
3.11279297,-61.06673000
3.14331055,-62.37637000
3.17382813,-64.43195000
3.20434570,-66.27229000
3.23486328,-66.46082000
3.26538086,-65.05992000
3.29589844,-63.33203000
3.32641602,-61.92743000
3.35693359,-60.99377000
3.38745117,-60.48705000
3.41796875,-60.28912000
3.44848633,-60.26083000
3.47900391,-60.26442000
3.50952148,-60.18470000
3.54003906,-59.97498000
3.57055664,-59.65815000
3.60107422,-59.27368000
3.63159180,-58.89304000
3.66210938,-58.64404000
3.69262695,-58.61320000
3.72314453,-58.76286000
3.75366211,-58.97215000
3.78417969,-59.10178000
3.81469727,-59.05949000
3.84521484,-58.83332000
3.87573242,-58.50477000
3.90625000,-58.22720000
3.93676758,-58.09306000
3.96728516,-58.10361000
3.99780273,-58.26002000
4.02832031,-58.54307000
4.05883789,-58.82272000
4.08935547,-58.91579000
4.11987305,-58.70264000
4.15039063,-58.19973000
4.18090820,-57.62180000
4.21142578,-57.26301000
4.24194336,-57.25809000
4.27246094,-57.48306000
4.30297852,-57.69488000
4.33349609,-57.80078000
4.36401367,-57.85195000
4.39453125,-57.81573000
4.42504883,-57.63117000
4.45556641,-57.42525000
4.48608398,-57.46048000
4.51660156,-57.89293000
4.54711914,-58.65428000
4.57763672,-59.51259000
4.60815430,-60.19482000
4.63867188,-60.52361000
4.66918945,-60.52160000
4.69970703,-60.36530000
4.73022461,-60.28200000
4.76074219,-60.45103000
4.79125977,-60.93634000
4.82177734,-61.70623000
4.85229492,-62.62078000
4.88281250,-63.31709000
4.91333008,-63.37195000
4.94384766,-62.83912000
4.97436523,-62.20528000
5.00488281,-61.87634000
5.03540039,-62.01213000
5.06591797,-62.60973000
5.09643555,-63.56686000
5.12695313,-64.70346000
5.15747070,-65.75220000
5.18798828,-66.38776000
5.21850586,-66.60879000
5.24902344,-66.61179000
5.27954102,-66.36041000
5.31005859,-66.28845000
5.34057617,-67.16155000
5.37109375,-69.44196000
5.40161133,-73.64251000
5.43212891,-81.75193000
5.46264648,-85.51327000
5.49316406,-78.89923000
5.52368164,-76.89619000
5.55419922,-74.91561000
5.58471680,-70.76768000
5.61523438,-66.56256000
5.64575195,-63.40385000
5.67626953,-61.28729000
5.70678711,-59.99153000
5.73730469,-59.26152000
5.76782227,-58.87337000
5.79833984,-58.60355000
5.82885742,-58.20900000
5.85937500,-57.59979000
5.88989258,-56.93613000
5.92041016,-56.46034000
5.95092773,-56.32802000
5.98144531,-56.56174000
6.01196289,-57.08767000
6.04248047,-57.75131000
6.07299805,-58.28704000
6.10351563,-58.43431000
6.13403320,-58.22337000
6.16455078,-57.96928000
6.19506836,-57.95950000
6.22558594,-58.35056000
6.25610352,-59.25394000
6.28662109,-60.67260000
6.31713867,-62.29794000
6.34765625,-63.54927000
6.37817383,-64.07940000
6.40869141,-64.12173000
6.43920898,-64.11949000
6.46972656,-64.34066000
6.50024414,-64.96693000
6.53076172,-66.19731000
6.56127930,-68.16533000
6.59179688,-70.91887000
6.62231445,-74.21794000
6.65283203,-76.07291000
6.68334961,-74.88180000
6.71386719,-73.62327000
6.74438477,-73.63490000
6.77490234,-74.70760000
6.80541992,-76.55262000
6.83593750,-79.63634000
6.86645508,-85.20784000
6.89697266,-95.53226000
6.92749023,-86.50402000
6.95800781,-81.21917000
6.98852539,-79.24717000
7.01904297,-78.80585000
7.04956055,-78.77578000
7.08007813,-79.27357000
7.11059570,-80.57796000
7.14111328,-82.03444000
7.17163086,-82.70717000
7.20214844,-82.22791000
7.23266602,-81.04094000
7.26318359,-79.56507000
7.29370117,-77.21960000
7.32421875,-75.00510000
7.35473633,-74.41544000
7.38525391,-75.79955000
7.41577148,-78.52206000
7.44628906,-80.85809000
7.47680664,-82.03950000
7.50732422,-82.43603000
7.53784180,-81.70060000
7.56835938,-80.26288000
7.59887695,-79.29175000
7.62939453,-79.18969000
7.65991211,-79.03181000
7.69042969,-78.24975000
7.72094727,-77.67866000
7.75146484,-77.44689000
7.78198242,-77.04449000
7.81250000,-76.44695000
7.84301758,-76.05550000
7.87353516,-75.92716000
7.90405273,-75.78233000
7.93457031,-75.63572000
7.96508789,-75.93202000
7.99560547,-76.93805000
8.02612305,-78.30199000
8.05664063,-79.18451000
8.08715820,-78.67287000
8.11767578,-77.19786000
8.14819336,-76.24884000
8.17871094,-76.08512000
8.20922852,-76.06906000
8.23974609,-76.18935000
8.27026367,-76.93024000
8.30078125,-77.98823000
8.33129883,-78.66357000
8.36181641,-79.12246000
8.39233398,-79.02818000
8.42285156,-78.46062000
8.45336914,-78.68485000
8.48388672,-79.37391000
8.51440430,-80.08908000
8.54492188,-82.36366000
8.57543945,-88.01204000
8.60595703,-102.63980000
8.63647461,-97.32492000
8.66699219,-91.51651000
8.69750977,-89.05033000
8.72802734,-88.86864000
8.75854492,-90.31070000
8.78906250,-91.93730000
8.81958008,-93.92403000
8.85009766,-105.37550000
8.88061523,-92.25918000
8.91113281,-85.07066000
8.94165039,-82.57260000
8.97216797,-82.60064000
9.00268555,-84.31001000
9.03320313,-87.24763000
9.06372070,-90.82230000
9.09423828,-91.74686000
9.12475586,-88.88656000
9.15527344,-84.14377000
9.18579102,-79.95773000
9.21630859,-77.75845000
9.24682617,-77.76346000
9.27734375,-80.14607000
9.30786133,-85.70129000
9.33837891,-97.57996000
9.36889648,-93.68561000
9.39941406,-90.28415000
9.42993164,-91.10680000
9.46044922,-90.17265000
9.49096680,-84.91014000
9.52148438,-82.10048000
9.55200195,-81.78708000
9.58251953,-83.84727000
9.61303711,-89.04401000
9.64355469,-91.21623000
9.67407227,-86.36234000
9.70458984,-84.55245000
9.73510742,-84.92031000
9.76562500,-87.02477000
9.79614258,-89.61559000
9.82666016,-88.82007000
9.85717773,-88.83071000
9.88769531,-87.59971000
9.91821289,-82.66776000
9.94873047,-80.97687000
9.97924805,-82.72559000
10.00976563,-86.48309000
10.04028320,-88.70869000
10.07080078,-92.82965000
10.10131836,-100.34060000
10.13183594,-86.50031000
10.16235352,-81.07166000
10.19287109,-78.48908000
10.22338867,-77.96204000
10.25390625,-78.62131000
10.28442383,-79.05720000
10.31494141,-78.53425000
10.34545898,-77.60007000
10.37597656,-77.01713000
10.40649414,-76.94463000
10.43701172,-76.60684000
10.46752930,-75.27470000
10.49804688,-73.55608000
10.52856445,-72.48032000
10.55908203,-72.59751000
10.58959961,-73.94815000
10.62011719,-76.28388000
10.65063477,-79.01873000
10.68115234,-80.10851000
10.71166992,-78.85529000
10.74218750,-78.02279000
10.77270508,-78.74041000
10.80322266,-81.39336000
10.83374023,-84.92767000
10.86425781,-85.84293000
10.89477539,-87.96352000
10.92529297,-95.50607000
10.95581055,-93.41393000
10.98632813,-82.54663000
11.01684570,-78.78348000
11.04736328,-78.90158000
11.07788086,-82.83093000
11.10839844,-89.18277000
11.13891602,-84.02543000
11.16943359,-80.57079000
11.19995117,-79.34298000
11.23046875,-79.58472000
11.26098633,-80.64436000
11.29150391,-81.54549000
11.32202148,-81.91766000
11.35253906,-81.06554000
11.38305664,-78.63511000
11.41357422,-76.13852000
11.44409180,-74.36331000
11.47460938,-73.50630000
11.50512695,-73.93079000
11.53564453,-76.41531000
11.56616211,-83.34644000
11.59667969,-94.07344000
11.62719727,-83.62292000
11.65771484,-84.59006000
11.68823242,-92.04581000
11.71875000,-88.30220000
11.74926758,-83.96289000
11.77978516,-81.88155000
11.81030273,-80.31253000
11.84082031,-79.89279000
11.87133789,-80.90775000
11.90185547,-81.27629000
11.93237305,-80.56882000
11.96289063,-80.81259000
11.99340820,-81.87394000
12.02392578,-81.74526000
12.05444336,-79.44187000
12.08496094,-77.06987000
12.11547852,-76.14448000
12.14599609,-76.64300000
12.17651367,-77.99316000
12.20703125,-80.41200000
12.23754883,-83.44398000
12.26806641,-83.42224000
12.29858398,-82.44872000
12.32910156,-79.59818000
12.35961914,-76.00570000
12.39013672,-74.24413000
12.42065430,-74.80946000
12.45117188,-78.61264000
12.48168945,-91.09012000
12.51220703,-85.82325000
12.54272461,-80.03436000
12.57324219,-77.59773000
12.60375977,-77.82792000
12.63427734,-80.78448000
12.66479492,-79.45897000
12.69531250,-76.35652000
12.72583008,-75.68107000
12.75634766,-75.36185000
12.78686523,-73.72780000
12.81738281,-72.66469000
12.84790039,-73.25858000
12.87841797,-75.19633000
12.90893555,-77.45305000
12.93945313,-79.13539000
12.96997070,-80.65243000
13.00048828,-82.64129000
13.03100586,-81.79834000
13.06152344,-78.50774000
13.09204102,-76.47225000
13.12255859,-75.81423000
13.15307617,-76.04368000
13.18359375,-77.03062000
13.21411133,-78.73380000
13.24462891,-79.55118000
13.27514648,-77.75298000
13.30566406,-75.56637000
13.33618164,-74.92904000
13.36669922,-76.17343000
13.39721680,-76.80321000
13.42773438,-75.07358000
13.45825195,-74.28622000
13.48876953,-72.05496000
13.51928711,-67.04440000
13.54980469,-64.09356000
13.58032227,-63.79614000
13.61083984,-65.57546000
13.64135742,-68.51878000
13.67187500,-71.89375000
13.70239258,-75.05094000
13.73291016,-77.08662000
13.76342773,-77.94160000
13.79394531,-78.03242000
13.82446289,-78.69211000
13.85498047,-80.63751000
13.88549805,-82.28830000
13.91601563,-82.90642000
13.94653320,-81.69740000
13.97705078,-79.63202000
14.00756836,-78.17196000
14.03808594,-77.08904000
14.06860352,-76.92030000
14.09912109,-79.15631000
14.12963867,-87.26451000
14.16015625,-89.37103000
14.19067383,-83.60312000
14.22119141,-85.60641000
14.25170898,-97.01418000
14.28222656,-89.49856000
14.31274414,-83.44611000
14.34326172,-81.47048000
14.37377930,-82.46135000
14.40429688,-87.65679000
14.43481445,-88.85631000
14.46533203,-83.73090000
14.49584961,-83.53721000
14.52636719,-85.85512000
14.55688477,-86.50845000
14.58740234,-83.72837000
14.61791992,-81.08437000
14.64843750,-80.33248000
14.67895508,-81.54694000
14.70947266,-84.26042000
14.73999023,-84.00308000
14.77050781,-79.54053000
14.80102539,-76.81648000
14.83154297,-76.55740000
14.86206055,-78.51882000
14.89257813,-80.75551000
14.92309570,-81.17632000
14.95361328,-83.50348000
14.98413086,-86.88440000
15.01464844,-84.86909000
15.04516602,-81.74287000
15.07568359,-78.61334000
15.10620117,-77.91263000
15.13671875,-79.49981000
15.16723633,-80.99554000
15.19775391,-82.78561000
15.22827148,-88.86116000
15.25878906,-90.03526000
15.28930664,-81.42124000
15.31982422,-74.80818000
15.35034180,-71.34631000
15.38085938,-70.96284000
15.41137695,-73.04053000
15.44189453,-75.40794000
15.47241211,-76.37814000
15.50292969,-77.90504000
15.53344727,-78.15747000
15.56396484,-75.80628000
15.59448242,-74.55067000
15.62500000,-75.37232000
15.65551758,-77.46432000
15.68603516,-78.75045000
15.71655273,-79.48058000
15.74707031,-81.49173000
15.77758789,-85.14571000
15.80810547,-88.60405000
15.83862305,-88.46748000
15.86914063,-84.69931000
15.89965820,-81.48804000
15.93017578,-79.82477000
15.96069336,-79.11829000
15.99121094,-79.53319000
16.02172852,-81.62698000
16.05224609,-84.83936000
16.08276367,-86.27774000
16.11328125,-84.78998000
16.14379883,-82.92931000
16.17431641,-82.71445000
16.20483398,-83.83612000
16.23535156,-83.39536000
16.26586914,-81.40938000
16.29638672,-80.02216000
16.32690430,-79.35706000
16.35742188,-78.94897000
16.38793945,-78.68840000
16.41845703,-78.86869000
16.44897461,-79.21134000
16.47949219,-78.92687000
16.51000977,-78.59140000
16.54052734,-79.24023000
16.57104492,-80.87312000
16.60156250,-82.18121000
16.63208008,-81.90460000
16.66259766,-81.07368000
16.69311523,-80.74930000
16.72363281,-81.27444000
16.75415039,-82.84744000
16.78466797,-84.78043000
16.81518555,-85.72676000
16.84570313,-86.47072000
16.87622070,-86.19693000
16.90673828,-84.74373000
16.93725586,-84.34418000
16.96777344,-84.87759000
16.99829102,-84.65735000
17.02880859,-84.16401000
17.05932617,-85.37769000
17.08984375,-89.09947000
17.12036133,-94.64362000
17.15087891,-103.42530000
17.18139648,-103.91240000
17.21191406,-103.29650000
17.24243164,-98.24546000
17.27294922,-88.93978000
17.30346680,-86.01081000
17.33398438,-86.30661000
17.36450195,-86.46839000
17.39501953,-84.17099000
17.42553711,-82.96714000
17.45605469,-84.08527000
17.48657227,-87.66853000
17.51708984,-93.16006000
17.54760742,-95.59437000
17.57812500,-95.78651000
17.60864258,-90.06562000
17.63916016,-85.49483000
17.66967773,-82.23528000
17.70019531,-78.90471000
17.73071289,-75.29816000
17.76123047,-72.08068000
17.79174805,-70.15652000
17.82226563,-70.17465000
17.85278320,-72.46220000
17.88330078,-77.04492000
17.91381836,-83.23041000
17.94433594,-87.67496000
17.97485352,-88.59615000
18.00537109,-89.22650000
18.03588867,-88.72659000
18.06640625,-87.34792000
18.09692383,-86.89429000
18.12744141,-87.65097000
18.15795898,-88.73264000
18.18847656,-89.70058000
18.21899414,-90.37598000
18.24951172,-90.22035000
18.28002930,-89.41754000
18.31054688,-88.81110000
18.34106445,-88.82068000
18.37158203,-89.29177000
18.40209961,-90.10829000
18.43261719,-91.24925000
18.46313477,-92.17660000
18.49365234,-92.12348000
18.52416992,-91.35438000
18.55468750,-89.63548000
18.58520508,-87.52208000
18.61572266,-86.47784000
18.64624023,-86.78880000
18.67675781,-87.88785000
18.70727539,-89.11575000
18.73779297,-89.79493000
18.76831055,-90.64677000
18.79882813,-95.28983000
18.82934570,-110.14490000
18.85986328,-94.37289000
18.89038086,-94.22478000
18.92089844,-107.23810000
18.95141602,-95.99689000
18.98193359,-90.17212000
19.01245117,-88.31199000
19.04296875,-88.62949000
19.07348633,-91.48363000
19.10400391,-98.12750000
19.13452148,-114.36930000
19.16503906,-103.68840000
19.19555664,-96.47009000
19.22607422,-91.89614000
19.25659180,-90.20130000
19.28710938,-91.20850000
19.31762695,-94.03041000
19.34814453,-95.07201000
19.37866211,-93.00545000
19.40917969,-90.99289000
19.43969727,-90.46623000
19.47021484,-92.49101000
19.50073242,-97.38129000
19.53125000,-97.57051000
19.56176758,-96.72610000
19.59228516,-98.75390000
19.62280273,-96.86208000
19.65332031,-93.37926000
19.68383789,-89.83102000
19.71435547,-87.16701000
19.74487305,-86.53046000
19.77539063,-88.64819000
19.80590820,-95.79152000
19.83642578,-100.15030000
19.86694336,-94.06111000
19.89746094,-94.68350000
19.92797852,-93.83954000
19.95849609,-89.33153000
19.98901367,-86.17867000
20.01953125,-84.95434000
20.05004883,-86.07820000
20.08056641,-90.35056000
20.11108398,-99.31926000
20.14160156,-95.13923000
20.17211914,-89.14229000
20.20263672,-87.29303000
20.23315430,-89.21072000
20.26367188,-90.99223000
20.29418945,-87.53285000
20.32470703,-86.55870000
20.35522461,-87.93719000
20.38574219,-88.94425000
20.41625977,-90.14718000
20.44677734,-93.60429000
20.47729492,-93.38231000
20.50781250,-90.02235000
20.53833008,-86.57976000
20.56884766,-83.39390000
20.59936523,-81.74588000
20.62988281,-81.94936000
20.66040039,-84.18935000
20.69091797,-88.44341000
20.72143555,-92.55600000
20.75195313,-95.85353000
20.78247070,-92.12234000
20.81298828,-88.06580000
20.84350586,-87.84766000
20.87402344,-90.00199000
20.90454102,-91.22143000
20.93505859,-90.60821000
20.96557617,-90.76477000
20.99609375,-92.52575000
21.02661133,-92.58247000
21.05712891,-91.12397000
21.08764648,-92.92674000
21.11816406,-90.35535000
21.14868164,-85.69749000
21.17919922,-84.72550000
21.20971680,-86.85300000
21.24023438,-91.97369000
21.27075195,-102.00130000
21.30126953,-99.29912000
21.33178711,-96.52980000
21.36230469,-100.29220000
21.39282227,-116.65870000
21.42333984,-98.84940000
21.45385742,-96.95342000
21.48437500,-102.22210000
21.51489258,-108.50040000
21.54541016,-97.78194000
21.57592773,-97.01035000
21.60644531,-101.48430000
21.63696289,-98.64970000
21.66748047,-93.98215000
21.69799805,-93.03619000
21.72851563,-94.29773000
21.75903320,-95.19936000
21.78955078,-94.65133000
21.82006836,-95.34614000
21.85058594,-94.54140000
21.88110352,-90.88177000
21.91162109,-88.36261000
21.94213867,-87.43742000
21.97265625,-87.82669000
22.00317383,-89.07660000
22.03369141,-90.84312000
22.06420898,-92.42195000
22.09472656,-92.04315000
22.12524414,-91.89424000
22.15576172,-93.93367000
22.18627930,-93.34798000
22.21679688,-89.40337000
22.24731445,-86.84155000
22.27783203,-85.28932000
22.30834961,-84.31564000
22.33886719,-84.20587000
22.36938477,-85.56393000
22.39990234,-88.57693000
22.43041992,-89.84323000
22.46093750,-87.38136000
22.49145508,-86.03096000
22.52197266,-86.94235000
22.55249023,-90.43377000
22.58300781,-93.87514000
22.61352539,-93.35555000
22.64404297,-95.19193000
22.67456055,-96.12891000
22.70507813,-93.16708000
22.73559570,-92.20689000
22.76611328,-92.23421000
22.79663086,-93.11669000
22.82714844,-97.95734000
22.85766602,-105.97100000
22.88818359,-97.01852000
22.91870117,-97.79148000
22.94921875,-96.30965000
22.97973633,-91.22652000
23.01025391,-89.67593000
23.04077148,-90.49295000
23.07128906,-94.28184000
23.10180664,-106.14000000
23.13232422,-96.34156000
23.16284180,-94.33620000
23.19335938,-96.99654000
23.22387695,-97.52168000
23.25439453,-94.32428000
23.28491211,-92.50159000
23.31542969,-92.26407000
23.34594727,-92.92891000
23.37646484,-93.52408000
23.40698242,-93.78033000
23.43750000,-94.34097000
23.46801758,-95.71784000
23.49853516,-97.13823000
23.52905273,-98.66151000
23.55957031,-102.19570000
23.59008789,-105.47410000
23.62060547,-101.89170000
23.65112305,-95.95705000
23.68164063,-92.64632000
23.71215820,-91.09848000
23.74267578,-91.00218000
23.77319336,-92.51270000
23.80371094,-95.02841000
23.83422852,-97.46217000
23.86474609,-99.92306000
23.89526367,-102.25050000
23.92578125,-101.09950000
23.95629883,-96.53937000
23.98681641,-93.20618000
24.01733398,-92.49742000
24.04785156,-94.52579000
24.07836914,-96.86963000
24.10888672,-97.14603000
24.13940430,-99.93206000
24.16992188,-99.35037000
24.20043945,-96.21342000
24.23095703,-96.21227000
24.26147461,-98.33006000
24.29199219,-103.20710000
24.32250977,-102.35300000
24.35302734,-98.60333000
24.38354492,-99.11147000
24.41406250,-102.40170000
24.44458008,-102.67600000
24.47509766,-99.79179000
24.50561523,-97.06100000
24.53613281,-94.59286000
24.56665039,-92.85927000
24.59716797,-92.67068000
24.62768555,-95.05280000
24.65820313,-100.30560000
24.68872070,-100.73180000
24.71923828,-100.60380000
24.74975586,-97.87232000
24.78027344,-93.01662000
24.81079102,-91.02332000
24.84130859,-91.22990000
24.87182617,-92.58284000
24.90234375,-93.43243000
24.93286133,-92.37981000
24.96337891,-90.23377000
24.99389648,-88.65325000
25.02441406,-88.08537000
25.05493164,-87.75446000
25.08544922,-87.77219000
25.11596680,-89.25549000
25.14648438,-92.35765000
25.17700195,-95.59243000
25.20751953,-95.15331000
25.23803711,-93.25507000
25.26855469,-93.84259000
25.29907227,-97.50247000
25.32958984,-101.05870000
25.36010742,-99.27962000
25.39062500,-95.96198000
25.42114258,-93.21822000
25.45166016,-93.03632000
25.48217773,-95.79544000
25.51269531,-97.89113000
25.54321289,-97.23550000
25.57373047,-98.12843000
25.60424805,-102.16840000
25.63476563,-105.21350000
25.66528320,-98.36143000
25.69580078,-101.51210000
25.72631836,-103.76850000
25.75683594,-95.36584000
25.78735352,-94.45244000
25.81787109,-95.17281000
25.84838867,-94.77767000
25.87890625,-92.88972000
25.90942383,-90.32317000
25.93994141,-88.40946000
25.97045898,-87.43698000
26.00097656,-87.51141000
26.03149414,-88.76923000
26.06201172,-90.28362000
26.09252930,-89.38193000
26.12304688,-87.18627000
26.15356445,-86.27751000
26.18408203,-87.16709000
26.21459961,-89.38554000
26.24511719,-92.02234000
26.27563477,-92.69764000
26.30615234,-91.07451000
26.33666992,-89.49254000
26.36718750,-87.46870000
26.39770508,-86.06911000
26.42822266,-86.58020000
26.45874023,-89.00224000
26.48925781,-91.64903000
26.51977539,-91.91031000
26.55029297,-90.63450000
26.58081055,-90.00992000
26.61132813,-90.72630000
26.64184570,-92.42851000
26.67236328,-93.78712000
26.70288086,-92.56596000
26.73339844,-91.37154000
26.76391602,-91.88206000
26.79443359,-91.75430000
26.82495117,-90.37331000
26.85546875,-90.04798000
26.88598633,-90.73285000
26.91650391,-92.25120000
26.94702148,-94.23302000
26.97753906,-93.82674000
27.00805664,-91.11819000
27.03857422,-88.23467000
27.06909180,-87.13873000
27.09960938,-88.36246000
27.13012695,-91.07394000
27.16064453,-92.04392000
27.19116211,-90.14220000
27.22167969,-89.39599000
27.25219727,-91.46179000
27.28271484,-94.64351000
27.31323242,-92.69294000
27.34375000,-91.22174000
27.37426758,-92.39568000
27.40478516,-94.15268000
27.43530273,-91.93176000
27.46582031,-89.12160000
27.49633789,-87.58417000
27.52685547,-86.94365000
27.55737305,-87.16729000
27.58789063,-88.57467000
27.61840820,-90.07706000
27.64892578,-90.71305000
27.67944336,-92.41731000
27.70996094,-94.06905000
27.74047852,-95.83202000
27.77099609,-101.68950000
27.80151367,-99.86723000
27.83203125,-95.08073000
27.86254883,-91.24554000
27.89306641,-89.19307000
27.92358398,-88.98280000
27.95410156,-88.91518000
27.98461914,-89.07549000
28.01513672,-91.17321000
28.04565430,-95.90783000
28.07617188,-104.34580000
28.10668945,-104.69370000
28.13720703,-94.34132000
28.16772461,-91.22430000
28.19824219,-92.72793000
28.22875977,-99.28641000
28.25927734,-96.95077000
28.28979492,-94.35048000
28.32031250,-95.27554000
28.35083008,-95.48975000
28.38134766,-92.35110000
28.41186523,-88.69999000
28.44238281,-86.59965000
28.47290039,-86.89957000
28.50341797,-89.49748000
28.53393555,-91.72149000
28.56445313,-91.95525000
28.59497070,-87.68987000
28.62548828,-83.78075000
28.65600586,-82.80068000
28.68652344,-84.05661000
28.71704102,-86.28716000
28.74755859,-88.44975000
28.77807617,-90.17742000
28.80859375,-90.36699000
28.83911133,-88.97707000
28.86962891,-88.18845000
28.90014648,-90.19736000
28.93066406,-98.07778000
28.96118164,-97.08134000
28.99169922,-94.56834000
29.02221680,-101.95270000
29.05273438,-103.44110000
29.08325195,-98.29568000
29.11376953,-100.29200000
29.14428711,-102.15960000
29.17480469,-98.96651000
29.20532227,-95.07961000
29.23583984,-95.25089000
29.26635742,-100.06370000
29.29687500,-104.78620000
29.32739258,-97.81978000
29.35791016,-91.68074000
29.38842773,-89.69048000
29.41894531,-90.88032000
29.44946289,-92.90503000
29.47998047,-92.84592000
29.51049805,-91.50486000
29.54101563,-91.27025000
29.57153320,-93.03237000
29.60205078,-94.87815000
29.63256836,-95.21938000
29.66308594,-95.06384000
29.69360352,-96.28381000
29.72412109,-98.32152000
29.75463867,-94.34308000
29.78515625,-91.77676000
29.81567383,-93.03031000
29.84619141,-98.43152000
29.87670898,-101.54390000
29.90722656,-95.13040000
29.93774414,-91.41312000
29.96826172,-91.30387000
29.99877930,-95.83599000
30.02929688,-108.96310000
30.05981445,-107.94310000
30.09033203,-101.24520000
30.12084961,-95.29128000
30.15136719,-92.23344000
30.18188477,-90.23087000
30.21240234,-89.81728000
30.24291992,-90.28924000
30.27343750,-89.74181000
30.30395508,-89.61777000
30.33447266,-91.11359000
30.36499023,-92.94867000
30.39550781,-92.82764000
30.42602539,-91.75103000
30.45654297,-92.44450000
30.48706055,-95.59050000
30.51757813,-99.40563000
30.54809570,-99.31703000
30.57861328,-95.37683000
30.60913086,-94.23306000
30.63964844,-96.69816000
30.67016602,-95.33238000
30.70068359,-92.71110000
30.73120117,-95.21442000
30.76171875,-105.43840000
30.79223633,-109.23310000
30.82275391,-98.09412000
30.85327148,-93.07426000
30.88378906,-93.14885000
30.91430664,-96.29268000
30.94482422,-99.23004000
30.97534180,-92.64153000
31.00585938,-88.35407000
31.03637695,-89.09003000
31.06689453,-97.23441000
31.09741211,-99.45978000
31.12792969,-92.52721000
31.15844727,-92.06702000
31.18896484,-94.23669000
31.21948242,-99.26105000
31.25000000,-97.90852000
31.28051758,-94.42685000
31.31103516,-95.16044000
31.34155273,-94.22668000
31.37207031,-92.16206000
31.40258789,-91.67967000
31.43310547,-90.03880000
31.46362305,-89.18250000
31.49414063,-91.22314000
31.52465820,-96.54649000
31.55517578,-95.58018000
31.58569336,-91.01006000
31.61621094,-88.65388000
31.64672852,-87.66434000
31.67724609,-87.70030000
31.70776367,-88.97580000
31.73828125,-91.00567000
31.76879883,-91.91048000
31.79931641,-90.32630000
31.82983398,-88.92671000
31.86035156,-90.03468000
31.89086914,-94.30648000
31.92138672,-97.24500000
31.95190430,-93.18796000
31.98242188,-91.12019000
32.01293945,-89.99165000
32.04345703,-87.88044000
32.07397461,-86.81526000
32.10449219,-88.52345000
32.13500977,-94.28474000
32.16552734,-107.64350000
32.19604492,-99.40886000
32.22656250,-96.58352000
32.25708008,-96.62302000
32.28759766,-97.76169000
32.31811523,-96.21283000
32.34863281,-96.12960000
32.37915039,-103.21490000
32.40966797,-106.00710000
32.44018555,-97.15855000
32.47070313,-93.43793000
32.50122070,-92.16507000
32.53173828,-93.66599000
32.56225586,-95.92106000
32.59277344,-96.04813000
32.62329102,-95.93041000
32.65380859,-96.43272000
32.68432617,-95.05303000
32.71484375,-92.16757000
32.74536133,-90.58679000
32.77587891,-91.06724000
32.80639648,-92.23663000
32.83691406,-93.36582000
32.86743164,-98.18837000
32.89794922,-102.96300000
32.92846680,-103.35550000
32.95898438,-113.82200000
32.98950195,-100.88340000
33.02001953,-101.90010000
33.05053711,-103.44490000
33.08105469,-111.85420000
33.11157227,-95.04745000
33.14208984,-89.73731000
33.17260742,-88.93642000
33.20312500,-90.13734000
33.23364258,-91.50936000
33.26416016,-93.80289000
33.29467773,-97.18283000
33.32519531,-98.91177000
33.35571289,-100.12810000
33.38623047,-101.22200000
33.41674805,-100.28650000
33.44726563,-98.61352000
33.47778320,-98.13979000
33.50830078,-99.73889000
33.53881836,-101.76120000
33.56933594,-97.10674000
33.59985352,-92.76658000
33.63037109,-91.82743000
33.66088867,-93.58495000
33.69140625,-95.53531000
33.72192383,-93.18779000
33.75244141,-91.61480000
33.78295898,-93.47716000
33.81347656,-99.00651000
33.84399414,-97.71308000
33.87451172,-94.20607000
33.90502930,-94.24157000
33.93554688,-96.46448000
33.96606445,-98.39693000
33.99658203,-97.62211000
34.02709961,-95.61772000
34.05761719,-94.40176000
34.08813477,-93.60606000
34.11865234,-92.50932000
34.14916992,-92.99175000
34.17968750,-96.34644000
34.21020508,-98.71558000
34.24072266,-102.22720000
34.27124023,-105.21810000
34.30175781,-95.93268000
34.33227539,-95.91052000
34.36279297,-97.51434000
34.39331055,-94.39749000
34.42382813,-94.78760000
34.45434570,-98.06637000
34.48486328,-98.42145000
34.51538086,-94.79536000
34.54589844,-92.29993000
34.57641602,-94.19930000
34.60693359,-101.39660000
34.63745117,-100.30390000
34.66796875,-99.53642000
34.69848633,-100.12360000
34.72900391,-98.81123000
34.75952148,-94.12261000
34.79003906,-91.27475000
34.82055664,-91.16376000
34.85107422,-93.40675000
34.88159180,-96.92735000
34.91210938,-96.42543000
34.94262695,-94.82413000
34.97314453,-95.32570000
35.00366211,-98.52625000
35.03417969,-98.01039000
35.06469727,-94.87739000
35.09521484,-95.90009000
35.12573242,-98.50074000
35.15625000,-102.11350000
35.18676758,-103.52880000
35.21728516,-98.90305000
35.24780273,-96.91896000
35.27832031,-91.32331000
35.30883789,-87.95018000
35.33935547,-87.61753000
35.36987305,-89.45144000
35.40039063,-90.95676000
35.43090820,-90.52833000
35.46142578,-91.16112000
35.49194336,-95.50991000
35.52246094,-110.03620000
35.55297852,-98.99139000
35.58349609,-96.32867000
35.61401367,-96.78817000
35.64453125,-94.26103000
35.67504883,-90.60287000
35.70556641,-90.01740000
35.73608398,-93.09007000
35.76660156,-99.09924000
35.79711914,-98.37106000
35.82763672,-93.64787000
35.85815430,-92.21606000
35.88867188,-95.32257000
35.91918945,-108.65930000
35.94970703,-102.99270000
35.98022461,-99.75078000
36.01074219,-98.84879000
36.04125977,-96.39282000
36.07177734,-95.73974000
36.10229492,-97.27157000
36.13281250,-96.37649000
36.16333008,-92.29623000
36.19384766,-89.82368000
36.22436523,-90.13448000
36.25488281,-93.93963000
36.28540039,-97.77815000
36.31591797,-94.63611000
36.34643555,-95.02228000
36.37695313,-100.34230000
36.40747070,-100.01660000
36.43798828,-96.55051000
36.46850586,-95.48419000
36.49902344,-97.26756000
36.52954102,-108.50130000
36.56005859,-97.36733000
36.59057617,-92.31572000
36.62109375,-91.15018000
36.65161133,-90.65668000
36.68212891,-90.54871000
36.71264648,-92.53658000
36.74316406,-96.20219000
36.77368164,-98.94603000
36.80419922,-97.84196000
36.83471680,-94.95884000
36.86523438,-94.72945000
36.89575195,-96.63415000
36.92626953,-96.39348000
36.95678711,-93.41058000
36.98730469,-91.93089000
37.01782227,-93.95840000
37.04833984,-100.26340000
37.07885742,-96.06119000
37.10937500,-93.53611000
37.13989258,-95.03571000
37.17041016,-99.91414000
37.20092773,-102.59560000
37.23144531,-101.04900000
37.26196289,-103.22130000
37.29248047,-106.69700000
37.32299805,-106.79190000
37.35351563,-102.64710000
37.38403320,-97.25836000
37.41455078,-95.80539000
37.44506836,-96.54465000
37.47558594,-96.82137000
37.50610352,-98.71670000
37.53662109,-105.45060000
37.56713867,-110.59920000
37.59765625,-102.99400000
37.62817383,-101.34790000
37.65869141,-101.63360000
37.68920898,-104.49410000
37.71972656,-114.41330000
37.75024414,-101.83820000
37.78076172,-97.37373000
37.81127930,-96.63494000
37.84179688,-99.73451000
37.87231445,-106.44220000
37.90283203,-99.80354000
37.93334961,-99.14005000
37.96386719,-99.61022000
37.99438477,-96.10486000
38.02490234,-95.97006000
38.05541992,-99.69987000
38.08593750,-100.43590000
38.11645508,-95.81544000
38.14697266,-94.95760000
38.17749023,-98.94622000
38.20800781,-105.87690000
38.23852539,-101.29000000
38.26904297,-100.41920000
38.29956055,-98.36749000
38.33007813,-95.05334000
38.36059570,-94.13857000
38.39111328,-96.09053000
38.42163086,-101.51290000
38.45214844,-102.62600000
38.48266602,-97.05911000
38.51318359,-95.52300000
38.54370117,-98.73506000
38.57421875,-104.19060000
38.60473633,-96.05109000
38.63525391,-93.68510000
38.66577148,-93.11425000
38.69628906,-91.64339000
38.72680664,-90.21728000
38.75732422,-89.39335000
38.78784180,-89.08596000
38.81835938,-89.81248000
38.84887695,-92.65221000
38.87939453,-98.30886000
38.90991211,-101.96150000
38.94042969,-98.02476000
38.97094727,-94.50745000
39.00146484,-96.07639000
39.03198242,-101.12460000
39.06250000,-95.60864000
39.09301758,-94.96319000
39.12353516,-95.36552000
39.15405273,-94.12189000
39.18457031,-95.55856000
39.21508789,-99.25151000
39.24560547,-96.57414000
39.27612305,-95.22749000
39.30664063,-100.42970000
39.33715820,-102.23820000
39.36767578,-95.11729000
39.39819336,-94.48273000
39.42871094,-95.72099000
39.45922852,-94.99192000
39.48974609,-93.96979000
39.52026367,-92.84695000
39.55078125,-92.60152000
39.58129883,-92.57859000
39.61181641,-90.59116000
39.64233398,-87.96722000
39.67285156,-87.15848000
39.70336914,-88.70677000
39.73388672,-92.59983000
39.76440430,-101.72420000
39.79492188,-102.45320000
39.82543945,-94.25040000
39.85595703,-92.88222000
39.88647461,-94.66213000
39.91699219,-97.13153000
39.94750977,-96.92088000
39.97802734,-95.10445000
40.00854492,-94.16588000
40.03906250,-95.42131000
40.06958008,-99.69456000
40.10009766,-99.27049000
40.13061523,-93.33615000
40.16113281,-90.34629000
40.19165039,-90.59884000
40.22216797,-94.36841000
40.25268555,-99.00646000
40.28320313,-103.33180000
40.31372070,-110.24430000
40.34423828,-98.27809000
40.37475586,-96.09921000
40.40527344,-93.38716000
40.43579102,-90.53211000
40.46630859,-89.31759000
40.49682617,-89.69200000
40.52734375,-92.23449000
40.55786133,-92.72668000
40.58837891,-89.83035000
40.61889648,-88.45219000
40.64941406,-87.69547000
40.67993164,-87.22657000
40.71044922,-87.95042000
40.74096680,-91.15974000
40.77148438,-98.60419000
40.80200195,-94.81543000
40.83251953,-89.49806000
40.86303711,-87.71974000
40.89355469,-88.65730000
40.92407227,-90.99257000
40.95458984,-89.95007000
40.98510742,-87.99391000
41.01562500,-87.99499000
41.04614258,-89.83521000
41.07666016,-92.96490000
41.10717773,-95.97871000
41.13769531,-96.79099000
41.16821289,-95.95234000
41.19873047,-94.69223000
41.22924805,-93.57888000
41.25976563,-92.72353000
41.29028320,-92.20479000
41.32080078,-93.23769000
41.35131836,-96.44378000
41.38183594,-100.52540000
41.41235352,-103.72130000
41.44287109,-102.11760000
41.47338867,-96.80736000
41.50390625,-92.64806000
41.53442383,-90.60159000
41.56494141,-89.72496000
41.59545898,-89.49281000
41.62597656,-90.53537000
41.65649414,-94.37328000
41.68701172,-106.52540000
41.71752930,-101.12360000
41.74804688,-94.01749000
41.77856445,-92.14641000
41.80908203,-93.57333000
41.83959961,-94.09329000
41.87011719,-92.26808000
41.90063477,-93.45049000
41.93115234,-95.93816000
41.96166992,-92.32564000
41.99218750,-91.84552000
42.02270508,-92.47266000
42.05322266,-90.40588000
42.08374023,-91.29445000
42.11425781,-95.97646000
42.14477539,-94.82117000
42.17529297,-93.43894000
42.20581055,-93.51600000
42.23632813,-90.79654000
42.26684570,-87.47131000
42.29736328,-85.71120000
42.32788086,-86.20712000
42.35839844,-88.98633000
42.38891602,-94.01554000
42.41943359,-94.98638000
42.44995117,-93.25439000
42.48046875,-97.12157000
42.51098633,-108.32800000
42.54150391,-99.27223000
42.57202148,-105.10710000
42.60253906,-97.61940000
42.63305664,-91.19763000
42.66357422,-91.77345000
42.69409180,-100.35870000
42.72460938,-92.09042000
42.75512695,-88.31453000
42.78564453,-89.14594000
42.81616211,-90.19363000
42.84667969,-88.29803000
42.87719727,-87.26620000
42.90771484,-87.13423000
42.93823242,-87.02335000
42.96875000,-87.45134000
42.99926758,-89.60654000
43.02978516,-94.61804000
43.06030273,-101.67390000
43.09082031,-104.41080000
43.12133789,-113.03900000
43.15185547,-107.01500000
43.18237305,-102.78650000
43.21289063,-103.27150000
43.24340820,-103.36790000
43.27392578,-102.58010000
43.30444336,-96.44593000
43.33496094,-90.64449000
43.36547852,-88.08445000
43.39599609,-88.03244000
43.42651367,-89.71388000
43.45703125,-91.33836000
43.48754883,-89.96896000
43.51806641,-87.27043000
43.54858398,-85.71938000
43.57910156,-85.64500000
43.60961914,-86.46816000
43.64013672,-87.70496000
43.67065430,-89.23267000
43.70117188,-89.52312000
43.73168945,-88.71941000
43.76220703,-89.33612000
43.79272461,-91.80981000
43.82324219,-93.12659000
43.85375977,-91.86275000
43.88427734,-91.54730000
43.91479492,-93.22607000
43.94531250,-96.30060000
43.97583008,-94.31115000
44.00634766,-89.74699000
44.03686523,-87.50565000
44.06738281,-87.25399000
44.09790039,-88.20431000
44.12841797,-89.56239000
44.15893555,-90.64536000
44.18945313,-92.06268000
44.21997070,-95.22835000
44.25048828,-101.60960000
44.28100586,-110.50190000
44.31152344,-107.96170000
44.34204102,-111.03840000
44.37255859,-108.29910000
44.40307617,-100.38510000
44.43359375,-94.71103000
44.46411133,-92.05202000
44.49462891,-91.60279000
44.52514648,-91.62643000
44.55566406,-90.40190000
44.58618164,-89.40864000
44.61669922,-90.21999000
44.64721680,-93.08837000
44.67773438,-96.25154000
44.70825195,-96.24244000
44.73876953,-95.81906000
44.76928711,-97.21844000
44.79980469,-97.87250000
44.83032227,-97.97207000
44.86083984,-102.35020000
44.89135742,-104.88990000
44.92187500,-99.02669000
44.95239258,-98.15247000
44.98291016,-97.29002000
45.01342773,-94.37959000
45.04394531,-93.63190000
45.07446289,-94.12283000
45.10498047,-93.08254000
45.13549805,-91.78985000
45.16601563,-92.08739000
45.19653320,-94.89529000
45.22705078,-98.42381000
45.25756836,-94.86360000
45.28808594,-92.12273000
45.31860352,-92.06116000
45.34912109,-95.24980000
45.37963867,-107.81410000
45.41015625,-99.60000000
45.44067383,-94.81616000
45.47119141,-94.67416000
45.50170898,-96.22704000
45.53222656,-97.13365000
45.56274414,-96.92005000
45.59326172,-97.22087000
45.62377930,-98.88203000
45.65429688,-102.58180000
45.68481445,-109.29000000
45.71533203,-111.20790000
45.74584961,-101.50470000
45.77636719,-91.92892000
45.80688477,-87.68576000
45.83740234,-86.56316000
45.86791992,-87.39200000
45.89843750,-88.77592000
45.92895508,-89.56973000
45.95947266,-89.88242000
45.98999023,-90.79736000
46.02050781,-93.18655000
46.05102539,-98.00562000
46.08154297,-114.32550000
46.11206055,-103.06580000
46.14257813,-97.53015000
46.17309570,-93.04512000
46.20361328,-90.39054000
46.23413086,-90.57167000
46.26464844,-93.38731000
46.29516602,-99.07301000
46.32568359,-109.36800000
46.35620117,-102.28480000
46.38671875,-101.24780000
46.41723633,-99.76015000
46.44775391,-94.41420000
46.47827148,-91.83349000
46.50878906,-91.81419000
46.53930664,-94.19279000
46.56982422,-100.70220000
46.60034180,-107.64290000
46.63085938,-97.73959000
46.66137695,-95.42738000
46.69189453,-97.05003000
46.72241211,-102.33130000
46.75292969,-99.68037000
46.78344727,-95.87372000
46.81396484,-94.68499000
46.84448242,-95.28658000
46.87500000,-98.19075000
46.90551758,-102.15690000
46.93603516,-103.95190000
46.96655273,-106.90730000
46.99707031,-99.15832000
47.02758789,-95.08049000
47.05810547,-94.09846000
47.08862305,-94.44649000
47.11914063,-95.25128000
47.14965820,-95.35117000
47.18017578,-93.27705000
47.21069336,-91.39227000
47.24121094,-91.92387000
47.27172852,-97.34633000
47.30224609,-106.87980000
47.33276367,-94.87510000
47.36328125,-93.50564000
47.39379883,-94.76807000
47.42431641,-93.92132000
47.45483398,-91.99914000
47.48535156,-90.57135000
47.51586914,-89.52510000
47.54638672,-89.40222000
47.57690430,-91.04379000
47.60742188,-95.70854000
47.63793945,-110.13410000
47.66845703,-103.18600000
47.69897461,-98.56587000
47.72949219,-97.44950000
47.76000977,-97.10643000
47.79052734,-97.01930000
47.82104492,-97.11236000
47.85156250,-98.00567000
47.88208008,-101.03450000
47.91259766,-107.73360000
47.94311523,-99.65112000
47.97363281,-94.57841000
48.00415039,-94.43007000
48.03466797,-101.45300000
48.06518555,-101.18200000
48.09570313,-91.88506000
48.12622070,-88.60137000
48.15673828,-87.44203000
48.18725586,-87.75603000
48.21777344,-89.87014000
48.24829102,-94.91840000
48.27880859,-105.55100000
48.30932617,-120.64950000
48.33984375,-112.49440000
48.37036133,-104.94860000
48.40087891,-100.29850000
48.43139648,-97.09909000
48.46191406,-96.80534000
48.49243164,-100.58440000
48.52294922,-113.40140000
48.55346680,-104.02230000
48.58398438,-94.98698000
48.61450195,-90.90535000
48.64501953,-90.96642000
48.67553711,-96.16336000
48.70605469,-101.04830000
48.73657227,-97.00314000
48.76708984,-100.45790000
48.79760742,-112.68470000
48.82812500,-101.17850000
48.85864258,-93.95995000
48.88916016,-90.50124000
48.91967773,-89.94755000
48.95019531,-91.10579000
48.98071289,-93.19566000
49.01123047,-97.18011000
49.04174805,-104.63690000
49.07226563,-104.14460000
49.10278320,-101.08400000
49.13330078,-96.10602000
49.16381836,-91.58897000
49.19433594,-88.32774000
49.22485352,-86.49638000
49.25537109,-86.89687000
49.28588867,-90.86211000
49.31640625,-100.89350000
49.34692383,-95.87534000
49.37744141,-93.86086000
49.40795898,-93.93220000
49.43847656,-93.06983000
49.46899414,-92.88979000
49.49951172,-94.16649000
49.53002930,-96.20125000
49.56054688,-95.67300000
49.59106445,-92.43936000
49.62158203,-89.76457000
49.65209961,-88.38097000
49.68261719,-88.33348000
49.71313477,-89.87396000
49.74365234,-93.79432000
49.77416992,-101.62460000
49.80468750,-99.47180000
49.83520508,-94.06036000
49.86572266,-91.88885000
49.89624023,-91.88214000
49.92675781,-93.72753000
49.95727539,-96.74023000
49.98779297,-98.20529000
50.01831055,-96.33699000
