Frequency,Channel A
(MHz),(dBu)

0.00000000,-34.90257000
0.03051758,-35.11346000
0.06103516,-39.80782000
0.09155273,-48.76321000
0.12207031,-63.56154000
0.15258789,-61.61647000
0.18310547,-63.39700000
0.21362305,-65.89522000
0.24414063,-66.08281000
0.27465820,-65.94372000
0.30517578,-71.48976000
0.33569336,-72.88698000
0.36621094,-65.00800000
0.39672852,-64.21531000
0.42724609,-61.90259000
0.45776367,-60.10913000
0.48828125,-62.23950000
0.51879883,-64.91569000
0.54931641,-63.56053000
0.57983398,-64.54739000
0.61035156,-66.37587000
0.64086914,-66.04019000
0.67138672,-65.93579000
0.70190430,-65.67860000
0.73242188,-65.00065000
0.76293945,-66.25314000
0.79345703,-70.24382000
0.82397461,-65.43378000
0.85449219,-62.89607000
0.88500977,-63.75923000
0.91552734,-66.68723000
0.94604492,-71.48466000
0.97656250,-78.25740000
1.00708008,-75.16592000
1.03759766,-67.86160000
1.06811523,-66.99637000
1.09863281,-70.98884000
1.12915039,-75.76328000
1.15966797,-76.33358000
1.19018555,-73.87278000
1.22070313,-74.43313000
1.25122070,-85.11768000
1.28173828,-77.39616000
1.31225586,-72.16028000
1.34277344,-73.52228000
1.37329102,-80.40589000
1.40380859,-74.03360000
1.43432617,-71.40194000
1.46484375,-69.39408000
1.49536133,-68.50085000
1.52587891,-70.71084000
1.55639648,-76.13398000
1.58691406,-79.96553000
1.61743164,-76.15296000
1.64794922,-73.46618000
1.67846680,-74.83880000
1.70898438,-73.41878000
1.73950195,-70.43572000
1.77001953,-70.61154000
1.80053711,-70.46896000
1.83105469,-68.32959000
1.86157227,-67.24849000
1.89208984,-68.38139000
1.92260742,-73.00040000
1.95312500,-72.93183000
1.98364258,-69.49368000
2.01416016,-70.45583000
2.04467773,-73.43086000
2.07519531,-75.63895000
2.10571289,-82.16458000
2.13623047,-76.89313000
2.16674805,-71.14261000
2.19726563,-71.56227000
2.22778320,-76.84592000
2.25830078,-81.91377000
2.28881836,-82.40525000
2.31933594,-86.79490000
2.34985352,-81.83811000
2.38037109,-79.69926000
2.41088867,-87.83139000
2.44140625,-84.57140000
2.47192383,-82.96501000
2.50244141,-98.13409000
2.53295898,-84.19576000
2.56347656,-81.24475000
2.59399414,-77.65665000
2.62451172,-73.49361000
2.65502930,-70.45880000
2.68554688,-68.34071000
2.71606445,-67.81022000
2.74658203,-68.94905000
2.77709961,-71.36465000
2.80761719,-76.75279000
2.83813477,-88.85632000
2.86865234,-86.31927000
2.89916992,-80.77972000
2.92968750,-73.85900000
2.96020508,-73.94177000
2.99072266,-79.93156000
3.02124023,-78.37904000
3.05175781,-78.39154000
3.08227539,-82.77683000
3.11279297,-77.28952000
3.14331055,-75.75272000
3.17382813,-81.32788000
3.20434570,-94.45538000
3.23486328,-85.21036000
3.26538086,-75.44508000
3.29589844,-73.73248000
3.32641602,-78.54480000
3.35693359,-93.30331000
3.38745117,-83.79701000
3.41796875,-83.84757000
3.44848633,-78.92684000
3.47900391,-76.30562000
3.50952148,-77.51022000
3.54003906,-84.27005000
3.57055664,-88.31252000
3.60107422,-80.66619000
3.63159180,-78.63124000
3.66210938,-78.30772000
3.69262695,-78.43599000
3.72314453,-73.45360000
3.75366211,-71.44331000
3.78417969,-73.56004000
3.81469727,-78.78650000
3.84521484,-88.26826000
3.87573242,-92.16808000
3.90625000,-91.96439000
3.93676758,-81.56837000
3.96728516,-76.72539000
3.99780273,-79.99355000
4.02832031,-85.83668000
4.05883789,-75.05756000
4.08935547,-73.85054000
4.11987305,-77.03282000
4.15039063,-78.79681000
4.18090820,-81.94228000
4.21142578,-87.07954000
4.24194336,-76.17107000
4.27246094,-74.21163000
4.30297852,-75.64189000
4.33349609,-81.58360000
4.36401367,-82.51059000
4.39453125,-82.06733000
4.42504883,-93.89335000
4.45556641,-87.64877000
4.48608398,-89.07010000
4.51660156,-79.35065000
4.54711914,-74.18652000
4.57763672,-74.18098000
4.60815430,-77.95518000
4.63867188,-83.15800000
4.66918945,-84.60284000
4.69970703,-88.62064000
4.73022461,-84.90887000
4.76074219,-76.81270000
4.79125977,-76.00587000
4.82177734,-79.79774000
4.85229492,-85.59566000
4.88281250,-94.63826000
4.91333008,-88.90190000
4.94384766,-84.23755000
4.97436523,-77.52641000
5.00488281,-74.99661000
5.03540039,-76.67072000
5.06591797,-87.16672000
5.09643555,-83.88431000
5.12695313,-79.37318000
5.15747070,-79.23150000
5.18798828,-79.57921000
5.21850586,-84.08241000
5.24902344,-82.25045000
5.27954102,-76.72836000
5.31005859,-76.01332000
5.34057617,-78.84859000
5.37109375,-81.37529000
5.40161133,-80.41991000
5.43212891,-80.42937000
5.46264648,-81.32140000
5.49316406,-83.18594000
5.52368164,-84.25534000
5.55419922,-79.36771000
5.58471680,-77.42328000
5.61523438,-80.75349000
5.64575195,-83.14197000
5.67626953,-79.15922000
5.70678711,-81.27224000
5.73730469,-89.70593000
5.76782227,-90.92258000
5.79833984,-85.90300000
5.82885742,-78.36597000
5.85937500,-75.76545000
5.88989258,-77.54137000
5.92041016,-79.49982000
5.95092773,-77.71751000
5.98144531,-76.78972000
6.01196289,-78.58752000
6.04248047,-83.37953000
6.07299805,-84.43564000
6.10351563,-83.65552000
6.13403320,-84.03806000
6.16455078,-76.87933000
6.19506836,-73.69659000
6.22558594,-73.72119000
6.25610352,-77.91171000
6.28662109,-88.01881000
6.31713867,-82.20013000
6.34765625,-79.21870000
6.37817383,-75.54828000
6.40869141,-74.08041000
6.43920898,-76.36516000
6.46972656,-81.82021000
6.50024414,-84.86945000
6.53076172,-84.22184000
6.56127930,-80.80331000
6.59179688,-78.79626000
6.62231445,-77.53060000
6.65283203,-77.17146000
6.68334961,-79.89768000
6.71386719,-95.45403000
6.74438477,-81.82313000
6.77490234,-77.76604000
6.80541992,-78.60501000
6.83593750,-83.39028000
6.86645508,-94.16307000
6.89697266,-84.92145000
6.92749023,-82.00479000
6.95800781,-84.65260000
6.98852539,-102.66520000
7.01904297,-86.78389000
7.04956055,-82.14633000
7.08007813,-81.66878000
7.11059570,-84.47147000
7.14111328,-96.32499000
7.17163086,-85.93309000
7.20214844,-81.55531000
7.23266602,-81.97476000
7.26318359,-84.78107000
7.29370117,-86.21368000
7.32421875,-85.17848000
7.35473633,-84.93469000
7.38525391,-87.40918000
7.41577148,-96.21822000
7.44628906,-83.71003000
7.47680664,-78.34014000
7.50732422,-77.36505000
7.53784180,-80.15451000
7.56835938,-87.61919000
7.59887695,-94.02177000
7.62939453,-89.98481000
7.65991211,-87.59007000
7.69042969,-87.43085000
7.72094727,-91.41141000
7.75146484,-104.46530000
7.78198242,-94.63390000
7.81250000,-98.78333000
7.84301758,-89.63245000
7.87353516,-85.84552000
7.90405273,-87.95399000
7.93457031,-95.43062000
7.96508789,-96.74186000
7.99560547,-89.40719000
8.02612305,-83.23714000
8.05664063,-80.87464000
8.08715820,-82.06947000
8.11767578,-87.46476000
8.14819336,-94.39690000
8.17871094,-93.15853000
8.20922852,-89.42692000
8.23974609,-84.86719000
8.27026367,-85.16190000
8.30078125,-90.16809000
8.33129883,-87.79327000
8.36181641,-86.18761000
8.39233398,-89.61604000
8.42285156,-93.47505000
8.45336914,-89.59076000
8.48388672,-87.83313000
8.51440430,-87.89642000
8.54492188,-87.37656000
8.57543945,-87.88567000
8.60595703,-89.87320000
8.63647461,-90.41516000
8.66699219,-87.69423000
8.69750977,-84.81544000
8.72802734,-83.82187000
8.75854492,-85.28052000
8.78906250,-88.60286000
8.81958008,-87.96800000
8.85009766,-83.78377000
8.88061523,-81.50990000
8.91113281,-82.41314000
8.94165039,-88.18360000
8.97216797,-102.34630000
9.00268555,-87.57526000
9.03320313,-86.46290000
9.06372070,-92.30070000
9.09423828,-92.17714000
9.12475586,-86.07623000
9.15527344,-85.28609000
9.18579102,-87.30029000
9.21630859,-90.93726000
9.24682617,-94.99078000
9.27734375,-100.88820000
9.30786133,-97.48489000
9.33837891,-91.40922000
9.36889648,-88.14037000
9.39941406,-86.44013000
9.42993164,-87.65877000
9.46044922,-94.57008000
9.49096680,-94.21985000
9.52148438,-87.22816000
9.55200195,-85.90054000
9.58251953,-87.16263000
9.61303711,-87.62794000
9.64355469,-86.97472000
9.67407227,-87.64853000
9.70458984,-89.43699000
9.73510742,-89.99124000
9.76562500,-88.37449000
9.79614258,-86.69010000
9.82666016,-86.69382000
9.85717773,-91.04279000
9.88769531,-89.32208000
9.91821289,-82.94524000
9.94873047,-81.93489000
9.97924805,-84.03965000
10.00976563,-85.60626000
10.04028320,-87.82047000
10.07080078,-93.03383000
10.10131836,-85.46078000
10.13183594,-81.37589000
10.16235352,-80.94760000
10.19287109,-84.36081000
10.22338867,-91.59653000
10.25390625,-84.57660000
10.28442383,-81.94260000
10.31494141,-82.74040000
10.34545898,-84.77592000
10.37597656,-88.03043000
10.40649414,-88.31236000
10.43701172,-80.43909000
10.46752930,-77.03645000
10.49804688,-78.00342000
10.52856445,-85.21661000
10.55908203,-93.17070000
10.58959961,-83.81520000
10.62011719,-82.31869000
10.65063477,-82.46870000
10.68115234,-84.57100000
10.71166992,-87.65855000
10.74218750,-82.64785000
10.77270508,-79.42970000
10.80322266,-78.34694000
10.83374023,-77.86116000
10.86425781,-77.81776000
10.89477539,-78.90074000
10.92529297,-82.05643000
10.95581055,-88.92134000
10.98632813,-95.73338000
11.01684570,-87.75933000
11.04736328,-81.84288000
11.07788086,-79.66956000
11.10839844,-80.32731000
11.13891602,-82.63112000
11.16943359,-86.23199000
11.19995117,-92.23940000
11.23046875,-101.57010000
11.26098633,-92.50319000
11.29150391,-84.93570000
11.32202148,-81.02693000
11.35253906,-79.72737000
11.38305664,-79.45534000
11.41357422,-79.62690000
11.44409180,-81.07326000
11.47460938,-81.34502000
11.50512695,-80.63728000
11.53564453,-82.60815000
11.56616211,-86.71723000
11.59667969,-84.71104000
11.62719727,-80.88215000
11.65771484,-79.15446000
11.68823242,-79.86258000
11.71875000,-83.07229000
11.74926758,-85.42430000
11.77978516,-87.47403000
11.81030273,-87.60972000
11.84082031,-80.92561000
11.87133789,-78.40762000
11.90185547,-78.38895000
11.93237305,-79.68336000
11.96289063,-81.64731000
11.99340820,-80.80373000
12.02392578,-79.84602000
12.05444336,-81.51222000
12.08496094,-83.14178000
12.11547852,-82.52350000
12.14599609,-83.09257000
12.17651367,-85.40186000
12.20703125,-86.60629000
12.23754883,-83.86147000
12.26806641,-81.75968000
12.29858398,-82.92656000
12.32910156,-83.67801000
12.35961914,-78.97945000
12.39013672,-75.80089000
12.42065430,-75.33295000
12.45117188,-77.88695000
12.48168945,-85.19792000
12.51220703,-94.23845000
12.54272461,-82.13313000
12.57324219,-78.75230000
12.60375977,-78.72974000
12.63427734,-83.17082000
12.66479492,-81.85648000
12.69531250,-77.34580000
12.72583008,-78.59360000
12.75634766,-85.47336000
12.78686523,-100.50160000
12.81738281,-94.53167000
12.84790039,-86.33012000
12.87841797,-83.69360000
12.90893555,-82.10622000
12.93945313,-82.06827000
12.96997070,-85.67925000
13.00048828,-85.00439000
13.03100586,-81.51120000
13.06152344,-82.89257000
13.09204102,-92.19798000
13.12255859,-89.80598000
13.15307617,-82.69385000
13.18359375,-81.55666000
13.21411133,-83.41328000
13.24462891,-82.93400000
13.27514648,-80.22523000
13.30566406,-79.60011000
13.33618164,-78.68836000
13.36669922,-77.84245000
13.39721680,-80.02390000
13.42773438,-83.91328000
13.45825195,-80.90942000
13.48876953,-73.91003000
13.51928711,-67.79601000
13.54980469,-64.72040000
13.58032227,-64.04067000
13.61083984,-64.79298000
13.64135742,-66.43716000
13.67187500,-69.68448000
13.70239258,-76.21245000
13.73291016,-90.03610000
13.76342773,-89.02170000
13.79394531,-88.71799000
13.82446289,-88.54654000
13.85498047,-82.00893000
13.88549805,-78.24775000
13.91601563,-78.45616000
13.94653320,-83.48560000
13.97705078,-85.14780000
14.00756836,-78.25605000
14.03808594,-75.25355000
14.06860352,-74.63570000
14.09912109,-76.60184000
14.12963867,-83.25906000
14.16015625,-87.36390000
14.19067383,-81.96349000
14.22119141,-84.03017000
14.25170898,-84.64700000
14.28222656,-80.31879000
14.31274414,-79.36662000
14.34326172,-80.44505000
14.37377930,-82.72813000
14.40429688,-81.79608000
14.43481445,-75.65752000
14.46533203,-72.25699000
14.49584961,-72.02877000
14.52636719,-74.91178000
14.55688477,-82.47533000
14.58740234,-92.96173000
14.61791992,-82.04897000
14.64843750,-80.12215000
14.67895508,-81.37630000
14.70947266,-91.18520000
14.73999023,-83.66508000
14.77050781,-77.81127000
14.80102539,-77.00563000
14.83154297,-75.90987000
14.86206055,-73.57455000
14.89257813,-72.84652000
14.92309570,-74.71302000
14.95361328,-80.50157000
14.98413086,-78.93338000
15.01464844,-72.65154000
15.04516602,-70.14115000
15.07568359,-70.32476000
15.10620117,-73.43953000
15.13671875,-77.77351000
15.16723633,-73.99339000
15.19775391,-71.04984000
15.22827148,-70.72203000
15.25878906,-73.17261000
15.28930664,-79.98789000
15.31982422,-88.65765000
15.35034180,-81.16502000
15.38085938,-77.67062000
15.41137695,-74.33868000
15.44189453,-71.94811000
15.47241211,-72.08358000
15.50292969,-76.49481000
15.53344727,-89.31733000
15.56396484,-78.91071000
15.59448242,-76.75887000
15.62500000,-77.95419000
15.65551758,-81.77301000
15.68603516,-94.13544000
15.71655273,-85.98434000
15.74707031,-80.00787000
15.77758789,-78.55798000
15.80810547,-78.76904000
15.83862305,-80.36023000
15.86914063,-85.47415000
15.89965820,-110.05940000
15.93017578,-88.32405000
15.96069336,-82.93452000
15.99121094,-80.72517000
16.02172852,-80.07363000
16.05224609,-80.70732000
16.08276367,-85.22999000
16.11328125,-86.52896000
16.14379883,-79.00700000
16.17431641,-76.57416000
16.20483398,-77.47093000
16.23535156,-81.95911000
16.26586914,-84.18240000
16.29638672,-80.69250000
16.32690430,-81.11589000
16.35742188,-84.86114000
16.38793945,-89.92448000
16.41845703,-92.99847000
16.44897461,-95.69342000
16.47949219,-101.11860000
16.51000977,-104.43900000
16.54052734,-91.69147000
16.57104492,-85.39670000
16.60156250,-85.72719000
16.63208008,-100.79560000
16.66259766,-84.69322000
16.69311523,-80.27962000
16.72363281,-80.33545000
16.75415039,-83.03146000
16.78466797,-87.41888000
16.81518555,-86.46072000
16.84570313,-82.80467000
16.87622070,-82.63859000
16.90673828,-86.80549000
16.93725586,-96.12906000
16.96777344,-96.61652000
16.99829102,-100.38320000
17.02880859,-93.72438000
17.05932617,-88.81915000
17.08984375,-87.97520000
17.12036133,-88.87611000
17.15087891,-89.43508000
17.18139648,-89.71661000
17.21191406,-91.61236000
17.24243164,-96.22781000
17.27294922,-101.63590000
17.30346680,-94.20783000
17.33398438,-88.80444000
17.36450195,-86.79948000
17.39501953,-87.76888000
17.42553711,-91.14671000
17.45605469,-93.62034000
17.48657227,-93.30360000
17.51708984,-90.91243000
17.54760742,-89.94025000
17.57812500,-90.02296000
17.60864258,-87.83898000
17.63916016,-86.61880000
17.66967773,-87.55222000
17.70019531,-85.31272000
17.73071289,-80.91566000
17.76123047,-77.47681000
17.79174805,-75.27776000
17.82226563,-74.91473000
17.85278320,-77.21459000
17.88330078,-83.68493000
17.91381836,-105.68260000
17.94433594,-94.71475000
17.97485352,-98.95233000
18.00537109,-111.71800000
18.03588867,-101.91640000
18.06640625,-106.86350000
18.09692383,-101.28220000
18.12744141,-92.48837000
18.15795898,-90.52929000
18.18847656,-92.75537000
18.21899414,-94.05771000
18.24951172,-94.08675000
18.28002930,-98.69827000
18.31054688,-105.24610000
18.34106445,-101.59700000
18.37158203,-100.71010000
18.40209961,-101.29410000
18.43261719,-109.87450000
18.46313477,-98.34251000
18.49365234,-91.23338000
18.52416992,-90.93665000
18.55468750,-99.10404000
18.58520508,-99.53487000
18.61572266,-94.03609000
18.64624023,-96.65707000
18.67675781,-105.54280000
18.70727539,-111.04990000
18.73779297,-105.59010000
18.76831055,-101.01520000
18.79882813,-98.24287000
18.82934570,-98.53661000
18.85986328,-99.17201000
18.89038086,-97.13459000
18.92089844,-97.08790000
18.95141602,-100.75750000
18.98193359,-117.05840000
19.01245117,-101.46860000
19.04296875,-95.87102000
19.07348633,-94.20281000
19.10400391,-93.99478000
19.13452148,-93.80477000
19.16503906,-94.38569000
19.19555664,-97.81244000
19.22607422,-104.45470000
19.25659180,-98.22018000
19.28710938,-94.74674000
19.31762695,-93.68690000
19.34814453,-93.13068000
19.37866211,-92.85186000
19.40917969,-93.72016000
19.43969727,-95.36308000
19.47021484,-96.60918000
19.50073242,-100.96630000
19.53125000,-95.76809000
19.56176758,-90.32864000
19.59228516,-89.42137000
19.62280273,-91.26463000
19.65332031,-95.78994000
19.68383789,-117.22290000
19.71435547,-96.41016000
19.74487305,-92.22278000
19.77539063,-92.29639000
19.80590820,-95.65558000
19.83642578,-105.17550000
19.86694336,-99.70708000
19.89746094,-95.73555000
19.92797852,-96.80479000
19.95849609,-102.01960000
19.98901367,-106.69890000
20.01953125,-101.02010000
20.05004883,-99.20119000
20.08056641,-100.04040000
20.11108398,-99.69760000
20.14160156,-96.73888000
20.17211914,-95.17700000
20.20263672,-95.55219000
20.23315430,-96.41480000
20.26367188,-97.66488000
20.29418945,-99.71330000
20.32470703,-94.97824000
20.35522461,-90.58391000
20.38574219,-88.95421000
20.41625977,-89.50443000
20.44677734,-92.64439000
20.47729492,-100.15570000
20.50781250,-96.61643000
20.53833008,-92.02159000
20.56884766,-91.44615000
20.59936523,-93.63875000
20.62988281,-98.36295000
20.66040039,-100.60830000
20.69091797,-94.60453000
20.72143555,-93.00970000
20.75195313,-94.82559000
20.78247070,-99.09514000
20.81298828,-102.87920000
20.84350586,-98.55334000
20.87402344,-95.15176000
20.90454102,-94.84435000
20.93505859,-99.06305000
20.96557617,-105.55340000
20.99609375,-98.44997000
21.02661133,-96.89769000
21.05712891,-97.34562000
21.08764648,-97.13970000
21.11816406,-96.72426000
21.14868164,-98.51195000
21.17919922,-97.34210000
21.20971680,-92.17584000
21.24023438,-89.83113000
21.27075195,-88.95721000
21.30126953,-88.94627000
21.33178711,-90.33057000
21.36230469,-93.38937000
21.39282227,-98.88187000
21.42333984,-105.89670000
21.45385742,-98.84795000
21.48437500,-95.36833000
21.51489258,-94.09209000
21.54541016,-92.76844000
21.57592773,-92.38344000
21.60644531,-94.72139000
21.63696289,-99.62071000
21.66748047,-99.28230000
21.69799805,-95.33424000
21.72851563,-93.43223000
21.75903320,-93.40666000
21.78955078,-94.25030000
21.82006836,-96.81029000
21.85058594,-107.95080000
21.88110352,-100.42950000
21.91162109,-95.38345000
21.94213867,-99.21561000
21.97265625,-103.61650000
22.00317383,-91.86726000
22.03369141,-88.28406000
22.06420898,-86.84862000
22.09472656,-86.47591000
22.12524414,-87.75912000
22.15576172,-92.35696000
22.18627930,-98.04494000
22.21679688,-96.12578000
22.24731445,-98.33252000
22.27783203,-96.38988000
22.30834961,-93.16965000
22.33886719,-92.49323000
22.36938477,-94.50058000
22.39990234,-99.88652000
22.43041992,-95.29708000
22.46093750,-90.99431000
22.49145508,-90.50778000
22.52197266,-92.46829000
22.55249023,-95.00642000
22.58300781,-96.85974000
22.61352539,-98.64064000
22.64404297,-98.25952000
22.67456055,-97.12675000
22.70507813,-96.52030000
22.73559570,-97.76202000
22.76611328,-95.26127000
22.79663086,-90.68626000
22.82714844,-88.60092000
22.85766602,-88.82897000
22.88818359,-90.73888000
22.91870117,-92.60443000
22.94921875,-92.89449000
22.97973633,-91.54708000
23.01025391,-89.94861000
23.04077148,-89.07448000
23.07128906,-88.56269000
23.10180664,-88.30896000
23.13232422,-89.03629000
23.16284180,-91.82410000
23.19335938,-99.34375000
23.22387695,-105.04340000
23.25439453,-94.55670000
23.28491211,-92.63724000
23.31542969,-94.06607000
23.34594727,-95.18455000
23.37646484,-95.25671000
23.40698242,-100.05860000
23.43750000,-104.19490000
23.46801758,-96.17451000
23.49853516,-95.17790000
23.52905273,-96.11392000
23.55957031,-95.55200000
23.59008789,-95.55762000
23.62060547,-97.47730000
23.65112305,-96.55216000
23.68164063,-95.40467000
23.71215820,-100.75440000
23.74267578,-101.21130000
23.77319336,-92.81392000
23.80371094,-91.33400000
23.83422852,-93.81447000
23.86474609,-103.29150000
23.89526367,-100.81370000
23.92578125,-92.64123000
23.95629883,-90.06879000
23.98681641,-90.78194000
24.01733398,-95.64503000
24.04785156,-110.40450000
24.07836914,-100.02700000
24.10888672,-97.11005000
24.13940430,-95.73250000
24.16992188,-94.79420000
24.20043945,-95.58242000
24.23095703,-100.75290000
24.26147461,-106.54080000
24.29199219,-94.93663000
24.32250977,-91.99836000
24.35302734,-92.71503000
24.38354492,-96.71973000
24.41406250,-103.82030000
24.44458008,-105.20570000
24.47509766,-105.48390000
24.50561523,-99.78047000
24.53613281,-98.42245000
24.56665039,-102.63470000
24.59716797,-109.10830000
24.62768555,-117.27560000
24.65820313,-101.86960000
24.68872070,-96.24026000
24.71923828,-94.33038000
24.74975586,-93.40764000
24.78027344,-92.78320000
24.81079102,-93.83922000
24.84130859,-99.27991000
24.87182617,-103.27370000
24.90234375,-99.11394000
24.93286133,-101.07640000
24.96337891,-106.84750000
24.99389648,-102.35500000
25.02441406,-95.34189000
25.05493164,-91.66310000
25.08544922,-91.46968000
25.11596680,-94.36578000
25.14648438,-95.63046000
25.17700195,-94.71596000
25.20751953,-93.47041000
25.23803711,-90.80853000
25.26855469,-89.55786000
25.29907227,-89.92844000
25.32958984,-90.44716000
25.36010742,-90.73788000
25.39062500,-91.64258000
25.42114258,-92.99503000
25.45166016,-94.02962000
25.48217773,-93.44066000
25.51269531,-92.43468000
25.54321289,-92.63652000
25.57373047,-93.22959000
25.60424805,-92.47972000
25.63476563,-90.19963000
25.66528320,-88.29422000
25.69580078,-87.49953000
25.72631836,-87.31639000
25.75683594,-87.49825000
25.78735352,-88.43014000
25.81787109,-90.14297000
25.84838867,-91.97038000
25.87890625,-94.35922000
25.90942383,-99.28502000
25.93994141,-98.97683000
25.97045898,-94.70970000
26.00097656,-93.41503000
26.03149414,-94.44241000
26.06201172,-98.07415000
26.09252930,-100.31580000
26.12304688,-95.79461000
26.15356445,-93.77819000
26.18408203,-94.33305000
26.21459961,-95.62023000
26.24511719,-96.91650000
26.27563477,-98.87358000
26.30615234,-96.52789000
26.33666992,-93.46078000
26.36718750,-93.51632000
26.39770508,-97.40955000
26.42822266,-104.45020000
26.45874023,-107.01780000
26.48925781,-99.92629000
26.51977539,-96.36179000
26.55029297,-96.60944000
26.58081055,-98.23483000
26.61132813,-98.70528000
26.64184570,-102.32460000
26.67236328,-106.51750000
26.70288086,-101.86950000
26.73339844,-103.33800000
26.76391602,-111.71950000
26.79443359,-106.95730000
26.82495117,-99.25828000
26.85546875,-95.50829000
26.88598633,-94.40887000
26.91650391,-96.90012000
26.94702148,-104.42580000
26.97753906,-105.83260000
27.00805664,-102.14550000
27.03857422,-96.42383000
27.06909180,-95.41142000
27.09960938,-98.85202000
27.13012695,-104.50850000
27.16064453,-102.71820000
27.19116211,-99.69849000
27.22167969,-98.93336000
27.25219727,-103.50570000
27.28271484,-98.84098000
27.31323242,-93.51859000
27.34375000,-93.07690000
27.37426758,-95.38995000
27.40478516,-97.49977000
27.43530273,-101.60040000
27.46582031,-104.11150000
27.49633789,-94.18547000
27.52685547,-91.02139000
27.55737305,-90.28965000
27.58789063,-89.56099000
27.61840820,-88.78011000
27.64892578,-89.58560000
27.67944336,-92.21852000
27.70996094,-94.43229000
27.74047852,-95.74004000
27.77099609,-99.65610000
27.80151367,-108.50420000
27.83203125,-103.70220000
27.86254883,-99.07803000
27.89306641,-95.70271000
27.92358398,-94.68288000
27.95410156,-94.83727000
27.98461914,-92.37472000
28.01513672,-90.86959000
28.04565430,-92.09120000
28.07617188,-95.56084000
28.10668945,-100.32300000
28.13720703,-102.98700000
28.16772461,-97.76528000
28.19824219,-94.38512000
28.22875977,-94.69014000
28.25927734,-99.22172000
28.28979492,-99.56802000
28.32031250,-96.78399000
28.35083008,-98.35873000
28.38134766,-100.64390000
28.41186523,-99.87443000
28.44238281,-99.89890000
28.47290039,-101.17580000
28.50341797,-101.98580000
28.53393555,-98.43869000
28.56445313,-94.75928000
28.59497070,-90.79705000
28.62548828,-87.58810000
28.65600586,-87.04543000
28.68652344,-89.58340000
28.71704102,-92.76982000
28.74755859,-90.77432000
28.77807617,-89.54060000
28.80859375,-90.60986000
28.83911133,-92.20560000
28.86962891,-92.89690000
28.90014648,-94.95631000
28.93066406,-96.90891000
28.96118164,-96.01212000
28.99169922,-98.23981000
29.02221680,-101.13080000
29.05273438,-96.99057000
29.08325195,-96.19850000
29.11376953,-98.45893000
29.14428711,-98.03414000
29.17480469,-94.61742000
29.20532227,-91.66459000
29.23583984,-89.73006000
29.26635742,-89.11856000
29.29687500,-89.98421000
29.32739258,-92.89453000
29.35791016,-96.22237000
29.38842773,-93.11606000
29.41894531,-90.83096000
29.44946289,-90.62814000
29.47998047,-91.41855000
29.51049805,-92.90138000
29.54101563,-95.33325000
29.57153320,-97.16069000
29.60205078,-97.55266000
29.63256836,-100.27950000
29.66308594,-108.89740000
29.69360352,-107.13330000
29.72412109,-102.94190000
29.75463867,-104.02360000
29.78515625,-98.73521000
29.81567383,-97.22321000
29.84619141,-99.26454000
29.87670898,-96.09498000
29.90722656,-94.93866000
29.93774414,-99.56473000
29.96826172,-100.84680000
29.99877930,-98.12773000
30.02929688,-98.10442000
30.05981445,-91.95178000
30.09033203,-88.24546000
30.12084961,-87.90579000
30.15136719,-90.49385000
30.18188477,-95.19543000
30.21240234,-99.85266000
30.24291992,-102.29960000
30.27343750,-96.54002000
30.30395508,-92.18922000
30.33447266,-91.24069000
30.36499023,-93.61830000
30.39550781,-98.73298000
30.42602539,-98.16899000
30.45654297,-96.04516000
30.48706055,-96.42963000
30.51757813,-98.19240000
30.54809570,-99.24477000
30.57861328,-100.58740000
30.60913086,-108.80330000
30.63964844,-101.88180000
30.67016602,-94.90950000
30.70068359,-91.52765000
30.73120117,-89.53535000
30.76171875,-88.99408000
30.79223633,-90.03899000
30.82275391,-92.06157000
30.85327148,-93.38233000
30.88378906,-93.68664000
30.91430664,-94.12785000
30.94482422,-95.53069000
30.97534180,-98.07365000
31.00585938,-96.70815000
31.03637695,-95.53401000
31.06689453,-98.40106000
31.09741211,-100.09540000
31.12792969,-97.81898000
31.15844727,-96.42834000
31.18896484,-94.18667000
31.21948242,-92.44322000
31.25000000,-94.04439000
31.28051758,-98.70360000
31.31103516,-93.13294000
31.34155273,-91.43661000
31.37207031,-94.78012000
31.40258789,-98.47062000
31.43310547,-94.96841000
31.46362305,-94.52167000
31.49414063,-94.69810000
31.52465820,-93.17786000
31.55517578,-92.34351000
31.58569336,-92.69777000
31.61621094,-93.75021000
31.64672852,-93.50912000
31.67724609,-91.24474000
31.70776367,-90.77068000
31.73828125,-94.44925000
31.76879883,-110.43430000
31.79931641,-100.52890000
31.82983398,-96.59749000
31.86035156,-96.66615000
31.89086914,-101.63860000
31.92138672,-107.80090000
31.95190430,-95.45921000
31.98242188,-91.87400000
32.01293945,-90.59983000
32.04345703,-89.44095000
32.07397461,-88.73122000
32.10449219,-90.20306000
32.13500977,-95.61923000
32.16552734,-105.09190000
32.19604492,-98.96066000
32.22656250,-99.38121000
32.25708008,-104.75260000
32.28759766,-96.92432000
32.31811523,-93.73782000
32.34863281,-93.46759000
32.37915039,-94.68994000
32.40966797,-99.51282000
32.44018555,-102.80560000
32.47070313,-96.29498000
32.50122070,-95.38602000
32.53173828,-96.80968000
32.56225586,-94.86285000
32.59277344,-93.71478000
32.62329102,-96.38121000
32.65380859,-101.39970000
32.68432617,-101.26110000
32.71484375,-98.16296000
32.74536133,-94.95769000
32.77587891,-95.19727000
32.80639648,-100.94850000
32.83691406,-100.01290000
32.86743164,-92.64122000
32.89794922,-89.17342000
32.92846680,-87.54559000
32.95898438,-87.75047000
32.98950195,-90.85931000
33.02001953,-100.69470000
33.05053711,-100.80760000
33.08105469,-96.47545000
33.11157227,-99.47470000
33.14208984,-106.10730000
33.17260742,-95.71784000
33.20312500,-91.45790000
33.23364258,-91.38907000
33.26416016,-94.95053000
33.29467773,-95.63799000
33.32519531,-92.81612000
33.35571289,-93.08798000
33.38623047,-96.83829000
33.41674805,-103.60150000
33.44726563,-102.76660000
33.47778320,-101.09280000
33.50830078,-98.97008000
33.53881836,-95.33646000
33.56933594,-92.52054000
33.59985352,-91.15548000
33.63037109,-91.75995000
33.66088867,-95.72742000
33.69140625,-112.74430000
33.72192383,-100.04540000
33.75244141,-95.92790000
33.78295898,-95.47505000
33.81347656,-96.10526000
33.84399414,-97.74030000
33.87451172,-100.95790000
33.90502930,-106.10150000
33.93554688,-100.78190000
33.96606445,-94.07990000
33.99658203,-92.25228000
34.02709961,-92.35091000
34.05761719,-89.97398000
34.08813477,-88.07145000
34.11865234,-89.01077000
34.14916992,-92.47598000
34.17968750,-94.91138000
34.21020508,-95.83442000
34.24072266,-98.43947000
34.27124023,-100.78560000
34.30175781,-101.69180000
34.33227539,-101.72500000
34.36279297,-96.59389000
34.39331055,-93.10887000
34.42382813,-91.64513000
34.45434570,-90.57188000
34.48486328,-90.35824000
34.51538086,-91.99846000
34.54589844,-94.87588000
34.57641602,-96.87894000
34.60693359,-97.63932000
34.63745117,-94.87012000
34.66796875,-91.98502000
34.69848633,-91.75945000
34.72900391,-95.03540000
34.75952148,-100.34720000
34.79003906,-92.86264000
34.82055664,-88.79230000
34.85107422,-87.81805000
34.88159180,-89.11881000
34.91210938,-92.73508000
34.94262695,-100.79170000
34.97314453,-97.79205000
35.00366211,-92.07603000
35.03417969,-91.45909000
35.06469727,-95.11170000
35.09521484,-103.41090000
35.12573242,-103.99530000
35.15625000,-108.19990000
35.18676758,-107.08320000
35.21728516,-97.52785000
35.24780273,-93.71964000
35.27832031,-91.30116000
35.30883789,-90.19942000
35.33935547,-91.01998000
35.36987305,-94.47974000
35.40039063,-103.22770000
35.43090820,-98.75652000
35.46142578,-93.58460000
35.49194336,-92.56519000
35.52246094,-93.55363000
35.55297852,-94.28509000
35.58349609,-93.77868000
35.61401367,-93.65901000
35.64453125,-94.58266000
35.67504883,-96.53638000
35.70556641,-102.94850000
35.73608398,-101.76230000
35.76660156,-93.15467000
35.79711914,-90.82167000
35.82763672,-91.63708000
35.85815430,-95.03991000
35.88867188,-102.64110000
35.91918945,-106.63580000
35.94970703,-95.46645000
35.98022461,-91.79866000
36.01074219,-91.84412000
36.04125977,-94.62758000
36.07177734,-96.41443000
36.10229492,-95.18777000
36.13281250,-94.86606000
36.16333008,-95.68554000
36.19384766,-97.97647000
36.22436523,-99.98627000
36.25488281,-95.51803000
36.28540039,-92.96428000
36.31591797,-93.08865000
36.34643555,-94.34303000
36.37695313,-95.94875000
36.40747070,-99.30556000
36.43798828,-103.72200000
36.46850586,-101.08030000
36.49902344,-95.34019000
36.52954102,-91.27610000
36.56005859,-89.37248000
36.59057617,-89.44029000
36.62109375,-91.46297000
36.65161133,-95.56357000
36.68212891,-100.98370000
36.71264648,-101.04420000
36.74316406,-100.10170000
36.77368164,-103.42330000
36.80419922,-104.44260000
36.83471680,-100.25120000
36.86523438,-99.66945000
36.89575195,-100.97740000
36.92626953,-100.98050000
36.95678711,-99.81552000
36.98730469,-99.20449000
37.01782227,-98.53352000
37.04833984,-97.35512000
37.07885742,-96.95809000
37.10937500,-97.66109000
37.13989258,-99.22739000
37.17041016,-101.83330000
37.20092773,-101.76790000
37.23144531,-98.32837000
37.26196289,-98.09480000
37.29248047,-103.16700000
37.32299805,-107.77650000
37.35351563,-101.86340000
37.38403320,-99.43871000
37.41455078,-97.92553000
37.44506836,-97.55631000
37.47558594,-98.65311000
37.50610352,-99.52533000
37.53662109,-96.60214000
37.56713867,-94.22980000
37.59765625,-94.06173000
37.62817383,-96.37538000
37.65869141,-102.11410000
37.68920898,-107.50590000
37.71972656,-107.09760000
37.75024414,-104.48280000
37.78076172,-99.11130000
37.81127930,-96.68580000
37.84179688,-96.18111000
37.87231445,-96.71667000
37.90283203,-99.74272000
37.93334961,-119.77300000
37.96386719,-98.61925000
37.99438477,-96.10954000
38.02490234,-100.84170000
38.05541992,-110.09610000
38.08593750,-108.86420000
38.11645508,-100.09720000
38.14697266,-94.86045000
38.17749023,-93.42648000
38.20800781,-93.05192000
38.23852539,-92.00830000
38.26904297,-90.54396000
38.29956055,-89.51008000
38.33007813,-89.68186000
38.36059570,-91.80763000
38.39111328,-96.92114000
38.42163086,-106.63550000
38.45214844,-112.84900000
38.48266602,-114.84380000
38.51318359,-102.42950000
38.54370117,-97.07077000
38.57421875,-94.25903000
38.60473633,-93.45158000
38.63525391,-94.17128000
38.66577148,-95.29404000
38.69628906,-96.63911000
38.72680664,-96.26485000
38.75732422,-94.50927000
38.78784180,-94.90257000
38.81835938,-99.66621000
38.84887695,-107.49020000
38.87939453,-93.85883000
38.90991211,-88.98721000
38.94042969,-86.93262000
38.97094727,-86.79759000
39.00146484,-88.23416000
39.03198242,-90.56866000
39.06250000,-92.68529000
39.09301758,-95.08295000
39.12353516,-99.86805000
39.15405273,-107.87760000
39.18457031,-107.30020000
39.21508789,-99.81426000
39.24560547,-93.87663000
39.27612305,-90.63181000
39.30664063,-89.70035000
39.33715820,-90.90712000
39.36767578,-93.96812000
39.39819336,-97.05130000
39.42871094,-98.18322000
39.45922852,-98.04237000
39.48974609,-97.02206000
39.52026367,-95.25523000
39.55078125,-94.47054000
39.58129883,-97.88095000
39.61181641,-97.67600000
39.64233398,-90.91019000
39.67285156,-89.29622000
39.70336914,-90.44234000
39.73388672,-92.27383000
39.76440430,-93.96445000
39.79492188,-95.32737000
39.82543945,-93.69350000
39.85595703,-92.08743000
39.88647461,-91.99355000
39.91699219,-92.06430000
39.94750977,-91.35403000
39.97802734,-90.63957000
40.00854492,-92.94550000
40.03906250,-104.24260000
40.06958008,-100.54690000
40.10009766,-97.00365000
40.13061523,-100.31250000
40.16113281,-108.72420000
40.19165039,-112.57150000
40.22216797,-105.00210000
40.25268555,-99.19249000
40.28320313,-93.78455000
40.31372070,-90.17645000
40.34423828,-88.52530000
40.37475586,-88.05863000
40.40527344,-87.88216000
40.43579102,-88.04027000
40.46630859,-89.00739000
40.49682617,-90.98990000
40.52734375,-94.59602000
40.55786133,-99.30412000
40.58837891,-94.35826000
40.61889648,-90.50238000
40.64941406,-90.07544000
40.67993164,-91.85915000
40.71044922,-92.80769000
40.74096680,-93.15872000
40.77148438,-95.64154000
40.80200195,-97.47600000
40.83251953,-94.33867000
40.86303711,-92.27991000
40.89355469,-92.74036000
40.92407227,-95.59816000
40.95458984,-99.50096000
40.98510742,-99.64221000
41.01562500,-98.20767000
41.04614258,-100.15020000
41.07666016,-111.48830000
41.10717773,-101.52600000
41.13769531,-101.27890000
41.16821289,-99.85378000
41.19873047,-94.09949000
41.22924805,-93.55147000
41.25976563,-99.17223000
41.29028320,-94.17319000
41.32080078,-89.47432000
41.35131836,-89.93844000
41.38183594,-94.18626000
41.41235352,-93.72819000
41.44287109,-91.16139000
41.47338867,-92.04001000
41.50390625,-96.39999000
41.53442383,-95.76544000
41.56494141,-90.47400000
41.59545898,-88.51521000
41.62597656,-88.39789000
41.65649414,-88.60773000
41.68701172,-89.15298000
41.71752930,-91.97099000
41.74804688,-96.32134000
41.77856445,-91.43089000
41.80908203,-89.28233000
41.83959961,-88.95988000
41.87011719,-88.04318000
41.90063477,-87.84596000
41.93115234,-89.46292000
41.96166992,-91.49896000
41.99218750,-97.02922000
42.02270508,-93.30289000
42.05322266,-86.54353000
42.08374023,-85.53383000
42.11425781,-87.54916000
42.14477539,-90.40143000
42.17529297,-92.72575000
42.20581055,-93.44241000
42.23632813,-91.26949000
42.26684570,-86.84543000
42.29736328,-83.67848000
42.32788086,-83.18103000
42.35839844,-85.61443000
42.38891602,-90.76588000
42.41943359,-90.93643000
42.44995117,-88.13371000
42.48046875,-86.97536000
42.51098633,-85.74223000
42.54150391,-84.69833000
42.57202148,-85.47906000
42.60253906,-88.93613000
42.63305664,-92.06105000
42.66357422,-90.30999000
42.69409180,-89.96482000
42.72460938,-91.42381000
42.75512695,-93.28770000
42.78564453,-96.88135000
42.81616211,-112.84820000
42.84667969,-96.74836000
42.87719727,-93.77664000
42.90771484,-92.99427000
42.93823242,-92.69627000
42.96875000,-97.16467000
42.99926758,-95.42911000
43.02978516,-89.44633000
43.06030273,-88.53181000
43.09082031,-91.22353000
43.12133789,-97.16730000
43.15185547,-95.75174000
43.18237305,-92.87759000
43.21289063,-93.30164000
43.24340820,-94.15973000
43.27392578,-94.05011000
43.30444336,-94.17342000
43.33496094,-94.97430000
43.36547852,-95.13860000
43.39599609,-93.99258000
43.42651367,-94.64333000
43.45703125,-98.36617000
43.48754883,-90.63172000
43.51806641,-84.80950000
43.54858398,-82.69844000
43.57910156,-83.41826000
43.60961914,-86.54835000
43.64013672,-91.36575000
43.67065430,-96.25443000
43.70117188,-99.27431000
43.73168945,-98.92447000
43.76220703,-95.42988000
43.79272461,-93.16371000
43.82324219,-92.14935000
43.85375977,-91.81142000
43.88427734,-92.58088000
43.91479492,-95.76892000
43.94531250,-106.05360000
43.97583008,-101.40420000
44.00634766,-93.69681000
44.03686523,-91.87160000
44.06738281,-93.67311000
44.09790039,-98.00632000
44.12841797,-97.69899000
44.15893555,-93.58013000
44.18945313,-90.58494000
44.21997070,-89.01933000
44.25048828,-89.35295000
44.28100586,-91.24182000
44.31152344,-91.28325000
44.34204102,-89.61907000
44.37255859,-89.47547000
44.40307617,-91.22025000
44.43359375,-94.82255000
44.46411133,-100.77270000
44.49462891,-105.22640000
44.52514648,-100.93270000
44.55566406,-97.24686000
44.58618164,-94.94006000
44.61669922,-94.17686000
44.64721680,-95.70676000
44.67773438,-101.53500000
44.70825195,-114.13450000
44.73876953,-100.94490000
44.76928711,-97.70306000
44.79980469,-96.79771000
44.83032227,-96.96281000
44.86083984,-96.53783000
44.89135742,-93.22394000
44.92187500,-90.62418000
44.95239258,-91.23887000
44.98291016,-96.36181000
45.01342773,-113.49640000
45.04394531,-106.64060000
45.07446289,-100.79780000
45.10498047,-93.99528000
45.13549805,-89.69085000
45.16601563,-88.13600000
45.19653320,-88.57223000
45.22705078,-90.37808000
45.25756836,-93.79468000
45.28808594,-98.76802000
45.31860352,-101.73960000
45.34912109,-110.35060000
45.37963867,-103.11870000
45.41015625,-97.08849000
45.44067383,-96.64845000
45.47119141,-97.48045000
45.50170898,-97.20198000
45.53222656,-98.58673000
45.56274414,-97.30801000
45.59326172,-93.96102000
45.62377930,-94.21581000
45.65429688,-98.30764000
45.68481445,-100.20340000
45.71533203,-98.00797000
45.74584961,-100.49720000
45.77636719,-109.41120000
45.80688477,-98.71812000
45.83740234,-96.22185000
45.86791992,-97.97897000
45.89843750,-99.94154000
45.92895508,-103.23200000
45.95947266,-107.91120000
45.98999023,-95.08203000
46.02050781,-91.06889000
46.05102539,-90.26917000
46.08154297,-91.87813000
46.11206055,-96.16016000
46.14257813,-104.32550000
46.17309570,-103.29190000
46.20361328,-96.92152000
46.23413086,-94.38605000
46.26464844,-95.71513000
46.29516602,-101.59460000
46.32568359,-107.12030000
46.35620117,-104.54990000
46.38671875,-97.11987000
46.41723633,-94.58202000
46.44775391,-96.02776000
46.47827148,-100.20320000
46.50878906,-102.62470000
46.53930664,-98.81865000
46.56982422,-95.57323000
46.60034180,-93.92819000
46.63085938,-92.44614000
46.66137695,-91.18649000
46.69189453,-90.85183000
46.72241211,-91.93631000
46.75292969,-95.21680000
46.78344727,-100.43660000
46.81396484,-101.25030000
46.84448242,-104.01060000
46.87500000,-114.79890000
46.90551758,-101.22320000
46.93603516,-98.61787000
46.96655273,-100.47880000
46.99707031,-105.52480000
47.02758789,-103.53200000
47.05810547,-100.98020000
47.08862305,-99.55405000
47.11914063,-96.22758000
47.14965820,-94.77218000
47.18017578,-96.10421000
47.21069336,-97.25932000
47.24121094,-97.36195000
47.27172852,-97.67547000
47.30224609,-99.75811000
47.33276367,-111.94990000
47.36328125,-99.48882000
47.39379883,-97.27650000
47.42431641,-102.59110000
47.45483398,-105.11640000
47.48535156,-99.43768000
47.51586914,-98.15833000
47.54638672,-97.11684000
47.57690430,-96.76637000
47.60742188,-97.44247000
47.63793945,-96.33441000
47.66845703,-94.16777000
47.69897461,-92.76103000
47.72949219,-92.47488000
47.76000977,-93.26576000
47.79052734,-94.04654000
47.82104492,-94.07388000
47.85156250,-93.85686000
47.88208008,-93.85364000
47.91259766,-95.32299000
47.94311523,-100.62470000
47.97363281,-105.21750000
48.00415039,-98.75152000
48.03466797,-96.61008000
48.06518555,-95.54858000
48.09570313,-93.96384000
48.12622070,-92.77585000
48.15673828,-93.11532000
48.18725586,-95.10194000
48.21777344,-98.09940000
48.24829102,-99.91327000
48.27880859,-98.91188000
48.30932617,-97.94968000
48.33984375,-99.32906000
48.37036133,-104.40760000
48.40087891,-112.95980000
48.43139648,-105.03980000
48.46191406,-100.47510000
48.49243164,-98.98804000
48.52294922,-98.99321000
48.55346680,-99.23991000
48.58398438,-100.82840000
48.61450195,-106.08010000
48.64501953,-99.54398000
48.67553711,-96.60321000
48.70605469,-100.91300000
48.73657227,-105.22150000
48.76708984,-98.16733000
48.79760742,-97.93274000
48.82812500,-99.43462000
48.85864258,-99.33265000
48.88916016,-99.31556000
48.91967773,-102.15400000
48.95019531,-105.14100000
48.98071289,-99.55350000
49.01123047,-94.49086000
49.04174805,-91.25636000
49.07226563,-90.21346000
49.10278320,-91.86603000
49.13330078,-96.91528000
49.16381836,-110.37530000
49.19433594,-103.23130000
49.22485352,-97.03404000
49.25537109,-94.41322000
49.28588867,-92.73724000
49.31640625,-91.15932000
49.34692383,-89.78946000
49.37744141,-89.64758000
49.40795898,-91.35242000
49.43847656,-94.95634000
49.46899414,-99.56235000
49.49951172,-102.43480000
49.53002930,-100.81250000
49.56054688,-100.58720000
49.59106445,-103.13480000
49.62158203,-96.88023000
49.65209961,-94.71626000
49.68261719,-96.14922000
49.71313477,-96.32106000
49.74365234,-94.04087000
49.77416992,-92.41943000
49.80468750,-92.13603000
49.83520508,-93.25664000
49.86572266,-95.08176000
49.89624023,-95.32190000
49.92675781,-94.45736000
49.95727539,-95.40916000
49.98779297,-98.37433000
50.01831055,-95.82698000
