Frequency,Channel A
(MHz),(dBu)

0.00000000,-26.66086000
0.03051758,-27.06481000
0.06103516,-32.37393000
0.09155273,-42.35197000
0.12207031,-58.87035000
0.15258789,-71.08339000
0.18310547,-64.35132000
0.21362305,-58.80877000
0.24414063,-58.61992000
0.27465820,-61.89068000
0.30517578,-67.81264000
0.33569336,-76.53384000
0.36621094,-74.81302000
0.39672852,-63.71236000
0.42724609,-60.46027000
0.45776367,-60.76637000
0.48828125,-63.51721000
0.51879883,-69.44665000
0.54931641,-66.78792000
0.57983398,-61.84759000
0.61035156,-61.15570000
0.64086914,-63.31364000
0.67138672,-67.73398000
0.70190430,-74.65634000
0.73242188,-74.55201000
0.76293945,-67.64095000
0.79345703,-64.04865000
0.82397461,-62.02171000
0.85449219,-60.44694000
0.88500977,-59.99056000
0.91552734,-61.75131000
0.94604492,-65.00161000
0.97656250,-66.56873000
1.00708008,-67.47298000
1.03759766,-68.58192000
1.06811523,-69.51344000
1.09863281,-69.01710000
1.12915039,-68.83118000
1.15966797,-71.23412000
1.19018555,-72.23754000
1.22070313,-69.39156000
1.25122070,-69.16971000
1.28173828,-73.19978000
1.31225586,-85.94026000
1.34277344,-88.72453000
1.37329102,-81.40474000
1.40380859,-75.85791000
1.43432617,-74.08507000
1.46484375,-73.20186000
1.49536133,-71.97113000
1.52587891,-71.55479000
1.55639648,-73.12305000
1.58691406,-77.54224000
1.61743164,-74.29720000
1.64794922,-71.32428000
1.67846680,-74.15264000
1.70898438,-85.98642000
1.73950195,-97.19014000
1.77001953,-82.56294000
1.80053711,-74.35204000
1.83105469,-72.73629000
1.86157227,-75.38287000
1.89208984,-79.87778000
1.92260742,-79.48104000
1.95312500,-77.35364000
1.98364258,-74.14749000
2.01416016,-73.48093000
2.04467773,-75.25478000
2.07519531,-79.26514000
2.10571289,-87.81803000
2.13623047,-99.25478000
2.16674805,-89.87509000
2.19726563,-82.31909000
2.22778320,-80.04498000
2.25830078,-82.86624000
2.28881836,-84.76297000
2.31933594,-82.14990000
2.34985352,-80.51552000
2.38037109,-76.42018000
2.41088867,-72.80498000
2.44140625,-71.53994000
2.47192383,-72.81348000
2.50244141,-76.55521000
2.53295898,-82.34381000
2.56347656,-88.04955000
2.59399414,-84.93265000
2.62451172,-77.95220000
2.65502930,-72.91785000
2.68554688,-70.26105000
2.71606445,-69.79326000
2.74658203,-71.53354000
2.77709961,-75.14122000
2.80761719,-77.77094000
2.83813477,-78.49296000
2.86865234,-79.46272000
2.89916992,-80.71310000
2.92968750,-82.00855000
2.96020508,-81.45753000
2.99072266,-78.85789000
3.02124023,-77.26953000
3.05175781,-77.77896000
3.08227539,-79.70264000
3.11279297,-81.79710000
3.14331055,-84.52602000
3.17382813,-88.21339000
3.20434570,-86.00067000
3.23486328,-79.70985000
3.26538086,-76.34261000
3.29589844,-76.05614000
3.32641602,-78.63227000
3.35693359,-83.32158000
3.38745117,-85.58383000
3.41796875,-85.01633000
3.44848633,-86.00372000
3.47900391,-92.44656000
3.50952148,-94.80035000
3.54003906,-84.17973000
3.57055664,-78.66267000
3.60107422,-76.94779000
3.63159180,-77.42474000
3.66210938,-77.06909000
3.69262695,-75.28893000
3.72314453,-74.21892000
3.75366211,-73.89108000
3.78417969,-74.67588000
3.81469727,-76.52023000
3.84521484,-80.94906000
3.87573242,-84.00239000
3.90625000,-79.39018000
3.93676758,-79.21867000
3.96728516,-81.92330000
3.99780273,-87.74087000
4.02832031,-94.37190000
4.05883789,-90.72012000
4.08935547,-92.82152000
4.11987305,-94.19867000
4.15039063,-100.27220000
4.18090820,-85.20463000
4.21142578,-76.79530000
4.24194336,-74.59364000
4.27246094,-76.71394000
4.30297852,-84.76807000
4.33349609,-90.06359000
4.36401367,-84.80898000
4.39453125,-87.86213000
4.42504883,-90.73093000
4.45556641,-88.94283000
4.48608398,-82.40227000
4.51660156,-78.01520000
4.54711914,-76.20155000
4.57763672,-76.69553000
4.60815430,-78.67853000
4.63867188,-76.20782000
4.66918945,-74.70679000
4.69970703,-78.25597000
4.73022461,-91.11035000
4.76074219,-85.33437000
4.79125977,-87.44032000
4.82177734,-93.73938000
4.85229492,-85.90842000
4.88281250,-87.84011000
4.91333008,-95.77328000
4.94384766,-85.13658000
4.97436523,-86.21841000
5.00488281,-101.53400000
5.03540039,-81.88483000
5.06591797,-76.87795000
5.09643555,-75.81161000
5.12695313,-78.34339000
5.15747070,-85.20815000
5.18798828,-88.84639000
5.21850586,-95.46745000
5.24902344,-85.96999000
5.27954102,-82.79816000
5.31005859,-88.34341000
5.34057617,-88.54607000
5.37109375,-79.39736000
5.40161133,-77.94611000
5.43212891,-82.28271000
5.46264648,-94.54733000
5.49316406,-79.33972000
5.52368164,-76.78490000
5.55419922,-78.88931000
5.58471680,-87.62307000
5.61523438,-93.94306000
5.64575195,-94.47879000
5.67626953,-91.21974000
5.70678711,-84.14397000
5.73730469,-84.57697000
5.76782227,-102.28250000
5.79833984,-83.45200000
5.82885742,-79.48885000
5.85937500,-82.32056000
5.88989258,-91.06243000
5.92041016,-81.72585000
5.95092773,-79.94418000
5.98144531,-82.55421000
6.01196289,-84.71020000
6.04248047,-83.57954000
6.07299805,-86.88359000
6.10351563,-90.09119000
6.13403320,-85.04546000
6.16455078,-86.58707000
6.19506836,-85.88759000
6.22558594,-82.37791000
6.25610352,-82.53577000
6.28662109,-86.34967000
6.31713867,-97.96724000
6.34765625,-87.26746000
6.37817383,-84.48610000
6.40869141,-87.47322000
6.43920898,-85.18297000
6.46972656,-81.83715000
6.50024414,-82.78171000
6.53076172,-86.76362000
6.56127930,-87.52872000
6.59179688,-86.04633000
6.62231445,-88.61673000
6.65283203,-91.43512000
6.68334961,-85.55188000
6.71386719,-84.02009000
6.74438477,-86.20587000
6.77490234,-89.49192000
6.80541992,-96.58593000
6.83593750,-85.68378000
6.86645508,-78.66825000
6.89697266,-76.99245000
6.92749023,-79.25211000
6.95800781,-85.59747000
6.98852539,-91.50867000
7.01904297,-89.80952000
7.04956055,-89.38781000
7.08007813,-87.72046000
7.11059570,-87.73528000
7.14111328,-91.90030000
7.17163086,-93.84060000
7.20214844,-88.10382000
7.23266602,-86.92525000
7.26318359,-87.54485000
7.29370117,-82.86590000
7.32421875,-81.44363000
7.35473633,-84.98172000
7.38525391,-92.56219000
7.41577148,-91.66004000
7.44628906,-96.52366000
7.47680664,-99.03850000
7.50732422,-91.52915000
7.53784180,-91.83842000
7.56835938,-95.36147000
7.59887695,-98.34229000
7.62939453,-100.39270000
7.65991211,-96.44222000
7.69042969,-92.45882000
7.72094727,-84.21584000
7.75146484,-79.73018000
7.78198242,-79.37423000
7.81250000,-83.34787000
7.84301758,-94.31034000
7.87353516,-100.54800000
7.90405273,-92.03742000
7.93457031,-86.13651000
7.96508789,-84.57763000
7.99560547,-87.66250000
8.02612305,-94.05937000
8.05664063,-87.76999000
8.08715820,-87.86740000
8.11767578,-100.39740000
8.14819336,-88.33232000
8.17871094,-83.52738000
8.20922852,-84.21686000
8.23974609,-92.05276000
8.27026367,-94.91875000
8.30078125,-89.68688000
8.33129883,-97.60330000
8.36181641,-93.61313000
8.39233398,-88.90568000
8.42285156,-89.61093000
8.45336914,-88.29599000
8.48388672,-87.12459000
8.51440430,-89.71524000
8.54492188,-96.99859000
8.57543945,-93.43388000
8.60595703,-84.94615000
8.63647461,-81.02702000
8.66699219,-80.49272000
8.69750977,-83.02850000
8.72802734,-88.78084000
8.75854492,-99.56541000
8.78906250,-99.66159000
8.81958008,-93.46870000
8.85009766,-92.10963000
8.88061523,-89.59199000
8.91113281,-86.90015000
8.94165039,-86.69990000
8.97216797,-91.33498000
9.00268555,-90.50530000
9.03320313,-82.59381000
9.06372070,-80.14861000
9.09423828,-81.29137000
9.12475586,-85.50632000
9.15527344,-91.00465000
9.18579102,-93.73790000
9.21630859,-91.72525000
9.24682617,-88.83994000
9.27734375,-88.95545000
9.30786133,-93.48865000
9.33837891,-100.51330000
9.36889648,-106.43190000
9.39941406,-97.33491000
9.42993164,-89.18320000
9.46044922,-86.47479000
9.49096680,-84.53391000
9.52148438,-81.27324000
9.55200195,-79.04797000
9.58251953,-79.25793000
9.61303711,-81.91196000
9.64355469,-85.80457000
9.67407227,-89.70303000
9.70458984,-101.37950000
9.73510742,-93.29159000
9.76562500,-88.01091000
9.79614258,-89.16294000
9.82666016,-96.29478000
9.85717773,-96.33313000
9.88769531,-89.81605000
9.91821289,-86.79033000
9.94873047,-81.18042000
9.97924805,-77.14410000
10.00976563,-76.10886000
10.04028320,-77.70952000
10.07080078,-80.87117000
10.10131836,-83.61960000
10.13183594,-86.59555000
10.16235352,-91.68682000
10.19287109,-90.58295000
10.22338867,-86.53091000
10.25390625,-86.51565000
10.28442383,-90.69485000
10.31494141,-90.23876000
10.34545898,-89.04356000
10.37597656,-88.45258000
10.40649414,-81.21500000
10.43701172,-78.66358000
10.46752930,-80.66595000
10.49804688,-89.49379000
10.52856445,-93.18506000
10.55908203,-86.02238000
10.58959961,-84.01843000
10.62011719,-83.74492000
10.65063477,-85.41612000
10.68115234,-88.17288000
10.71166992,-87.69570000
10.74218750,-84.48036000
10.77270508,-83.53916000
10.80322266,-86.23131000
10.83374023,-84.41039000
10.86425781,-78.45387000
10.89477539,-76.14919000
10.92529297,-76.95340000
10.95581055,-79.42605000
10.98632813,-79.41747000
11.01684570,-78.60802000
11.04736328,-79.42048000
11.07788086,-82.07187000
11.10839844,-86.83139000
11.13891602,-89.49274000
11.16943359,-89.93877000
11.19995117,-88.94196000
11.23046875,-85.99972000
11.26098633,-86.62952000
11.29150391,-91.31358000
11.32202148,-92.88364000
11.35253906,-89.46455000
11.38305664,-89.38808000
11.41357422,-95.14154000
11.44409180,-90.74143000
11.47460938,-88.44412000
11.50512695,-88.14436000
11.53564453,-86.21831000
11.56616211,-81.59450000
11.59667969,-79.34872000
11.62719727,-81.39276000
11.65771484,-95.25842000
11.68823242,-83.41960000
11.71875000,-78.97933000
11.74926758,-80.15680000
11.77978516,-85.91889000
11.81030273,-91.97096000
11.84082031,-85.73739000
11.87133789,-79.55838000
11.90185547,-76.23944000
11.93237305,-75.56519000
11.96289063,-77.00060000
11.99340820,-79.27762000
12.02392578,-81.91814000
12.05444336,-89.14905000
12.08496094,-93.52425000
12.11547852,-83.89922000
12.14599609,-81.91852000
12.17651367,-82.70583000
12.20703125,-85.37367000
12.23754883,-89.90872000
12.26806641,-93.83159000
12.29858398,-91.98289000
12.32910156,-87.53680000
12.35961914,-86.47218000
12.39013672,-89.09962000
12.42065430,-84.64049000
12.45117188,-79.29557000
12.48168945,-77.79314000
12.51220703,-79.81268000
12.54272461,-85.40585000
12.57324219,-87.91240000
12.60375977,-84.87217000
12.63427734,-81.58817000
12.66479492,-79.26282000
12.69531250,-79.32951000
12.72583008,-79.35919000
12.75634766,-76.64203000
12.78686523,-75.11137000
12.81738281,-75.22874000
12.84790039,-75.75505000
12.87841797,-76.56882000
12.90893555,-78.55608000
12.93945313,-81.49455000
12.96997070,-84.16114000
13.00048828,-88.03623000
13.03100586,-88.80478000
13.06152344,-83.12595000
13.09204102,-79.81894000
13.12255859,-79.41927000
13.15307617,-81.71828000
13.18359375,-86.20674000
13.21411133,-87.84835000
13.24462891,-83.44494000
13.27514648,-80.10670000
13.30566406,-79.05540000
13.33618164,-80.12695000
13.36669922,-81.32015000
13.39721680,-81.73981000
13.42773438,-84.19624000
13.45825195,-95.30032000
13.48876953,-77.76089000
13.51928711,-70.08157000
13.54980469,-66.80623000
13.58032227,-67.14959000
13.61083984,-71.67419000
13.64135742,-74.74104000
13.67187500,-69.93498000
13.70239258,-69.20281000
13.73291016,-72.52081000
13.76342773,-81.84715000
13.79394531,-88.35220000
13.82446289,-86.38632000
13.85498047,-93.39985000
13.88549805,-104.59990000
13.91601563,-94.36214000
13.94653320,-83.86598000
13.97705078,-79.95496000
14.00756836,-80.37506000
14.03808594,-83.43544000
14.06860352,-81.90643000
14.09912109,-80.78846000
14.12963867,-84.27074000
14.16015625,-90.65182000
14.19067383,-87.64558000
14.22119141,-90.34859000
14.25170898,-103.32540000
14.28222656,-96.91400000
14.31274414,-93.18765000
14.34326172,-85.55869000
14.37377930,-82.10753000
14.40429688,-81.50433000
14.43481445,-84.05068000
14.46533203,-91.96397000
14.49584961,-90.27630000
14.52636719,-87.41001000
14.55688477,-86.87654000
14.58740234,-83.59451000
14.61791992,-79.57463000
14.64843750,-77.67307000
14.67895508,-78.34406000
14.70947266,-81.33484000
14.73999023,-86.50880000
14.77050781,-93.54790000
14.80102539,-95.14695000
14.83154297,-88.53677000
14.86206055,-83.97427000
14.89257813,-81.83644000
14.92309570,-81.44555000
14.95361328,-82.74873000
14.98413086,-85.76031000
15.01464844,-90.31299000
15.04516602,-97.13744000
15.07568359,-97.32303000
15.10620117,-92.01600000
15.13671875,-95.71542000
15.16723633,-96.31087000
15.19775391,-86.08458000
15.22827148,-83.42903000
15.25878906,-84.69981000
15.28930664,-85.48799000
15.31982422,-82.32610000
15.35034180,-80.97652000
15.38085938,-81.60882000
15.41137695,-83.88138000
15.44189453,-88.41805000
15.47241211,-92.14639000
15.50292969,-86.27368000
15.53344727,-80.11742000
15.56396484,-76.72733000
15.59448242,-75.99528000
15.62500000,-77.70560000
15.65551758,-81.92316000
15.68603516,-88.04047000
15.71655273,-87.08826000
15.74707031,-83.90496000
15.77758789,-84.08633000
15.80810547,-88.82643000
15.83862305,-106.44040000
15.86914063,-96.89032000
15.89965820,-101.13190000
15.93017578,-96.79059000
15.96069336,-88.98963000
15.99121094,-87.39379000
16.02172852,-90.80978000
16.05224609,-101.28960000
16.08276367,-91.30311000
16.11328125,-90.79032000
16.14379883,-106.39880000
16.17431641,-87.76931000
16.20483398,-84.06314000
16.23535156,-86.26166000
16.26586914,-95.73102000
16.29638672,-92.83959000
16.32690430,-88.93948000
16.35742188,-90.91076000
16.38793945,-107.09480000
16.41845703,-94.87932000
16.44897461,-96.35453000
16.47949219,-98.60101000
16.51000977,-89.25455000
16.54052734,-89.67509000
16.57104492,-92.83367000
16.60156250,-90.51381000
16.63208008,-88.90580000
16.66259766,-89.97914000
16.69311523,-94.57941000
16.72363281,-107.46440000
16.75415039,-103.45720000
16.78466797,-95.54143000
16.81518555,-90.28583000
16.84570313,-89.27336000
16.87622070,-94.88931000
16.90673828,-95.00591000
16.93725586,-88.86547000
16.96777344,-89.05437000
16.99829102,-95.62707000
17.02880859,-97.18837000
17.05932617,-86.89194000
17.08984375,-84.27077000
17.12036133,-85.75014000
17.15087891,-90.79938000
17.18139648,-96.28320000
17.21191406,-96.09989000
17.24243164,-93.35201000
17.27294922,-90.63754000
17.30346680,-88.75146000
17.33398438,-87.72008000
17.36450195,-87.38399000
17.39501953,-87.85003000
17.42553711,-89.98610000
17.45605469,-92.75796000
17.48657227,-88.59371000
17.51708984,-84.63131000
17.54760742,-82.76183000
17.57812500,-83.03400000
17.60864258,-85.75657000
17.63916016,-89.98895000
17.66967773,-92.07841000
17.70019531,-90.24139000
17.73071289,-85.61244000
17.76123047,-78.06917000
17.79174805,-73.17827000
17.82226563,-71.79228000
17.85278320,-73.81876000
17.88330078,-79.51339000
17.91381836,-88.64052000
17.94433594,-92.11940000
17.97485352,-88.19792000
18.00537109,-86.83282000
18.03588867,-88.52350000
18.06640625,-93.60656000
18.09692383,-104.90470000
18.12744141,-101.06430000
18.15795898,-112.49700000
18.18847656,-97.77489000
18.21899414,-92.90795000
18.24951172,-93.47594000
18.28002930,-96.88429000
18.31054688,-97.85968000
18.34106445,-95.08981000
18.37158203,-96.01391000
18.40209961,-92.02193000
18.43261719,-87.65131000
18.46313477,-87.43870000
18.49365234,-91.94188000
18.52416992,-108.59700000
18.55468750,-101.03310000
18.58520508,-107.86660000
18.61572266,-100.66340000
18.64624023,-94.63540000
18.67675781,-93.96375000
18.70727539,-93.21560000
18.73779297,-92.54871000
18.76831055,-92.08003000
18.79882813,-90.87597000
18.82934570,-89.82434000
18.85986328,-87.99738000
18.89038086,-88.90121000
18.92089844,-96.76340000
18.95141602,-102.56500000
18.98193359,-97.07005000
19.01245117,-99.57637000
19.04296875,-95.24561000
19.07348633,-92.68269000
19.10400391,-93.44418000
19.13452148,-96.47293000
19.16503906,-99.05854000
19.19555664,-97.87598000
19.22607422,-98.57255000
19.25659180,-98.13674000
19.28710938,-90.82459000
19.31762695,-88.63862000
19.34814453,-91.26233000
19.37866211,-98.47877000
19.40917969,-97.83119000
19.43969727,-98.49477000
19.47021484,-110.16880000
19.50073242,-103.38190000
19.53125000,-99.77398000
19.56176758,-104.59340000
19.59228516,-104.71870000
19.62280273,-100.17480000
19.65332031,-98.19176000
19.68383789,-96.58792000
19.71435547,-93.64049000
19.74487305,-91.14375000
19.77539063,-91.88757000
19.80590820,-97.55691000
19.83642578,-122.65320000
19.86694336,-96.71413000
19.89746094,-89.17746000
19.92797852,-86.04077000
19.95849609,-86.33358000
19.98901367,-89.71272000
20.01953125,-97.74202000
20.05004883,-104.13620000
20.08056641,-94.50225000
20.11108398,-94.22062000
20.14160156,-93.99133000
20.17211914,-89.24875000
20.20263672,-87.10468000
20.23315430,-88.18356000
20.26367188,-91.31348000
20.29418945,-95.13741000
20.32470703,-100.37470000
20.35522461,-94.76983000
20.38574219,-91.40099000
20.41625977,-91.12365000
20.44677734,-94.49546000
20.47729492,-106.50530000
20.50781250,-100.44430000
20.53833008,-99.97447000
20.56884766,-108.63800000
20.59936523,-97.59779000
20.62988281,-92.66880000
20.66040039,-91.07420000
20.69091797,-91.26913000
20.72143555,-95.25451000
20.75195313,-102.46750000
20.78247070,-93.28792000
20.81298828,-90.66074000
20.84350586,-90.46542000
20.87402344,-90.93805000
20.90454102,-92.59911000
20.93505859,-95.70270000
20.96557617,-93.87775000
20.99609375,-91.20423000
21.02661133,-90.08621000
21.05712891,-89.71922000
21.08764648,-89.51608000
21.11816406,-90.85336000
21.14868164,-98.43439000
21.17919922,-100.45960000
21.20971680,-93.70121000
21.24023438,-96.09071000
21.27075195,-99.83957000
21.30126953,-91.90097000
21.33178711,-89.72690000
21.36230469,-91.24829000
21.39282227,-94.92970000
21.42333984,-98.39462000
21.45385742,-99.61829000
21.48437500,-98.27651000
21.51489258,-92.70515000
21.54541016,-89.89377000
21.57592773,-91.44196000
21.60644531,-97.43465000
21.63696289,-96.58593000
21.66748047,-95.93749000
21.69799805,-93.33076000
21.72851563,-89.58248000
21.75903320,-88.66507000
21.78955078,-89.48427000
21.82006836,-91.44669000
21.85058594,-95.72712000
21.88110352,-108.42450000
21.91162109,-97.86365000
21.94213867,-91.25011000
21.97265625,-89.62304000
22.00317383,-92.58186000
22.03369141,-100.79020000
22.06420898,-95.84535000
22.09472656,-95.79633000
22.12524414,-106.72070000
22.15576172,-98.69564000
22.18627930,-92.99266000
22.21679688,-92.99442000
22.24731445,-97.94112000
22.27783203,-110.85030000
22.30834961,-106.01210000
22.33886719,-102.11570000
22.36938477,-94.85301000
22.39990234,-90.79082000
22.43041992,-89.61041000
22.46093750,-90.97699000
22.49145508,-94.93550000
22.52197266,-100.18270000
22.55249023,-101.20230000
22.58300781,-99.88384000
22.61352539,-100.26120000
22.64404297,-105.05610000
22.67456055,-115.28090000
22.70507813,-104.29570000
22.73559570,-101.27240000
22.76611328,-97.50175000
22.79663086,-92.68492000
22.82714844,-89.90959000
22.85766602,-89.01048000
22.88818359,-89.61089000
22.91870117,-91.47052000
22.94921875,-92.96881000
22.97973633,-92.28486000
23.01025391,-92.68302000
23.04077148,-96.00984000
23.07128906,-100.59670000
23.10180664,-99.82932000
23.13232422,-95.78828000
23.16284180,-94.56143000
23.19335938,-97.18082000
23.22387695,-100.46320000
23.25439453,-99.85661000
23.28491211,-104.85960000
23.31542969,-116.22350000
23.34594727,-112.25510000
23.37646484,-100.84370000
23.40698242,-94.00117000
23.43750000,-92.14725000
23.46801758,-93.06588000
23.49853516,-96.47750000
23.52905273,-105.86230000
23.55957031,-103.95920000
23.59008789,-100.25760000
23.62060547,-104.88900000
23.65112305,-112.45760000
23.68164063,-100.12040000
23.71215820,-97.09479000
23.74267578,-97.39246000
23.77319336,-101.89110000
23.80371094,-110.29490000
23.83422852,-97.97843000
23.86474609,-96.36435000
23.89526367,-96.00247000
23.92578125,-91.01739000
23.95629883,-88.74444000
23.98681641,-88.92326000
24.01733398,-89.66136000
24.04785156,-90.44795000
24.07836914,-91.39098000
24.10888672,-92.31953000
24.13940430,-94.66447000
24.16992188,-99.98765000
24.20043945,-104.97710000
24.23095703,-106.63460000
24.26147461,-117.33110000
24.29199219,-109.53430000
24.32250977,-104.45100000
24.35302734,-101.60360000
24.38354492,-98.91829000
24.41406250,-96.29744000
24.44458008,-94.51476000
24.47509766,-94.12515000
24.50561523,-95.84361000
24.53613281,-101.71910000
24.56665039,-115.20330000
24.59716797,-100.40080000
24.62768555,-96.75861000
24.65820313,-94.65102000
24.68872070,-93.48593000
24.71923828,-93.89891000
24.74975586,-96.60114000
24.78027344,-100.99970000
24.81079102,-99.16899000
24.84130859,-96.95184000
24.87182617,-97.97391000
24.90234375,-101.34100000
24.93286133,-97.25880000
24.96337891,-93.70950000
24.99389648,-94.17202000
25.02441406,-99.00318000
25.05493164,-110.50490000
25.08544922,-105.84540000
25.11596680,-101.12100000
25.14648438,-97.82653000
25.17700195,-94.88391000
25.20751953,-92.35958000
25.23803711,-91.28873000
25.26855469,-92.75000000
25.29907227,-97.07085000
25.32958984,-100.54520000
25.36010742,-99.73677000
25.39062500,-99.55876000
25.42114258,-99.97717000
25.45166016,-100.56510000
25.48217773,-100.54750000
25.51269531,-95.96381000
25.54321289,-92.03857000
25.57373047,-91.05201000
25.60424805,-92.30154000
25.63476563,-95.02715000
25.66528320,-98.60592000
25.69580078,-98.34777000
25.72631836,-93.78983000
25.75683594,-91.20973000
25.78735352,-91.43792000
25.81787109,-94.88113000
25.84838867,-98.00525000
25.87890625,-94.31047000
25.90942383,-92.33837000
25.93994141,-90.57898000
25.97045898,-89.34319000
26.00097656,-90.62782000
26.03149414,-95.78574000
26.06201172,-105.28500000
26.09252930,-98.85411000
26.12304688,-96.48182000
26.15356445,-98.13290000
26.18408203,-99.77375000
26.21459961,-94.85393000
26.24511719,-92.72716000
26.27563477,-94.63055000
26.30615234,-100.41260000
26.33666992,-100.45310000
26.36718750,-103.22530000
26.39770508,-103.79100000
26.42822266,-95.44370000
26.45874023,-93.78338000
26.48925781,-94.59081000
26.51977539,-95.53461000
26.55029297,-96.10070000
26.58081055,-97.24221000
26.61132813,-99.07894000
26.64184570,-100.88520000
26.67236328,-103.28390000
26.70288086,-104.91170000
26.73339844,-101.64400000
26.76391602,-101.31370000
26.79443359,-114.28070000
26.82495117,-99.92471000
26.85546875,-94.18758000
26.88598633,-94.23417000
26.91650391,-99.26812000
26.94702148,-103.11470000
26.97753906,-105.00800000
27.00805664,-106.74410000
27.03857422,-101.82220000
27.06909180,-104.38330000
27.09960938,-104.59350000
27.13012695,-99.10500000
27.16064453,-96.90193000
27.19116211,-96.28912000
27.22167969,-95.96211000
27.25219727,-94.60432000
27.28271484,-92.93145000
27.31323242,-92.55853000
27.34375000,-93.72487000
27.37426758,-95.76340000
27.40478516,-97.82459000
27.43530273,-98.23986000
27.46582031,-96.30112000
27.49633789,-94.12185000
27.52685547,-93.54778000
27.55737305,-95.12096000
27.58789063,-98.60858000
27.61840820,-103.96390000
27.64892578,-105.95020000
27.67944336,-99.42482000
27.70996094,-93.63214000
27.74047852,-89.67613000
27.77099609,-88.77205000
27.80151367,-91.16135000
27.83203125,-95.99606000
27.86254883,-99.35731000
27.89306641,-97.82589000
27.92358398,-95.60494000
27.95410156,-94.61481000
27.98461914,-94.57851000
28.01513672,-95.56711000
28.04565430,-96.79771000
28.07617188,-96.02510000
28.10668945,-95.44757000
28.13720703,-100.07550000
28.16772461,-104.05720000
28.19824219,-93.25084000
28.22875977,-90.37549000
28.25927734,-90.37399000
28.28979492,-92.04765000
28.32031250,-94.44894000
28.35083008,-96.43126000
28.38134766,-98.78912000
28.41186523,-106.35260000
28.44238281,-107.50390000
28.47290039,-100.26200000
28.50341797,-99.31792000
28.53393555,-98.32215000
28.56445313,-96.65831000
28.59497070,-96.11789000
28.62548828,-96.77529000
28.65600586,-97.58396000
28.68652344,-96.90427000
28.71704102,-94.70890000
28.74755859,-93.01025000
28.77807617,-93.13895000
28.80859375,-95.22115000
28.83911133,-96.53923000
28.86962891,-94.80775000
28.90014648,-94.07982000
28.93066406,-95.82790000
28.96118164,-99.64490000
28.99169922,-102.34030000
29.02221680,-100.05330000
29.05273438,-96.20652000
29.08325195,-94.74054000
29.11376953,-96.47499000
29.14428711,-101.75800000
29.17480469,-102.68880000
29.20532227,-102.95330000
29.23583984,-100.02140000
29.26635742,-93.36816000
29.29687500,-91.77555000
29.32739258,-93.68471000
29.35791016,-96.04398000
29.38842773,-98.21848000
29.41894531,-105.33240000
29.44946289,-102.97210000
29.47998047,-96.70043000
29.51049805,-94.37951000
29.54101563,-94.50681000
29.57153320,-96.75849000
29.60205078,-101.02530000
29.63256836,-106.09280000
29.66308594,-100.57430000
29.69360352,-94.70871000
29.72412109,-90.36655000
29.75463867,-88.08084000
29.78515625,-88.31343000
29.81567383,-91.10101000
29.84619141,-95.68584000
29.87670898,-99.79208000
29.90722656,-105.97220000
29.93774414,-96.76518000
29.96826172,-91.89942000
29.99877930,-91.42915000
30.02929688,-92.43621000
30.05981445,-92.12939000
30.09033203,-92.62529000
30.12084961,-96.24839000
30.15136719,-106.13760000
30.18188477,-103.74310000
30.21240234,-99.22215000
30.24291992,-97.86865000
30.27343750,-98.28858000
30.30395508,-100.26590000
30.33447266,-110.21470000
30.36499023,-99.90936000
30.39550781,-92.69604000
30.42602539,-90.30936000
30.45654297,-90.11574000
30.48706055,-91.44859000
30.51757813,-94.98579000
30.54809570,-97.39778000
30.57861328,-93.53013000
30.60913086,-92.86041000
30.63964844,-95.70018000
30.67016602,-96.76880000
30.70068359,-95.47600000
30.73120117,-96.88050000
30.76171875,-99.10249000
30.79223633,-96.33506000
30.82275391,-92.10178000
30.85327148,-89.98307000
30.88378906,-90.85625000
30.91430664,-94.59129000
30.94482422,-96.22792000
30.97534180,-94.41293000
31.00585938,-93.68623000
31.03637695,-93.93903000
31.06689453,-95.04665000
31.09741211,-96.73287000
31.12792969,-98.53946000
31.15844727,-101.04440000
31.18896484,-105.45850000
31.21948242,-100.77440000
31.25000000,-94.33303000
31.28051758,-91.47884000
31.31103516,-91.76527000
31.34155273,-94.72823000
31.37207031,-98.67591000
31.40258789,-101.29390000
31.43310547,-102.71800000
31.46362305,-102.85500000
31.49414063,-103.14080000
31.52465820,-108.75610000
31.55517578,-109.51510000
31.58569336,-100.39040000
31.61621094,-98.25189000
31.64672852,-97.72052000
31.67724609,-95.89412000
31.70776367,-91.42505000
31.73828125,-88.15244000
31.76879883,-87.82485000
31.79931641,-89.82430000
31.82983398,-91.40796000
31.86035156,-91.86558000
31.89086914,-92.65247000
31.92138672,-93.47667000
31.95190430,-94.33380000
31.98242188,-95.13050000
32.01293945,-96.80495000
32.04345703,-99.63454000
32.07397461,-97.05529000
32.10449219,-94.70264000
32.13500977,-93.35446000
32.16552734,-91.83968000
32.19604492,-90.64101000
32.22656250,-90.18634000
32.25708008,-90.51736000
32.28759766,-91.67893000
32.31811523,-94.02885000
32.34863281,-98.37589000
32.37915039,-104.56290000
32.40966797,-106.80760000
32.44018555,-101.38790000
32.47070313,-96.68370000
32.50122070,-94.88206000
32.53173828,-95.32077000
32.56225586,-96.34737000
32.59277344,-92.00925000
32.62329102,-87.80557000
32.65380859,-87.07404000
32.68432617,-90.48175000
32.71484375,-101.13280000
32.74536133,-102.00950000
32.77587891,-98.22594000
32.80639648,-97.46403000
32.83691406,-97.80442000
32.86743164,-99.94755000
32.89794922,-103.58380000
32.92846680,-107.03080000
32.95898438,-107.32820000
32.98950195,-102.78480000
33.02001953,-97.24876000
33.05053711,-94.24138000
33.08105469,-94.94884000
33.11157227,-98.61885000
33.14208984,-95.06969000
33.17260742,-92.03264000
33.20312500,-91.86515000
33.23364258,-92.67805000
33.26416016,-92.64140000
33.29467773,-92.32246000
33.32519531,-93.20972000
33.35571289,-95.34583000
33.38623047,-95.27977000
33.41674805,-93.57629000
33.44726563,-93.26813000
33.47778320,-92.31573000
33.50830078,-89.93843000
33.53881836,-89.09970000
33.56933594,-91.15791000
33.59985352,-96.71760000
33.63037109,-96.99165000
33.66088867,-93.26880000
33.69140625,-92.50133000
33.72192383,-93.91667000
33.75244141,-97.08584000
33.78295898,-101.64210000
33.81347656,-105.91110000
33.84399414,-106.28540000
33.87451172,-101.14940000
33.90502930,-96.11832000
33.93554688,-93.02548000
33.96606445,-91.87778000
33.99658203,-92.56369000
34.02709961,-94.16521000
34.05761719,-94.87370000
34.08813477,-94.73930000
34.11865234,-94.47959000
34.14916992,-93.69170000
34.17968750,-93.38312000
34.21020508,-95.57099000
34.24072266,-102.62090000
34.27124023,-101.49990000
34.30175781,-96.21252000
34.33227539,-94.02869000
34.36279297,-92.79328000
34.39331055,-92.52817000
34.42382813,-93.80046000
34.45434570,-95.85364000
34.48486328,-97.25592000
34.51538086,-98.91956000
34.54589844,-101.36000000
34.57641602,-104.17680000
34.60693359,-106.09070000
34.63745117,-104.41650000
34.66796875,-103.36130000
34.69848633,-104.00910000
34.72900391,-107.26500000
34.75952148,-130.02200000
34.79003906,-105.86290000
34.82055664,-102.98300000
34.85107422,-104.75360000
34.88159180,-105.11260000
34.91210938,-104.59900000
34.94262695,-106.03290000
34.97314453,-108.81470000
35.00366211,-110.35230000
35.03417969,-117.07220000
35.06469727,-110.56140000
35.09521484,-103.80210000
35.12573242,-101.36530000
35.15625000,-100.35630000
35.18676758,-101.16780000
35.21728516,-108.55970000
35.24780273,-100.02380000
35.27832031,-94.54636000
35.30883789,-95.52651000
35.33935547,-109.51000000
35.36987305,-97.22217000
35.40039063,-92.47071000
35.43090820,-92.94315000
35.46142578,-97.83794000
35.49194336,-103.75110000
35.52246094,-100.20190000
35.55297852,-100.05720000
35.58349609,-101.09140000
35.61401367,-105.70610000
35.64453125,-104.92460000
35.67504883,-98.33263000
35.70556641,-97.76889000
35.73608398,-101.18970000
35.76660156,-105.39520000
35.79711914,-104.24590000
35.82763672,-104.45550000
35.85815430,-104.07170000
35.88867188,-99.82796000
35.91918945,-99.34802000
35.94970703,-102.40380000
35.98022461,-101.00440000
36.01074219,-97.57996000
36.04125977,-96.74147000
36.07177734,-97.05979000
36.10229492,-96.29207000
36.13281250,-94.11827000
36.16333008,-92.48846000
36.19384766,-93.36167000
36.22436523,-98.04595000
36.25488281,-109.57710000
36.28540039,-110.89690000
36.31591797,-106.45870000
36.34643555,-106.56760000
36.37695313,-106.90960000
36.40747070,-102.77710000
36.43798828,-98.90932000
36.46850586,-97.87660000
36.49902344,-99.54205000
36.52954102,-102.49890000
36.56005859,-101.95560000
36.59057617,-98.47896000
36.62109375,-96.72241000
36.65161133,-98.34341000
36.68212891,-104.52140000
36.71264648,-105.27130000
36.74316406,-105.89190000
36.77368164,-117.24440000
36.80419922,-101.85990000
36.83471680,-98.83244000
36.86523438,-98.51831000
36.89575195,-97.80751000
36.92626953,-98.08614000
36.95678711,-101.21100000
36.98730469,-109.73520000
37.01782227,-103.32480000
37.04833984,-98.87444000
37.07885742,-99.84410000
37.10937500,-101.39280000
37.13989258,-101.70930000
37.17041016,-105.29950000
37.20092773,-97.27878000
37.23144531,-93.38334000
37.26196289,-93.29278000
37.29248047,-95.87119000
37.32299805,-99.67842000
37.35351563,-101.40200000
37.38403320,-100.57340000
37.41455078,-101.28010000
37.44506836,-105.30640000
37.47558594,-100.80680000
37.50610352,-95.96073000
37.53662109,-94.50540000
37.56713867,-95.37803000
37.59765625,-98.05852000
37.62817383,-102.79770000
37.65869141,-105.49490000
37.68920898,-103.16240000
37.71972656,-102.94420000
37.75024414,-103.14520000
37.78076172,-101.44400000
37.81127930,-98.88920000
37.84179688,-97.00253000
37.87231445,-95.51500000
37.90283203,-94.35449000
37.93334961,-94.20636000
37.96386719,-94.74036000
37.99438477,-94.91615000
38.02490234,-95.01929000
38.05541992,-95.23956000
38.08593750,-95.29773000
38.11645508,-96.25713000
38.14697266,-97.26615000
38.17749023,-95.91278000
38.20800781,-94.59323000
38.23852539,-93.41878000
38.26904297,-91.96098000
38.29956055,-90.03433000
38.33007813,-88.43816000
38.36059570,-88.24722000
38.39111328,-89.40796000
38.42163086,-91.71574000
38.45214844,-95.76862000
38.48266602,-100.73640000
38.51318359,-100.31330000
38.54370117,-97.84178000
38.57421875,-96.91347000
38.60473633,-97.92952000
38.63525391,-103.39820000
38.66577148,-106.26910000
38.69628906,-95.79590000
38.72680664,-93.87238000
38.75732422,-97.47144000
38.78784180,-106.35390000
38.81835938,-100.09830000
38.84887695,-97.82981000
38.87939453,-93.87588000
38.90991211,-90.93359000
38.94042969,-90.21346000
38.97094727,-91.66856000
39.00146484,-95.92075000
39.03198242,-99.43742000
39.06250000,-96.68550000
39.09301758,-96.32414000
39.12353516,-98.29689000
39.15405273,-100.93520000
39.18457031,-101.03360000
39.21508789,-97.61608000
39.24560547,-93.18195000
39.27612305,-90.30470000
39.30664063,-89.79135000
39.33715820,-91.87222000
39.36767578,-95.94933000
39.39819336,-98.40088000
39.42871094,-96.12340000
39.45922852,-93.77158000
39.48974609,-93.17031000
39.52026367,-93.62266000
39.55078125,-94.36891000
39.58129883,-96.28996000
39.61181641,-102.88380000
39.64233398,-102.55510000
39.67285156,-94.85463000
39.70336914,-92.22703000
39.73388672,-91.83034000
39.76440430,-92.83051000
39.79492188,-94.28597000
39.82543945,-95.27789000
39.85595703,-96.67889000
39.88647461,-99.39404000
39.91699219,-101.89160000
39.94750977,-100.87540000
39.97802734,-97.50497000
40.00854492,-97.87515000
40.03906250,-104.21920000
40.06958008,-101.25730000
40.10009766,-103.56460000
40.13061523,-101.00570000
40.16113281,-92.39639000
40.19165039,-91.29721000
40.22216797,-95.28255000
40.25268555,-103.57830000
40.28320313,-99.25854000
40.31372070,-99.39162000
40.34423828,-104.80210000
40.37475586,-108.33400000
40.40527344,-98.41489000
40.43579102,-91.25168000
40.46630859,-88.41519000
40.49682617,-89.06142000
40.52734375,-93.29021000
40.55786133,-96.69501000
40.58837891,-93.02496000
40.61889648,-92.29854000
40.64941406,-94.46812000
40.67993164,-96.41501000
40.71044922,-93.79059000
40.74096680,-92.35810000
40.77148438,-94.31995000
40.80200195,-99.66500000
40.83251953,-105.21320000
40.86303711,-102.30300000
40.89355469,-96.80663000
40.92407227,-95.98999000
40.95458984,-99.54681000
40.98510742,-102.68770000
41.01562500,-97.48297000
41.04614258,-97.05511000
41.07666016,-101.61410000
41.10717773,-113.85630000
41.13769531,-103.10960000
41.16821289,-98.27083000
41.19873047,-95.44312000
41.22924805,-94.12350000
41.25976563,-93.59482000
41.29028320,-94.51412000
41.32080078,-98.89481000
41.35131836,-100.35820000
41.38183594,-98.71101000
41.41235352,-103.86670000
41.44287109,-100.33240000
41.47338867,-94.29440000
41.50390625,-93.17433000
41.53442383,-98.16085000
41.56494141,-102.61660000
41.59545898,-92.15789000
41.62597656,-90.37556000
41.65649414,-91.70433000
41.68701172,-93.58064000
41.71752930,-94.51775000
41.74804688,-94.24464000
41.77856445,-93.16273000
41.80908203,-92.12711000
41.83959961,-93.55302000
41.87011719,-102.98660000
41.90063477,-90.11656000
41.93115234,-84.39922000
41.96166992,-82.73602000
41.99218750,-83.36312000
42.02270508,-85.10947000
42.05322266,-86.62323000
42.08374023,-87.14584000
42.11425781,-86.99077000
42.14477539,-86.19262000
42.17529297,-85.51726000
42.20581055,-85.92651000
42.23632813,-86.43799000
42.26684570,-85.69197000
42.29736328,-85.90346000
42.32788086,-87.93465000
42.35839844,-87.84076000
42.38891602,-85.68001000
42.41943359,-85.51904000
42.44995117,-88.38855000
42.48046875,-95.99673000
42.51098633,-97.62302000
42.54150391,-90.33937000
42.57202148,-87.69676000
42.60253906,-87.73696000
42.63305664,-89.33514000
42.66357422,-91.59013000
42.69409180,-95.22107000
42.72460938,-100.60350000
42.75512695,-99.22512000
42.78564453,-92.53030000
42.81616211,-87.89857000
42.84667969,-86.03783000
42.87719727,-86.14003000
42.90771484,-86.54492000
42.93823242,-86.16750000
42.96875000,-86.17236000
42.99926758,-87.12910000
43.02978516,-88.74348000
43.06030273,-91.28322000
43.09082031,-95.63828000
43.12133789,-95.76620000
43.15185547,-91.03191000
43.18237305,-88.83879000
43.21289063,-89.47481000
43.24340820,-94.09112000
43.27392578,-96.98312000
43.30444336,-90.82243000
43.33496094,-89.37701000
43.36547852,-91.45400000
43.39599609,-94.55443000
43.42651367,-93.07572000
43.45703125,-94.81286000
43.48754883,-103.24960000
43.51806641,-91.33525000
43.54858398,-89.19406000
43.57910156,-92.09418000
43.60961914,-97.03037000
43.64013672,-95.93362000
43.67065430,-93.42860000
43.70117188,-91.76935000
43.73168945,-91.53285000
43.76220703,-91.95892000
43.79272461,-91.76820000
43.82324219,-91.22073000
43.85375977,-90.83739000
43.88427734,-90.46616000
43.91479492,-89.32355000
43.94531250,-88.16638000
43.97583008,-88.09781000
44.00634766,-88.97939000
44.03686523,-90.20860000
44.06738281,-91.80692000
44.09790039,-93.50665000
44.12841797,-94.33541000
44.15893555,-94.96397000
44.18945313,-97.12875000
44.21997070,-99.81057000
44.25048828,-97.51995000
44.28100586,-96.41046000
44.31152344,-98.41686000
44.34204102,-97.68541000
44.37255859,-94.38393000
44.40307617,-93.11282000
44.43359375,-93.74863000
44.46411133,-95.91573000
44.49462891,-99.56804000
44.52514648,-99.71791000
44.55566406,-93.96292000
44.58618164,-90.31318000
44.61669922,-89.42139000
44.64721680,-91.24017000
44.67773438,-95.94485000
44.70825195,-100.05120000
44.73876953,-94.01753000
44.76928711,-90.56796000
44.79980469,-89.39347000
44.83032227,-88.92155000
44.86083984,-88.08537000
44.89135742,-87.09121000
44.92187500,-86.84549000
44.95239258,-87.85158000
44.98291016,-89.90903000
45.01342773,-92.42064000
45.04394531,-94.90753000
45.07446289,-96.11459000
45.10498047,-95.25191000
45.13549805,-94.17017000
45.16601563,-94.43411000
45.19653320,-96.70081000
45.22705078,-100.17180000
45.25756836,-102.02160000
45.28808594,-102.12680000
45.31860352,-100.22390000
45.34912109,-97.26123000
45.37963867,-95.67624000
45.41015625,-96.01762000
45.44067383,-97.37297000
45.47119141,-98.31054000
45.50170898,-96.72150000
45.53222656,-95.16112000
45.56274414,-98.21468000
45.59326172,-106.46840000
45.62377930,-96.46934000
45.65429688,-93.85934000
45.68481445,-95.52881000
45.71533203,-100.74350000
45.74584961,-98.04635000
45.77636719,-94.92993000
45.80688477,-93.67165000
45.83740234,-92.75880000
45.86791992,-92.85920000
45.89843750,-93.83704000
45.92895508,-95.34427000
45.95947266,-97.14891000
45.98999023,-97.95457000
46.02050781,-96.86375000
46.05102539,-95.56649000
46.08154297,-95.87608000
46.11206055,-98.31129000
46.14257813,-102.80790000
46.17309570,-109.74630000
46.20361328,-111.10600000
46.23413086,-107.73240000
46.26464844,-110.31240000
46.29516602,-100.04470000
46.32568359,-93.22380000
46.35620117,-90.44415000
46.38671875,-90.21857000
46.41723633,-91.43982000
46.44775391,-92.82619000
46.47827148,-93.67821000
46.50878906,-95.09334000
46.53930664,-97.99513000
46.56982422,-95.62206000
46.60034180,-92.56973000
46.63085938,-93.14342000
46.66137695,-94.51842000
46.69189453,-92.77935000
46.72241211,-92.45981000
46.75292969,-95.25025000
46.78344727,-101.94730000
46.81396484,-126.59270000
46.84448242,-107.32670000
46.87500000,-103.79870000
46.90551758,-102.88420000
46.93603516,-101.66630000
46.96655273,-100.19040000
46.99707031,-99.41473000
47.02758789,-100.20950000
47.05810547,-102.80830000
47.08862305,-106.11440000
47.11914063,-104.64380000
47.14965820,-98.82162000
47.18017578,-94.90907000
47.21069336,-93.37074000
47.24121094,-94.25943000
47.27172852,-100.00870000
47.30224609,-98.87257000
47.33276367,-92.58683000
47.36328125,-91.63454000
47.39379883,-94.02114000
47.42431641,-100.74470000
47.45483398,-99.24055000
47.48535156,-92.91557000
47.51586914,-91.01013000
47.54638672,-91.45563000
47.57690430,-92.49922000
47.60742188,-92.92287000
47.63793945,-93.05756000
47.66845703,-92.95493000
47.69897461,-93.01967000
47.72949219,-94.68559000
47.76000977,-97.86784000
47.79052734,-97.06085000
47.82104492,-94.41186000
47.85156250,-94.23473000
47.88208008,-98.74295000
47.91259766,-115.56350000
47.94311523,-98.01472000
47.97363281,-95.02445000
48.00415039,-94.05093000
48.03466797,-93.54982000
48.06518555,-94.35971000
48.09570313,-97.08527000
48.12622070,-101.12360000
48.15673828,-105.43070000
48.18725586,-96.26792000
48.21777344,-91.41480000
48.24829102,-90.66766000
48.27880859,-94.13339000
48.30932617,-103.80470000
48.33984375,-98.21524000
48.37036133,-96.25060000
48.40087891,-99.37881000
48.43139648,-101.74280000
48.46191406,-99.43295000
48.49243164,-101.02330000
48.52294922,-101.19250000
48.55346680,-96.32888000
48.58398438,-92.48658000
48.61450195,-90.80220000
48.64501953,-90.64610000
48.67553711,-90.93387000
48.70605469,-90.63882000
48.73657227,-89.88891000
48.76708984,-89.67192000
48.79760742,-90.94716000
48.82812500,-95.37239000
48.85864258,-107.01740000
48.88916016,-96.32581000
48.91967773,-92.48252000
48.95019531,-92.12243000
48.98071289,-93.10229000
49.01123047,-92.12848000
49.04174805,-90.85588000
49.07226563,-91.55509000
49.10278320,-93.94111000
49.13330078,-97.40460000
49.16381836,-101.96990000
49.19433594,-104.78990000
49.22485352,-101.33500000
49.25537109,-98.70312000
49.28588867,-98.45828000
49.31640625,-100.77160000
49.34692383,-104.44180000
49.37744141,-102.46990000
49.40795898,-98.94440000
49.43847656,-98.58025000
49.46899414,-101.22810000
49.49951172,-101.25910000
49.53002930,-98.98643000
49.56054688,-95.71197000
49.59106445,-93.58609000
49.62158203,-93.92390000
49.65209961,-96.66583000
49.68261719,-102.13490000
49.71313477,-101.43660000
49.74365234,-94.78642000
49.77416992,-91.36879000
49.80468750,-90.28920000
49.83520508,-90.92247000
49.86572266,-92.33740000
49.89624023,-92.67499000
49.92675781,-91.87906000
49.95727539,-91.88831000
49.98779297,-93.59753000
50.01831055,-96.28271000
