Frequency,Channel A
(MHz),(dBu)

0.00000000,-25.92909000
0.03051758,-26.40607000
0.06103516,-32.02134000
0.09155273,-43.00913000
0.12207031,-58.17697000
0.15258789,-59.35906000
0.18310547,-58.29400000
0.21362305,-59.86235000
0.24414063,-62.24404000
0.27465820,-65.43959000
0.30517578,-71.05272000
0.33569336,-66.80827000
0.36621094,-61.51013000
0.39672852,-60.14862000
0.42724609,-61.39645000
0.45776367,-64.79962000
0.48828125,-65.08344000
0.51879883,-61.34888000
0.54931641,-60.90399000
0.57983398,-64.02741000
0.61035156,-73.78084000
0.64086914,-74.00239000
0.67138672,-68.03806000
0.70190430,-69.94190000
0.73242188,-75.75356000
0.76293945,-74.09425000
0.79345703,-72.84527000
0.82397461,-77.52840000
0.85449219,-91.19896000
0.88500977,-90.21323000
0.91552734,-78.00706000
0.94604492,-73.03181000
0.97656250,-75.65810000
1.00708008,-71.72866000
1.03759766,-68.75725000
1.06811523,-69.67870000
1.09863281,-73.71008000
1.12915039,-80.84624000
1.15966797,-78.72569000
1.19018555,-76.93063000
1.22070313,-74.18064000
1.25122070,-72.84419000
1.28173828,-73.00778000
1.31225586,-72.81419000
1.34277344,-76.76622000
1.37329102,-75.36296000
1.40380859,-70.94834000
1.43432617,-71.13425000
1.46484375,-75.58648000
1.49536133,-85.68163000
1.52587891,-79.15076000
1.55639648,-76.25192000
1.58691406,-78.06385000
1.61743164,-78.19077000
1.64794922,-73.05444000
1.67846680,-73.94067000
1.70898438,-84.86054000
1.73950195,-80.97930000
1.77001953,-79.84845000
1.80053711,-78.35090000
1.83105469,-78.07955000
1.86157227,-83.28526000
1.89208984,-77.27284000
1.92260742,-72.64011000
1.95312500,-72.27005000
1.98364258,-76.37161000
2.01416016,-79.56916000
2.04467773,-81.29623000
2.07519531,-79.09642000
2.10571289,-74.64820000
2.13623047,-72.38540000
2.16674805,-69.92980000
2.19726563,-69.60121000
2.22778320,-72.82583000
2.25830078,-80.36027000
2.28881836,-89.60503000
2.31933594,-87.75862000
2.34985352,-82.72333000
2.38037109,-84.55769000
2.41088867,-92.00329000
2.44140625,-85.19036000
2.47192383,-89.12800000
2.50244141,-80.89474000
2.53295898,-79.20248000
2.56347656,-81.90112000
2.59399414,-81.48723000
2.62451172,-81.42334000
2.65502930,-79.81302000
2.68554688,-77.80592000
2.71606445,-73.43040000
2.74658203,-72.05016000
2.77709961,-74.08229000
2.80761719,-77.87669000
2.83813477,-81.27041000
2.86865234,-85.34168000
2.89916992,-86.19732000
2.92968750,-85.17743000
2.96020508,-80.09566000
2.99072266,-77.25688000
3.02124023,-77.55956000
3.05175781,-75.98766000
3.08227539,-78.24683000
3.11279297,-79.55244000
3.14331055,-77.74448000
3.17382813,-80.50195000
3.20434570,-78.62932000
3.23486328,-76.16760000
3.26538086,-77.38205000
3.29589844,-84.80091000
3.32641602,-83.43221000
3.35693359,-81.09853000
3.38745117,-82.70087000
3.41796875,-85.73930000
3.44848633,-83.42867000
3.47900391,-84.06719000
3.50952148,-86.21744000
3.54003906,-88.41732000
3.57055664,-93.82179000
3.60107422,-86.57248000
3.63159180,-87.00242000
3.66210938,-79.11340000
3.69262695,-77.02896000
3.72314453,-79.81676000
3.75366211,-90.14674000
3.78417969,-79.79852000
3.81469727,-76.76112000
3.84521484,-79.43337000
3.87573242,-83.23388000
3.90625000,-82.10448000
3.93676758,-88.59527000
3.96728516,-89.81389000
3.99780273,-83.15579000
4.02832031,-83.89973000
4.05883789,-96.25019000
4.08935547,-80.49915000
4.11987305,-78.05285000
4.15039063,-84.79533000
4.18090820,-93.99270000
4.21142578,-103.09430000
4.24194336,-82.27788000
4.27246094,-77.84309000
4.30297852,-80.09380000
4.33349609,-80.04584000
4.36401367,-75.33839000
4.39453125,-75.36723000
4.42504883,-79.52341000
4.45556641,-82.75520000
4.48608398,-84.64389000
4.51660156,-79.71871000
4.54711914,-80.32738000
4.57763672,-83.68862000
4.60815430,-85.58990000
4.63867188,-90.67002000
4.66918945,-93.09445000
4.69970703,-89.42951000
4.73022461,-85.66466000
4.76074219,-84.72198000
4.79125977,-78.21399000
4.82177734,-79.80383000
4.85229492,-80.06615000
4.88281250,-80.87932000
4.91333008,-82.83492000
4.94384766,-78.90057000
4.97436523,-80.75013000
5.00488281,-81.66985000
5.03540039,-93.03491000
5.06591797,-82.14169000
5.09643555,-82.37210000
5.12695313,-88.19828000
5.15747070,-80.30989000
5.18798828,-81.10001000
5.21850586,-90.67997000
5.24902344,-83.96579000
5.27954102,-81.29924000
5.31005859,-92.37988000
5.34057617,-81.98948000
5.37109375,-81.37421000
5.40161133,-92.66928000
5.43212891,-90.41550000
5.46264648,-86.12227000
5.49316406,-87.70161000
5.52368164,-96.93054000
5.55419922,-85.83503000
5.58471680,-86.42570000
5.61523438,-82.05083000
5.64575195,-81.67612000
5.67626953,-85.84453000
5.70678711,-80.50954000
5.73730469,-78.43459000
5.76782227,-76.69173000
5.79833984,-76.94198000
5.82885742,-76.44118000
5.85937500,-79.73420000
5.88989258,-78.74026000
5.92041016,-78.81802000
5.95092773,-83.84052000
5.98144531,-76.46800000
6.01196289,-78.81194000
6.04248047,-81.13876000
6.07299805,-83.52870000
6.10351563,-77.95821000
6.13403320,-81.99338000
6.16455078,-83.83881000
6.19506836,-78.71751000
6.22558594,-82.83855000
6.25610352,-85.88293000
6.28662109,-86.86220000
6.31713867,-80.89874000
6.34765625,-84.95461000
6.37817383,-84.58894000
6.40869141,-96.27132000
6.43920898,-84.15829000
6.46972656,-82.50632000
6.50024414,-84.16080000
6.53076172,-84.60841000
6.56127930,-87.63505000
6.59179688,-86.72383000
6.62231445,-84.91081000
6.65283203,-83.02403000
6.68334961,-91.39617000
6.71386719,-88.51762000
6.74438477,-86.15357000
6.77490234,-92.60331000
6.80541992,-96.32204000
6.83593750,-98.56750000
6.86645508,-110.69230000
6.89697266,-94.74893000
6.92749023,-91.37090000
6.95800781,-92.51532000
6.98852539,-95.01384000
7.01904297,-89.38888000
7.04956055,-84.05965000
7.08007813,-83.12890000
7.11059570,-84.50900000
7.14111328,-86.91161000
7.17163086,-86.59516000
7.20214844,-87.68177000
7.23266602,-91.09473000
7.26318359,-91.55425000
7.29370117,-94.04527000
7.32421875,-94.79256000
7.35473633,-90.86758000
7.38525391,-88.73809000
7.41577148,-90.52536000
7.44628906,-97.02869000
7.47680664,-106.37580000
7.50732422,-94.24538000
7.53784180,-94.01419000
7.56835938,-99.39636000
7.59887695,-92.98573000
7.62939453,-90.20274000
7.65991211,-94.67185000
7.69042969,-91.71684000
7.72094727,-90.27617000
7.75146484,-91.94601000
7.78198242,-88.37518000
7.81250000,-87.69954000
7.84301758,-89.57511000
7.87353516,-93.42406000
7.90405273,-94.93774000
7.93457031,-93.40038000
7.96508789,-90.63584000
7.99560547,-90.10285000
8.02612305,-88.66966000
8.05664063,-86.93633000
8.08715820,-87.16641000
8.11767578,-87.58340000
8.14819336,-85.96847000
8.17871094,-85.56169000
8.20922852,-88.76443000
8.23974609,-94.75255000
8.27026367,-92.91777000
8.30078125,-89.30666000
8.33129883,-91.01251000
8.36181641,-100.88340000
8.39233398,-98.78781000
8.42285156,-95.72444000
8.45336914,-94.36680000
8.48388672,-88.21316000
8.51440430,-85.15495000
8.54492188,-86.45588000
8.57543945,-90.96886000
8.60595703,-92.72987000
8.63647461,-91.70238000
8.66699219,-89.71301000
8.69750977,-87.56393000
8.72802734,-87.95383000
8.75854492,-92.85965000
8.78906250,-96.39342000
8.81958008,-90.18393000
8.85009766,-89.79610000
8.88061523,-94.57532000
8.91113281,-96.69175000
8.94165039,-109.93870000
8.97216797,-91.67513000
9.00268555,-86.11983000
9.03320313,-84.64657000
9.06372070,-85.43053000
9.09423828,-88.63982000
9.12475586,-92.35110000
9.15527344,-92.83352000
9.18579102,-93.01794000
9.21630859,-90.82328000
9.24682617,-88.67745000
9.27734375,-87.37790000
9.30786133,-86.03126000
9.33837891,-85.96989000
9.36889648,-85.37025000
9.39941406,-85.62842000
9.42993164,-90.81587000
9.46044922,-93.09283000
9.49096680,-86.74446000
9.52148438,-86.90568000
9.55200195,-89.60392000
9.58251953,-86.78647000
9.61303711,-85.33715000
9.64355469,-86.81647000
9.67407227,-89.65590000
9.70458984,-91.82785000
9.73510742,-88.70576000
9.76562500,-88.75452000
9.79614258,-95.19925000
9.82666016,-95.84332000
9.85717773,-93.85283000
9.88769531,-92.73528000
9.91821289,-92.00848000
9.94873047,-90.03949000
9.97924805,-89.93468000
10.00976563,-90.37258000
10.04028320,-88.39690000
10.07080078,-88.37887000
10.10131836,-90.31391000
10.13183594,-92.56163000
10.16235352,-97.05473000
10.19287109,-92.00867000
10.22338867,-87.39228000
10.25390625,-86.56392000
10.28442383,-85.71110000
10.31494141,-84.22585000
10.34545898,-83.51131000
10.37597656,-84.13374000
10.40649414,-86.66035000
10.43701172,-93.31152000
10.46752930,-100.66780000
10.49804688,-89.09528000
10.52856445,-85.83395000
10.55908203,-84.38306000
10.58959961,-84.13293000
10.62011719,-85.21680000
10.65063477,-88.28960000
10.68115234,-90.58250000
10.71166992,-85.98004000
10.74218750,-83.80898000
10.77270508,-84.14661000
10.80322266,-84.87102000
10.83374023,-84.64265000
10.86425781,-84.53249000
10.89477539,-85.90888000
10.92529297,-90.52754000
10.95581055,-86.85784000
10.98632813,-81.43414000
11.01684570,-81.62446000
11.04736328,-88.01091000
11.07788086,-85.25745000
11.10839844,-82.48334000
11.13891602,-83.74594000
11.16943359,-83.07579000
11.19995117,-80.48587000
11.23046875,-78.81351000
11.26098633,-78.74477000
11.29150391,-80.52062000
11.32202148,-85.61792000
11.35253906,-84.29977000
11.38305664,-79.46120000
11.41357422,-78.57611000
11.44409180,-79.06029000
11.47460938,-79.76295000
11.50512695,-82.14561000
11.53564453,-83.35296000
11.56616211,-81.74571000
11.59667969,-85.00168000
11.62719727,-92.95828000
11.65771484,-92.56990000
11.68823242,-96.96632000
11.71875000,-99.03874000
11.74926758,-91.28303000
11.77978516,-83.31775000
11.81030273,-80.96646000
11.84082031,-81.05752000
11.87133789,-81.95665000
11.90185547,-81.57991000
11.93237305,-82.29253000
11.96289063,-86.42929000
11.99340820,-96.73425000
12.02392578,-98.89975000
12.05444336,-98.66313000
12.08496094,-97.70404000
12.11547852,-86.79230000
12.14599609,-84.87369000
12.17651367,-91.54110000
12.20703125,-89.24704000
12.23754883,-81.35541000
12.26806641,-79.97775000
12.29858398,-82.41836000
12.32910156,-86.89834000
12.35961914,-82.74929000
12.39013672,-79.59174000
12.42065430,-78.83173000
12.45117188,-78.82066000
12.48168945,-79.41978000
12.51220703,-82.72768000
12.54272461,-88.41298000
12.57324219,-83.85780000
12.60375977,-82.07489000
12.63427734,-83.54600000
12.66479492,-82.04688000
12.69531250,-79.98392000
12.72583008,-80.80960000
12.75634766,-84.03299000
12.78686523,-88.14677000
12.81738281,-90.44418000
12.84790039,-87.13577000
12.87841797,-83.67723000
12.90893555,-82.05563000
12.93945313,-80.44807000
12.96997070,-79.02485000
13.00048828,-79.34470000
13.03100586,-82.74825000
13.06152344,-85.76277000
13.09204102,-83.44337000
13.12255859,-80.43263000
13.15307617,-80.07451000
13.18359375,-83.70045000
13.21411133,-93.06237000
13.24462891,-90.98725000
13.27514648,-84.36487000
13.30566406,-79.97928000
13.33618164,-76.46249000
13.36669922,-74.42994000
13.39721680,-74.95665000
13.42773438,-78.63116000
13.45825195,-81.34576000
13.48876953,-74.42590000
13.51928711,-68.09541000
13.54980469,-65.77241000
13.58032227,-67.68588000
13.61083984,-75.62344000
13.64135742,-75.97939000
13.67187500,-71.82530000
13.70239258,-71.31181000
13.73291016,-71.96454000
13.76342773,-74.06552000
13.79394531,-78.70634000
13.82446289,-86.99525000
13.85498047,-97.63299000
13.88549805,-94.65726000
13.91601563,-87.33894000
13.94653320,-81.65831000
13.97705078,-78.70011000
14.00756836,-78.59041000
14.03808594,-81.42262000
14.06860352,-88.01197000
14.09912109,-98.28220000
14.12963867,-95.47226000
14.16015625,-91.28997000
14.19067383,-83.97676000
14.22119141,-80.67783000
14.25170898,-79.64654000
14.28222656,-80.06522000
14.31274414,-83.11124000
14.34326172,-95.84026000
14.37377930,-86.66719000
14.40429688,-80.62870000
14.43481445,-79.22702000
14.46533203,-80.03419000
14.49584961,-81.39679000
14.52636719,-81.71642000
14.55688477,-81.41200000
14.58740234,-82.22482000
14.61791992,-83.95029000
14.64843750,-83.78198000
14.67895508,-83.53476000
14.70947266,-83.66729000
14.73999023,-83.80906000
14.77050781,-85.26185000
14.80102539,-87.78468000
14.83154297,-89.76139000
14.86206055,-91.53759000
14.89257813,-93.46073000
14.92309570,-92.66025000
14.95361328,-91.03304000
14.98413086,-89.14086000
15.01464844,-90.00324000
15.04516602,-95.84010000
15.07568359,-100.49650000
15.10620117,-90.07008000
15.13671875,-90.97289000
15.16723633,-114.09190000
15.19775391,-89.58395000
15.22827148,-86.31058000
15.25878906,-86.11123000
15.28930664,-84.60549000
15.31982422,-79.89230000
15.35034180,-76.93194000
15.38085938,-77.33234000
15.41137695,-81.54319000
15.44189453,-89.57620000
15.47241211,-97.49481000
15.50292969,-89.40311000
15.53344727,-83.16724000
15.56396484,-79.99776000
15.59448242,-78.97580000
15.62500000,-80.53976000
15.65551758,-85.72829000
15.68603516,-94.25133000
15.71655273,-98.24519000
15.74707031,-98.88984000
15.77758789,-94.10745000
15.80810547,-94.39096000
15.83862305,-99.76488000
15.86914063,-100.70430000
15.89965820,-95.36340000
15.93017578,-99.08849000
15.96069336,-100.21000000
15.99121094,-105.35290000
16.02172852,-103.34550000
16.05224609,-95.20425000
16.08276367,-87.70194000
16.11328125,-85.41114000
16.14379883,-86.98322000
16.17431641,-90.78811000
16.20483398,-91.50142000
16.23535156,-95.59716000
16.26586914,-97.17581000
16.29638672,-88.76227000
16.32690430,-87.36072000
16.35742188,-88.07047000
16.38793945,-90.77004000
16.41845703,-99.91238000
16.44897461,-93.64523000
16.47949219,-89.91994000
16.51000977,-91.46619000
16.54052734,-92.39438000
16.57104492,-90.92511000
16.60156250,-88.98991000
16.63208008,-87.68394000
16.66259766,-86.51038000
16.69311523,-86.96280000
16.72363281,-88.58817000
16.75415039,-89.82005000
16.78466797,-89.40643000
16.81518555,-89.54339000
16.84570313,-95.21184000
16.87622070,-98.68898000
16.90673828,-96.39284000
16.93725586,-100.98410000
16.96777344,-96.81635000
16.99829102,-92.57992000
17.02880859,-93.23630000
17.05932617,-97.12218000
17.08984375,-98.78938000
17.12036133,-97.34864000
17.15087891,-95.35183000
17.18139648,-95.01716000
17.21191406,-97.83238000
17.24243164,-94.39041000
17.27294922,-90.41136000
17.30346680,-91.10277000
17.33398438,-93.46744000
17.36450195,-85.36823000
17.39501953,-81.27740000
17.42553711,-80.90275000
17.45605469,-83.13936000
17.48657227,-86.40213000
17.51708984,-90.15611000
17.54760742,-96.39749000
17.57812500,-116.34930000
17.60864258,-98.52818000
17.63916016,-92.30987000
17.66967773,-88.14180000
17.70019531,-85.46195000
17.73071289,-84.41829000
17.76123047,-79.27722000
17.79174805,-74.71286000
17.82226563,-73.71875000
17.85278320,-76.50210000
17.88330078,-84.06677000
17.91381836,-99.02975000
17.94433594,-96.13151000
17.97485352,-94.04846000
18.00537109,-91.48029000
18.03588867,-92.17223000
18.06640625,-100.32260000
18.09692383,-99.00330000
18.12744141,-95.38916000
18.15795898,-96.76997000
18.18847656,-102.46620000
18.21899414,-101.87300000
18.24951172,-93.91805000
18.28002930,-93.64043000
18.31054688,-100.96860000
18.34106445,-97.91432000
18.37158203,-96.27888000
18.40209961,-97.93309000
18.43261719,-95.44044000
18.46313477,-91.64194000
18.49365234,-91.16229000
18.52416992,-92.94158000
18.55468750,-92.33267000
18.58520508,-91.06174000
18.61572266,-90.45258000
18.64624023,-90.36668000
18.67675781,-92.31435000
18.70727539,-98.83957000
18.73779297,-108.76130000
18.76831055,-97.61293000
18.79882813,-93.74951000
18.82934570,-93.92490000
18.85986328,-95.30865000
18.89038086,-97.01447000
18.92089844,-103.46720000
18.95141602,-108.01850000
18.98193359,-97.08640000
19.01245117,-93.24920000
19.04296875,-92.31132000
19.07348633,-93.89640000
19.10400391,-97.23769000
19.13452148,-99.96133000
19.16503906,-100.49770000
19.19555664,-99.01238000
19.22607422,-96.38385000
19.25659180,-95.13770000
19.28710938,-96.42593000
19.31762695,-100.70360000
19.34814453,-108.29470000
19.37866211,-113.19920000
19.40917969,-130.98590000
19.43969727,-104.70490000
19.47021484,-96.77599000
19.50073242,-93.46336000
19.53125000,-92.80838000
19.56176758,-94.02362000
19.59228516,-97.13012000
19.62280273,-104.41050000
19.65332031,-104.16890000
19.68383789,-93.63722000
19.71435547,-89.50642000
19.74487305,-88.45348000
19.77539063,-89.63326000
19.80590820,-92.88737000
19.83642578,-100.41230000
19.86694336,-101.72410000
19.89746094,-96.86069000
19.92797852,-97.15932000
19.95849609,-97.54317000
19.98901367,-95.33122000
20.01953125,-93.50201000
20.05004883,-93.17522000
20.08056641,-93.51918000
20.11108398,-95.12332000
20.14160156,-92.51593000
20.17211914,-89.99182000
20.20263672,-90.71242000
20.23315430,-94.85375000
20.26367188,-103.55880000
20.29418945,-98.84270000
20.32470703,-97.34583000
20.35522461,-100.96490000
20.38574219,-102.87870000
20.41625977,-98.31999000
20.44677734,-97.75552000
20.47729492,-99.77438000
20.50781250,-102.19250000
20.53833008,-98.78801000
20.56884766,-101.13800000
20.59936523,-111.91780000
20.62988281,-98.43704000
20.66040039,-95.35125000
20.69091797,-93.74419000
20.72143555,-91.45942000
20.75195313,-91.43335000
20.78247070,-95.40023000
20.81298828,-108.17260000
20.84350586,-100.91720000
20.87402344,-93.36196000
20.90454102,-90.28671000
20.93505859,-90.39590000
20.96557617,-93.20228000
20.99609375,-96.51045000
21.02661133,-97.09655000
21.05712891,-95.97005000
21.08764648,-94.04686000
21.11816406,-91.97849000
21.14868164,-90.84431000
21.17919922,-90.38446000
21.20971680,-90.22224000
21.24023438,-90.49747000
21.27075195,-90.96449000
21.30126953,-91.04120000
21.33178711,-91.89895000
21.36230469,-97.87088000
21.39282227,-97.90651000
21.42333984,-90.38158000
21.45385742,-89.65028000
21.48437500,-92.06474000
21.51489258,-94.42074000
21.54541016,-94.02215000
21.57592773,-92.03045000
21.60644531,-90.13207000
21.63696289,-89.77508000
21.66748047,-91.76385000
21.69799805,-96.63102000
21.72851563,-106.91710000
21.75903320,-103.51720000
21.78955078,-98.98378000
21.82006836,-97.27242000
21.85058594,-99.00806000
21.88110352,-103.46670000
21.91162109,-106.28740000
21.94213867,-104.01770000
21.97265625,-106.55500000
22.00317383,-105.05320000
22.03369141,-99.29533000
22.06420898,-97.89264000
22.09472656,-96.62680000
22.12524414,-96.88649000
22.15576172,-97.49719000
22.18627930,-94.92255000
22.21679688,-93.55473000
22.24731445,-96.27382000
22.27783203,-104.22530000
22.30834961,-99.15302000
22.33886719,-93.84200000
22.36938477,-93.46709000
22.39990234,-98.35744000
22.43041992,-116.26560000
22.46093750,-105.60380000
22.49145508,-102.06980000
22.52197266,-103.50310000
22.55249023,-101.70290000
22.58300781,-98.24197000
22.61352539,-96.23328000
22.64404297,-96.57128000
22.67456055,-99.71183000
22.70507813,-103.80200000
22.73559570,-106.08840000
22.76611328,-103.62660000
22.79663086,-98.09470000
22.82714844,-94.60512000
22.85766602,-94.44441000
22.88818359,-95.73650000
22.91870117,-93.32450000
22.94921875,-90.63762000
22.97973633,-89.59995000
23.01025391,-91.21364000
23.04077148,-96.38307000
23.07128906,-101.75030000
23.10180664,-99.13357000
23.13232422,-95.40637000
23.16284180,-93.41193000
23.19335938,-93.57530000
23.22387695,-96.25105000
23.25439453,-98.71064000
23.28491211,-100.14300000
23.31542969,-100.99290000
23.34594727,-97.70041000
23.37646484,-97.23403000
23.40698242,-107.23410000
23.43750000,-101.22470000
23.46801758,-97.16844000
23.49853516,-99.03645000
23.52905273,-100.23270000
23.55957031,-98.75323000
23.59008789,-97.40189000
23.62060547,-96.89233000
23.65112305,-96.39770000
23.68164063,-97.39780000
23.71215820,-98.02879000
23.74267578,-96.37550000
23.77319336,-95.57220000
23.80371094,-97.09239000
23.83422852,-98.41341000
23.86474609,-97.33011000
23.89526367,-95.97487000
23.92578125,-95.16130000
23.95629883,-95.87926000
23.98681641,-96.39886000
24.01733398,-95.92265000
24.04785156,-97.82791000
24.07836914,-105.01450000
24.10888672,-106.65780000
24.13940430,-98.73521000
24.16992188,-98.68766000
24.20043945,-100.71710000
24.23095703,-97.87877000
24.26147461,-94.44499000
24.29199219,-92.18014000
24.32250977,-92.72862000
24.35302734,-95.94964000
24.38354492,-99.29723000
24.41406250,-98.58061000
24.44458008,-95.74718000
24.47509766,-94.72065000
24.50561523,-93.55569000
24.53613281,-92.27627000
24.56665039,-93.62784000
24.59716797,-98.35532000
24.62768555,-107.91780000
24.65820313,-105.31520000
24.68872070,-95.51724000
24.71923828,-91.25583000
24.74975586,-90.77583000
24.78027344,-93.02262000
24.81079102,-97.19552000
24.84130859,-99.53802000
24.87182617,-95.75383000
24.90234375,-95.41332000
24.93286133,-95.60674000
24.96337891,-95.60759000
24.99389648,-96.73456000
25.02441406,-98.36482000
25.05493164,-102.40550000
25.08544922,-103.18940000
25.11596680,-102.79670000
25.14648438,-104.88400000
25.17700195,-100.49920000
25.20751953,-100.23130000
25.23803711,-103.98670000
25.26855469,-103.16350000
25.29907227,-109.43800000
25.32958984,-106.26860000
25.36010742,-100.29480000
25.39062500,-100.48670000
25.42114258,-104.64100000
25.45166016,-131.80680000
25.48217773,-105.42220000
25.51269531,-99.39763000
25.54321289,-97.22266000
25.57373047,-99.57470000
25.60424805,-103.51760000
25.63476563,-100.00900000
25.66528320,-102.59530000
25.69580078,-108.57010000
25.72631836,-104.12020000
25.75683594,-105.16600000
25.78735352,-109.45230000
25.81787109,-99.52775000
25.84838867,-94.39701000
25.87890625,-93.68750000
25.90942383,-95.69273000
25.93994141,-98.89085000
25.97045898,-102.81460000
26.00097656,-102.64500000
26.03149414,-100.80700000
26.06201172,-104.03700000
26.09252930,-100.31040000
26.12304688,-98.93123000
26.15356445,-101.81270000
26.18408203,-98.96621000
26.21459961,-95.16404000
26.24511719,-96.54145000
26.27563477,-103.77700000
26.30615234,-114.17920000
26.33666992,-104.40710000
26.36718750,-99.96509000
26.39770508,-96.82011000
26.42822266,-95.05464000
26.45874023,-96.61739000
26.48925781,-99.19982000
26.51977539,-101.29770000
26.55029297,-101.90930000
26.58081055,-105.00370000
26.61132813,-104.38920000
26.64184570,-103.26750000
26.67236328,-102.02570000
26.70288086,-99.43755000
26.73339844,-101.91810000
26.76391602,-109.40240000
26.79443359,-105.41100000
26.82495117,-99.29466000
26.85546875,-94.92012000
26.88598633,-92.65804000
26.91650391,-92.84300000
26.94702148,-94.70432000
26.97753906,-97.16954000
27.00805664,-100.03010000
27.03857422,-102.08870000
27.06909180,-102.80360000
27.09960938,-102.03450000
27.13012695,-98.50956000
27.16064453,-96.96269000
27.19116211,-97.29115000
27.22167969,-96.21181000
27.25219727,-94.40342000
27.28271484,-94.80331000
27.31323242,-99.14009000
27.34375000,-100.17730000
27.37426758,-98.65550000
27.40478516,-105.38610000
27.43530273,-104.76410000
27.46582031,-96.69941000
27.49633789,-93.84609000
27.52685547,-93.16594000
27.55737305,-95.16845000
27.58789063,-101.29830000
27.61840820,-100.13860000
27.64892578,-96.64101000
27.67944336,-95.19719000
27.70996094,-92.96873000
27.74047852,-91.39772000
27.77099609,-91.79971000
27.80151367,-94.41482000
27.83203125,-98.34393000
27.86254883,-99.05933000
27.89306641,-95.73306000
27.92358398,-93.10775000
27.95410156,-92.87606000
27.98461914,-95.46985000
28.01513672,-100.55080000
28.04565430,-108.09940000
28.07617188,-110.55780000
28.10668945,-101.51730000
28.13720703,-103.30820000
28.16772461,-104.70020000
28.19824219,-97.43262000
28.22875977,-95.20520000
28.25927734,-94.89682000
28.28979492,-95.26045000
28.32031250,-95.80917000
28.35083008,-94.48124000
28.38134766,-93.11141000
28.41186523,-93.60744000
28.44238281,-94.99390000
28.47290039,-95.43908000
28.50341797,-95.20501000
28.53393555,-95.65877000
28.56445313,-98.89027000
28.59497070,-101.80070000
28.62548828,-97.80910000
28.65600586,-100.21980000
28.68652344,-104.04400000
28.71704102,-99.58398000
28.74755859,-98.89371000
28.77807617,-95.85385000
28.80859375,-92.99030000
28.83911133,-92.33021000
28.86962891,-93.10278000
28.90014648,-94.24119000
28.93066406,-95.21237000
28.96118164,-96.03420000
28.99169922,-98.18383000
29.02221680,-102.09140000
29.05273438,-103.35330000
29.08325195,-97.37762000
29.11376953,-92.88707000
29.14428711,-90.88131000
29.17480469,-90.46822000
29.20532227,-91.12674000
29.23583984,-93.01143000
29.26635742,-96.11081000
29.29687500,-99.14211000
29.32739258,-100.00060000
29.35791016,-96.89971000
29.38842773,-93.60361000
29.41894531,-92.47583000
29.44946289,-93.09579000
29.47998047,-95.49081000
29.51049805,-100.64850000
29.54101563,-102.68060000
29.57153320,-102.49070000
29.60205078,-115.12850000
29.63256836,-102.16910000
29.66308594,-95.68512000
29.69360352,-93.27444000
29.72412109,-92.86674000
29.75463867,-93.99280000
29.78515625,-95.40469000
29.81567383,-95.69385000
29.84619141,-96.93718000
29.87670898,-96.94732000
29.90722656,-94.28152000
29.93774414,-94.51141000
29.96826172,-99.13628000
29.99877930,-108.87680000
30.02929688,-113.44690000
30.05981445,-105.93850000
30.09033203,-100.27880000
30.12084961,-100.07410000
30.15136719,-107.89760000
30.18188477,-105.52220000
30.21240234,-98.17723000
30.24291992,-96.84578000
30.27343750,-98.91954000
30.30395508,-105.32020000
30.33447266,-107.65790000
30.36499023,-103.77490000
30.39550781,-102.43190000
30.42602539,-97.33436000
30.45654297,-92.29318000
30.48706055,-90.00404000
30.51757813,-90.47859000
30.54809570,-93.05176000
30.57861328,-97.65800000
30.60913086,-104.46080000
30.63964844,-101.39150000
30.67016602,-100.99530000
30.70068359,-102.04290000
30.73120117,-100.67070000
30.76171875,-98.63251000
30.79223633,-95.69027000
30.82275391,-93.20164000
30.85327148,-92.69031000
30.88378906,-95.34871000
30.91430664,-103.10070000
30.94482422,-106.28750000
30.97534180,-104.07540000
31.00585938,-102.04320000
31.03637695,-100.76830000
31.06689453,-103.41420000
31.09741211,-99.77115000
31.12792969,-95.84988000
31.15844727,-94.93497000
31.18896484,-97.30330000
31.21948242,-106.39880000
31.25000000,-102.64000000
31.28051758,-97.90643000
31.31103516,-98.20389000
31.34155273,-102.99980000
31.37207031,-104.89440000
31.40258789,-99.51270000
31.43310547,-97.54370000
31.46362305,-96.60690000
31.49414063,-96.29512000
31.52465820,-96.31005000
31.55517578,-96.01320000
31.58569336,-96.88751000
31.61621094,-99.33944000
31.64672852,-98.79494000
31.67724609,-94.22395000
31.70776367,-91.97444000
31.73828125,-92.12617000
31.76879883,-92.46675000
31.79931641,-92.17702000
31.82983398,-92.53132000
31.86035156,-93.58052000
31.89086914,-94.44556000
31.92138672,-95.79527000
31.95190430,-98.98228000
31.98242188,-102.27580000
32.01293945,-99.30075000
32.04345703,-96.73790000
32.07397461,-94.28781000
32.10449219,-91.67677000
32.13500977,-90.48997000
32.16552734,-91.16615000
32.19604492,-93.64847000
32.22656250,-97.26923000
32.25708008,-97.34345000
32.28759766,-95.18228000
32.31811523,-95.19402000
32.34863281,-97.43763000
32.37915039,-99.82526000
32.40966797,-100.14380000
32.44018555,-99.22336000
32.47070313,-97.64336000
32.50122070,-97.73256000
32.53173828,-100.97790000
32.56225586,-97.99988000
32.59277344,-93.77595000
32.62329102,-91.12975000
32.65380859,-89.16202000
32.68432617,-88.82287000
32.71484375,-90.74952000
32.74536133,-91.97361000
32.77587891,-91.21617000
32.80639648,-92.78854000
32.83691406,-95.08684000
32.86743164,-93.68584000
32.89794922,-91.67036000
32.92846680,-91.72263000
32.95898438,-94.55138000
32.98950195,-100.59050000
33.02001953,-102.16780000
33.05053711,-99.81304000
33.08105469,-100.59650000
33.11157227,-98.57269000
33.14208984,-94.53329000
33.17260742,-92.46909000
33.20312500,-92.26538000
33.23364258,-93.64754000
33.26416016,-96.64336000
33.29467773,-100.80090000
33.32519531,-101.65460000
33.35571289,-98.91216000
33.38623047,-98.63186000
33.41674805,-102.62510000
33.44726563,-112.47800000
33.47778320,-104.98010000
33.50830078,-101.01950000
33.53881836,-99.83604000
33.56933594,-100.39070000
33.59985352,-103.08280000
33.63037109,-110.09470000
33.66088867,-102.08180000
33.69140625,-96.35078000
33.72192383,-93.79498000
33.75244141,-92.90253000
33.78295898,-93.17649000
33.81347656,-93.90331000
33.84399414,-94.46503000
33.87451172,-96.41350000
33.90502930,-101.84730000
33.93554688,-106.61640000
33.96606445,-104.69010000
33.99658203,-104.32270000
34.02709961,-103.59340000
34.05761719,-102.13930000
34.08813477,-101.57370000
34.11865234,-101.90040000
34.14916992,-100.77330000
34.17968750,-98.55694000
34.21020508,-96.31875000
34.24072266,-95.05864000
34.27124023,-95.07140000
34.30175781,-95.34764000
34.33227539,-94.70935000
34.36279297,-93.70614000
34.39331055,-93.70625000
34.42382813,-95.26082000
34.45434570,-97.89352000
34.48486328,-98.36755000
34.51538086,-95.74008000
34.54589844,-94.41692000
34.57641602,-95.91935000
34.60693359,-101.64570000
34.63745117,-108.96930000
34.66796875,-107.39890000
34.69848633,-107.80510000
34.72900391,-103.54260000
34.75952148,-101.20370000
34.79003906,-97.79568000
34.82055664,-94.86584000
34.85107422,-92.75874000
34.88159180,-91.74427000
34.91210938,-92.25343000
34.94262695,-93.50719000
34.97314453,-93.93860000
35.00366211,-93.85060000
35.03417969,-95.23363000
35.06469727,-101.83880000
35.09521484,-106.74460000
35.12573242,-97.17538000
35.15625000,-95.96944000
35.18676758,-97.90346000
35.21728516,-100.99910000
35.24780273,-102.08870000
35.27832031,-100.99850000
35.30883789,-101.71170000
35.33935547,-106.33190000
35.36987305,-110.46350000
35.40039063,-103.83480000
35.43090820,-99.33485000
35.46142578,-97.23280000
35.49194336,-96.74712000
35.52246094,-97.50259000
35.55297852,-98.71436000
35.58349609,-100.40420000
35.61401367,-110.03020000
35.64453125,-102.82720000
35.67504883,-96.02303000
35.70556641,-94.59896000
35.73608398,-95.59998000
35.76660156,-97.72480000
35.79711914,-100.06830000
35.82763672,-102.63760000
35.85815430,-105.13280000
35.88867188,-106.21180000
35.91918945,-103.44100000
35.94970703,-98.49247000
35.98022461,-95.37387000
36.01074219,-94.36741000
36.04125977,-95.01147000
36.07177734,-96.84761000
36.10229492,-98.68676000
36.13281250,-99.65576000
36.16333008,-98.60802000
36.19384766,-95.25666000
36.22436523,-93.86002000
36.25488281,-95.56080000
36.28540039,-99.87134000
36.31591797,-102.37950000
36.34643555,-99.03114000
36.37695313,-94.97130000
36.40747070,-92.81290000
36.43798828,-93.38055000
36.46850586,-97.78912000
36.49902344,-101.74820000
36.52954102,-96.97263000
36.56005859,-96.35867000
36.59057617,-97.90974000
36.62109375,-98.18784000
36.65161133,-99.00188000
36.68212891,-105.43880000
36.71264648,-107.59460000
36.74316406,-97.89539000
36.77368164,-94.89429000
36.80419922,-94.23737000
36.83471680,-95.07892000
36.86523438,-96.67141000
36.89575195,-97.79514000
36.92626953,-97.99397000
36.95678711,-98.45928000
36.98730469,-99.75403000
37.01782227,-101.22140000
37.04833984,-102.53200000
37.07885742,-100.19640000
37.10937500,-97.29690000
37.13989258,-96.33605000
37.17041016,-96.79542000
37.20092773,-98.78781000
37.23144531,-103.24600000
37.26196289,-105.42020000
37.29248047,-98.98495000
37.32299805,-94.73674000
37.35351563,-92.18903000
37.38403320,-90.91019000
37.41455078,-90.96469000
37.44506836,-92.24007000
37.47558594,-94.13417000
37.50610352,-96.53500000
37.53662109,-99.00997000
37.56713867,-99.24535000
37.59765625,-99.48486000
37.62817383,-99.31737000
37.65869141,-97.59759000
37.68920898,-96.91773000
37.71972656,-98.33092000
37.75024414,-105.22250000
37.78076172,-105.01760000
37.81127930,-95.82961000
37.84179688,-93.32883000
37.87231445,-92.49096000
37.90283203,-91.63573000
37.93334961,-91.09428000
37.96386719,-90.77483000
37.99438477,-90.97847000
38.02490234,-92.40752000
38.05541992,-94.80881000
38.08593750,-97.71851000
38.11645508,-100.41590000
38.14697266,-98.16360000
38.17749023,-92.80914000
38.20800781,-90.04657000
38.23852539,-90.90191000
38.26904297,-96.64983000
38.29956055,-112.49310000
38.33007813,-97.20770000
38.36059570,-94.62534000
38.39111328,-95.77347000
38.42163086,-98.91308000
38.45214844,-99.97352000
38.48266602,-102.28050000
38.51318359,-107.00570000
38.54370117,-101.47690000
38.57421875,-98.21931000
38.60473633,-97.01034000
38.63525391,-96.12914000
38.66577148,-97.72027000
38.69628906,-108.12430000
38.72680664,-99.87892000
38.75732422,-95.79105000
38.78784180,-96.05028000
38.81835938,-96.87138000
38.84887695,-96.80388000
38.87939453,-95.72879000
38.90991211,-93.98022000
38.94042969,-92.97440000
38.97094727,-92.65282000
39.00146484,-92.02869000
39.03198242,-91.12340000
39.06250000,-90.95707000
39.09301758,-91.72413000
39.12353516,-92.84387000
39.15405273,-93.75854000
39.18457031,-95.48402000
39.21508789,-100.39820000
39.24560547,-115.63050000
39.27612305,-108.45060000
39.30664063,-116.49620000
39.33715820,-104.64800000
39.36767578,-99.81004000
39.39819336,-99.46838000
39.42871094,-100.53560000
39.45922852,-102.81170000
39.48974609,-107.02930000
39.52026367,-110.25080000
39.55078125,-99.21571000
39.58129883,-95.98711000
39.61181641,-94.99001000
39.64233398,-91.62077000
39.67285156,-90.08614000
39.70336914,-92.48892000
39.73388672,-100.75210000
39.76440430,-109.18700000
39.79492188,-101.75650000
39.82543945,-96.81473000
39.85595703,-92.75455000
39.88647461,-91.24731000
39.91699219,-92.90497000
39.94750977,-96.53966000
39.97802734,-95.18440000
40.00854492,-91.48563000
40.03906250,-89.46375000
40.06958008,-89.40380000
40.10009766,-90.36668000
40.13061523,-91.97749000
40.16113281,-93.48431000
40.19165039,-94.00421000
40.22216797,-96.79556000
40.25268555,-92.91707000
40.28320313,-88.69384000
40.31372070,-89.11332000
40.34423828,-95.26826000
40.37475586,-106.39870000
40.40527344,-96.51516000
40.43579102,-96.62608000
40.46630859,-99.35210000
40.49682617,-102.29410000
40.52734375,-107.56620000
40.55786133,-102.17190000
40.58837891,-96.35376000
40.61889648,-92.09210000
40.64941406,-88.65105000
40.67993164,-86.78656000
40.71044922,-87.07834000
40.74096680,-90.33160000
40.77148438,-98.86949000
40.80200195,-105.37910000
40.83251953,-99.49584000
40.86303711,-95.86298000
40.89355469,-91.30917000
40.92407227,-88.22063000
40.95458984,-87.26463000
40.98510742,-87.31590000
41.01562500,-87.30515000
41.04614258,-87.55397000
41.07666016,-88.32828000
41.10717773,-89.39719000
41.13769531,-90.19714000
41.16821289,-90.16560000
41.19873047,-89.40274000
41.22924805,-88.74597000
41.25976563,-89.06870000
41.29028320,-90.77669000
41.32080078,-93.50582000
41.35131836,-95.82864000
41.38183594,-97.28151000
41.41235352,-98.40865000
41.44287109,-98.83199000
41.47338867,-96.37077000
41.50390625,-91.16368000
41.53442383,-88.68140000
41.56494141,-89.66669000
41.59545898,-94.42097000
41.62597656,-100.49090000
41.65649414,-97.37357000
41.68701172,-94.34956000
41.71752930,-94.72455000
41.74804688,-98.26170000
41.77856445,-101.44830000
41.80908203,-113.07650000
41.83959961,-98.40218000
41.87011719,-91.09113000
41.90063477,-87.96568000
41.93115234,-86.38129000
41.96166992,-85.87306000
41.99218750,-86.69489000
42.02270508,-88.45184000
42.05322266,-90.60797000
42.08374023,-94.58592000
42.11425781,-114.65380000
42.14477539,-95.66749000
42.17529297,-91.05141000
42.20581055,-89.98717000
42.23632813,-89.56960000
42.26684570,-89.36214000
42.29736328,-90.50864000
42.32788086,-91.20640000
42.35839844,-88.61334000
42.38891602,-87.53640000
42.41943359,-89.16367000
42.44995117,-91.78328000
42.48046875,-95.00621000
42.51098633,-101.04980000
42.54150391,-91.40317000
42.57202148,-88.85425000
42.60253906,-92.07188000
42.63305664,-94.93744000
42.66357422,-88.82701000
42.69409180,-87.09373000
42.72460938,-88.63588000
42.75512695,-93.77193000
42.78564453,-107.35060000
42.81616211,-106.45470000
42.84667969,-118.75720000
42.87719727,-101.56580000
42.90771484,-94.47738000
42.93823242,-90.91998000
42.96875000,-90.12389000
42.99926758,-92.79094000
43.02978516,-99.96079000
43.06030273,-98.00682000
43.09082031,-95.54671000
43.12133789,-95.42976000
43.15185547,-95.96913000
43.18237305,-100.35270000
43.21289063,-108.74100000
43.24340820,-96.59158000
43.27392578,-92.45120000
43.30444336,-90.19584000
43.33496094,-88.04240000
43.36547852,-86.20708000
43.39599609,-86.12907000
43.42651367,-88.50742000
43.45703125,-94.13693000
43.48754883,-99.55684000
43.51806641,-88.97273000
43.54858398,-84.84685000
43.57910156,-84.02241000
43.60961914,-85.75005000
43.64013672,-90.08884000
43.67065430,-97.63428000
43.70117188,-106.27400000
43.73168945,-101.51720000
43.76220703,-94.48274000
43.79272461,-91.17384000
43.82324219,-90.70718000
43.85375977,-92.28882000
43.88427734,-95.86495000
43.91479492,-104.62420000
43.94531250,-103.28700000
43.97583008,-96.55643000
44.00634766,-96.44562000
44.03686523,-101.35690000
44.06738281,-106.38450000
44.09790039,-100.70240000
44.12841797,-97.87054000
44.15893555,-96.28656000
44.18945313,-94.72420000
44.21997070,-95.05482000
44.25048828,-97.27089000
44.28100586,-96.98215000
44.31152344,-95.60759000
44.34204102,-95.62209000
44.37255859,-95.00420000
44.40307617,-94.11243000
44.43359375,-95.75293000
44.46411133,-99.94559000
44.49462891,-99.33195000
44.52514648,-94.17236000
44.55566406,-90.59525000
44.58618164,-89.80336000
44.61669922,-90.89502000
44.64721680,-92.09126000
44.67773438,-92.49706000
44.70825195,-93.19962000
44.73876953,-95.20989000
44.76928711,-97.81742000
44.79980469,-100.44200000
44.83032227,-101.08860000
44.86083984,-99.22592000
44.89135742,-98.52943000
44.92187500,-97.57720000
44.95239258,-98.07461000
44.98291016,-95.04695000
45.01342773,-92.31693000
45.04394531,-93.39429000
45.07446289,-97.82670000
45.10498047,-104.54960000
45.13549805,-104.85710000
45.16601563,-97.75519000
45.19653320,-94.08698000
45.22705078,-93.49207000
45.25756836,-94.93770000
45.28808594,-96.17593000
45.31860352,-96.22056000
45.34912109,-97.08656000
45.37963867,-100.47410000
45.41015625,-106.45340000
45.44067383,-107.43500000
45.47119141,-104.64440000
45.50170898,-102.63940000
45.53222656,-102.38310000
45.56274414,-106.08190000
45.59326172,-116.35010000
45.62377930,-104.65870000
45.65429688,-100.24290000
45.68481445,-97.01493000
45.71533203,-94.46843000
45.74584961,-93.39369000
45.77636719,-93.85443000
45.80688477,-94.46929000
45.83740234,-94.51935000
45.86791992,-95.17477000
45.89843750,-96.62785000
45.92895508,-99.23112000
45.95947266,-104.72640000
45.98999023,-109.42630000
46.02050781,-111.74060000
46.05102539,-114.09000000
46.08154297,-104.10400000
46.11206055,-101.03870000
46.14257813,-98.07097000
46.17309570,-95.08440000
46.20361328,-93.70102000
46.23413086,-94.11594000
46.26464844,-95.94944000
46.29516602,-97.88687000
46.32568359,-99.27083000
46.35620117,-101.51920000
46.38671875,-103.15510000
46.41723633,-105.21910000
46.44775391,-109.63150000
46.47827148,-107.44740000
46.50878906,-102.36350000
46.53930664,-100.26500000
46.56982422,-99.42139000
46.60034180,-98.12745000
46.63085938,-95.55719000
46.66137695,-92.93539000
46.69189453,-91.37753000
46.72241211,-91.22835000
46.75292969,-92.79426000
46.78344727,-97.02986000
46.81396484,-106.58620000
46.84448242,-104.93270000
46.87500000,-100.41070000
46.90551758,-100.18820000
46.93603516,-102.10640000
46.96655273,-103.67320000
46.99707031,-101.90450000
47.02758789,-100.74940000
47.05810547,-116.19520000
47.08862305,-96.34343000
47.11914063,-90.21125000
47.14965820,-88.60915000
47.18017578,-89.70076000
47.21069336,-92.74847000
47.24121094,-95.78354000
47.27172852,-96.46492000
47.30224609,-95.92122000
47.33276367,-94.90451000
47.36328125,-94.43704000
47.39379883,-96.70262000
47.42431641,-111.30990000
47.45483398,-97.54373000
47.48535156,-91.97580000
47.51586914,-90.90950000
47.54638672,-92.99473000
47.57690430,-98.61749000
47.60742188,-101.02340000
47.63793945,-97.78980000
47.66845703,-94.89975000
47.69897461,-92.50919000
47.72949219,-91.45215000
47.76000977,-92.67623000
47.79052734,-98.63420000
47.82104492,-111.51190000
47.85156250,-99.59850000
47.88208008,-99.39712000
47.91259766,-101.76710000
47.94311523,-101.22630000
47.97363281,-99.26947000
48.00415039,-98.50049000
48.03466797,-100.07980000
48.06518555,-106.35130000
48.09570313,-113.50960000
48.12622070,-102.14390000
48.15673828,-99.14351000
48.18725586,-98.20683000
48.21777344,-97.56669000
48.24829102,-97.33012000
48.27880859,-98.28783000
48.30932617,-99.07441000
48.33984375,-96.96877000
48.37036133,-93.48957000
48.40087891,-91.50159000
48.43139648,-91.57044000
48.46191406,-93.82707000
48.49243164,-98.88367000
48.52294922,-103.72400000
48.55346680,-101.23860000
48.58398438,-101.29740000
48.61450195,-103.57950000
48.64501953,-103.99090000
48.67553711,-100.42910000
48.70605469,-96.61625000
48.73657227,-94.58009000
48.76708984,-94.94469000
48.79760742,-99.46275000
48.82812500,-112.12740000
48.85864258,-96.61033000
48.88916016,-93.60375000
48.91967773,-95.03060000
48.95019531,-101.76300000
48.98071289,-110.78000000
49.01123047,-98.71768000
49.04174805,-97.00916000
49.07226563,-101.15120000
49.10278320,-101.18840000
49.13330078,-96.56363000
49.16381836,-98.48191000
49.19433594,-105.06890000
49.22485352,-103.20310000
49.25537109,-105.50450000
49.28588867,-113.94150000
49.31640625,-100.07150000
49.34692383,-92.90842000
49.37744141,-90.28716000
49.40795898,-91.13644000
49.43847656,-95.68043000
49.46899414,-106.57290000
49.49951172,-105.61240000
49.53002930,-101.70740000
49.56054688,-102.11460000
49.59106445,-106.38030000
49.62158203,-111.67720000
49.65209961,-104.57680000
49.68261719,-97.40012000
49.71313477,-93.40112000
49.74365234,-91.52162000
49.77416992,-91.31633000
49.80468750,-92.59763000
49.83520508,-93.93464000
49.86572266,-93.18494000
49.89624023,-92.57956000
49.92675781,-94.31174000
49.95727539,-98.36015000
49.98779297,-98.19823000
50.01831055,-94.61736000
