Frequency,Channel A
(MHz),(dBu)

0.00000000,-24.01243000
0.03051758,-24.27198000
0.06103516,-29.00538000
0.09155273,-37.09968000
0.12207031,-46.47194000
0.15258789,-51.19453000
0.18310547,-53.03812000
0.21362305,-54.57510000
0.24414063,-55.14972000
0.27465820,-56.39492000
0.30517578,-59.84059000
0.33569336,-62.61285000
0.36621094,-60.08549000
0.39672852,-57.45972000
0.42724609,-55.83303000
0.45776367,-55.98360000
0.48828125,-58.14460000
0.51879883,-60.78742000
0.54931641,-61.69678000
0.57983398,-61.84856000
0.61035156,-63.00774000
0.64086914,-64.48582000
0.67138672,-65.44913000
0.70190430,-65.06202000
0.73242188,-62.83958000
0.76293945,-62.30414000
0.79345703,-63.00361000
0.82397461,-62.95543000
0.85449219,-62.28645000
0.88500977,-61.63751000
0.91552734,-61.31337000
0.94604492,-61.11322000
0.97656250,-60.81237000
1.00708008,-60.64483000
1.03759766,-60.64105000
1.06811523,-60.58727000
1.09863281,-60.34961000
1.12915039,-59.65803000
1.15966797,-59.19817000
1.19018555,-59.71190000
1.22070313,-60.93048000
1.25122070,-61.85931000
1.28173828,-61.72924000
1.31225586,-60.94381000
1.34277344,-60.21606000
1.37329102,-59.92519000
1.40380859,-60.41317000
1.43432617,-61.88603000
1.46484375,-63.82839000
1.49536133,-64.59836000
1.52587891,-63.48737000
1.55639648,-62.10028000
1.58691406,-61.62531000
1.61743164,-62.03476000
1.64794922,-62.47044000
1.67846680,-62.49156000
1.70898438,-62.51057000
1.73950195,-62.46890000
1.77001953,-62.05976000
1.80053711,-61.34516000
1.83105469,-60.65749000
1.86157227,-60.37209000
1.89208984,-60.62742000
1.92260742,-61.20949000
1.95312500,-61.81053000
1.98364258,-62.44129000
2.01416016,-63.26929000
2.04467773,-64.16702000
2.07519531,-64.58335000
2.10571289,-64.14350000
2.13623047,-63.34563000
2.16674805,-62.91557000
2.19726563,-63.08828000
2.22778320,-63.67649000
2.25830078,-64.36603000
2.28881836,-64.84805000
2.31933594,-64.84354000
2.34985352,-64.38874000
2.38037109,-63.86833000
2.41088867,-63.50633000
2.44140625,-63.22948000
2.47192383,-62.96093000
2.50244141,-62.78621000
2.53295898,-62.82473000
2.56347656,-63.14323000
2.59399414,-63.79914000
2.62451172,-64.76575000
2.65502930,-65.64183000
2.68554688,-65.64844000
2.71606445,-64.60049000
2.74658203,-63.29172000
2.77709961,-62.49738000
2.80761719,-62.53864000
2.83813477,-63.34514000
2.86865234,-64.41895000
2.89916992,-64.90199000
2.92968750,-64.27531000
2.96020508,-62.92908000
2.99072266,-61.60524000
3.02124023,-60.77452000
3.05175781,-60.51180000
3.08227539,-60.58735000
3.11279297,-60.70158000
3.14331055,-60.77024000
3.17382813,-60.86848000
3.20434570,-60.89611000
3.23486328,-60.57703000
3.26538086,-59.95696000
3.29589844,-59.45184000
3.32641602,-59.41053000
3.35693359,-59.89770000
3.38745117,-60.65221000
3.41796875,-61.22086000
3.44848633,-61.36230000
3.47900391,-61.22999000
3.50952148,-61.01012000
3.54003906,-60.72677000
3.57055664,-60.42612000
3.60107422,-60.27139000
3.63159180,-60.38013000
3.66210938,-60.65437000
3.69262695,-60.85173000
3.72314453,-60.78861000
3.75366211,-60.46016000
3.78417969,-60.05943000
3.81469727,-59.80932000
3.84521484,-59.81371000
3.87573242,-60.02800000
3.90625000,-60.34068000
3.93676758,-60.71651000
3.96728516,-61.17783000
3.99780273,-61.59775000
4.02832031,-61.65675000
4.05883789,-61.26323000
4.08935547,-60.81571000
4.11987305,-60.74145000
4.15039063,-61.13077000
4.18090820,-61.74439000
4.21142578,-62.22755000
4.24194336,-62.46057000
4.27246094,-62.53800000
4.30297852,-62.39027000
4.33349609,-61.92547000
4.36401367,-61.41638000
4.39453125,-61.25598000
4.42504883,-61.63322000
4.45556641,-62.46280000
4.48608398,-63.34993000
4.51660156,-63.72509000
4.54711914,-63.36370000
4.57763672,-62.55026000
4.60815430,-61.66560000
4.63867188,-61.04163000
4.66918945,-60.93264000
4.69970703,-61.38999000
4.73022461,-62.17503000
4.76074219,-62.80846000
4.79125977,-62.85526000
4.82177734,-62.34595000
4.85229492,-61.68737000
4.88281250,-61.20570000
4.91333008,-61.03281000
4.94384766,-61.21052000
4.97436523,-61.74546000
5.00488281,-62.55638000
5.03540039,-63.31659000
5.06591797,-63.47372000
5.09643555,-62.91626000
5.12695313,-62.20543000
5.15747070,-61.90475000
5.18798828,-62.33160000
5.21850586,-63.63188000
5.24902344,-65.82673000
5.27954102,-68.78815000
5.31005859,-72.11351000
5.34057617,-75.03056000
5.37109375,-77.03428000
5.40161133,-79.20912000
5.43212891,-80.75122000
5.46264648,-75.12222000
5.49316406,-69.76556000
5.52368164,-66.12291000
5.55419922,-63.68349000
5.58471680,-62.29404000
5.61523438,-61.85503000
5.64575195,-61.99889000
5.67626953,-61.87214000
5.70678711,-60.65018000
5.73730469,-58.71967000
5.76782227,-56.97110000
5.79833984,-55.83074000
5.82885742,-55.37220000
5.85937500,-55.51313000
5.88989258,-56.06313000
5.92041016,-56.73292000
5.95092773,-57.20938000
5.98144531,-57.30821000
6.01196289,-57.08428000
6.04248047,-56.79252000
6.07299805,-56.73167000
6.10351563,-57.10024000
6.13403320,-57.93934000
6.16455078,-59.14952000
6.19506836,-60.49586000
6.22558594,-61.49630000
6.25610352,-61.60616000
6.28662109,-61.04475000
6.31713867,-60.58062000
6.34765625,-60.68744000
6.37817383,-61.48213000
6.40869141,-62.93410000
6.43920898,-65.01960000
6.46972656,-67.63557000
6.50024414,-69.79648000
6.53076172,-69.65869000
6.56127930,-68.21333000
6.59179688,-67.24023000
6.62231445,-67.35519000
6.65283203,-68.81167000
6.68334961,-71.85786000
6.71386719,-76.75607000
6.74438477,-80.43491000
6.77490234,-77.54289000
6.80541992,-74.92587000
6.83593750,-73.57361000
6.86645508,-73.03046000
6.89697266,-73.08076000
6.92749023,-73.92410000
6.95800781,-75.94595000
6.98852539,-79.10512000
7.01904297,-82.36325000
7.04956055,-83.93423000
7.08007813,-82.93040000
7.11059570,-80.25056000
7.14111328,-77.60673000
7.17163086,-76.09898000
7.20214844,-76.11394000
7.23266602,-77.46547000
7.26318359,-79.56184000
7.29370117,-82.13825000
7.32421875,-84.29635000
7.35473633,-82.39922000
7.38525391,-79.29646000
7.41577148,-77.42049000
7.44628906,-76.91351000
7.47680664,-77.50752000
7.50732422,-78.70073000
7.53784180,-79.94825000
7.56835938,-81.23741000
7.59887695,-82.81441000
7.62939453,-82.02061000
7.65991211,-78.84497000
7.69042969,-76.60999000
7.72094727,-75.43607000
7.75146484,-74.88264000
7.78198242,-74.79516000
7.81250000,-75.09731000
7.84301758,-75.80516000
7.87353516,-76.72456000
7.90405273,-76.87670000
7.93457031,-76.11337000
7.96508789,-75.58189000
7.99560547,-75.81970000
8.02612305,-76.85249000
8.05664063,-78.75212000
8.08715820,-81.71021000
8.11767578,-85.32236000
8.14819336,-87.96993000
8.17871094,-88.39645000
8.20922852,-86.98811000
8.23974609,-84.63510000
8.27026367,-82.46871000
8.30078125,-81.32726000
8.33129883,-81.62261000
8.36181641,-84.17221000
8.39233398,-90.96493000
8.42285156,-94.61189000
8.45336914,-86.90387000
8.48388672,-82.45901000
8.51440430,-80.62865000
8.54492188,-81.39999000
8.57543945,-84.56912000
8.60595703,-89.58583000
8.63647461,-94.15451000
8.66699219,-88.30989000
8.69750977,-82.27634000
8.72802734,-78.96804000
8.75854492,-77.58328000
8.78906250,-77.58762000
8.81958008,-78.71292000
8.85009766,-80.93678000
8.88061523,-83.52182000
8.91113281,-83.00544000
8.94165039,-80.30994000
8.97216797,-78.47432000
9.00268555,-77.84661000
9.03320313,-78.08168000
9.06372070,-78.36713000
9.09423828,-78.39777000
9.12475586,-79.47703000
9.15527344,-83.07999000
9.18579102,-90.29527000
9.21630859,-97.14108000
9.24682617,-90.36472000
9.27734375,-84.66007000
9.30786133,-81.99767000
9.33837891,-81.22944000
9.36889648,-81.45245000
9.39941406,-82.07993000
9.42993164,-82.61437000
9.46044922,-82.74361000
9.49096680,-83.26798000
9.52148438,-85.21474000
9.55200195,-88.89907000
9.58251953,-89.05605000
9.61303711,-83.23615000
9.64355469,-79.24417000
9.67407227,-77.32980000
9.70458984,-77.02310000
9.73510742,-77.82532000
9.76562500,-79.02831000
9.79614258,-79.91342000
9.82666016,-80.26810000
9.85717773,-80.02250000
9.88769531,-79.19196000
9.91821289,-78.28207000
9.94873047,-77.48714000
9.97924805,-76.59286000
10.00976563,-75.99963000
10.04028320,-76.63025000
10.07080078,-79.32323000
10.10131836,-84.96621000
10.13183594,-87.86861000
10.16235352,-82.68108000
10.19287109,-79.18806000
10.22338867,-77.11598000
10.25390625,-76.38507000
10.28442383,-77.00799000
10.31494141,-78.92728000
10.34545898,-81.88187000
10.37597656,-85.46327000
10.40649414,-90.52021000
10.43701172,-90.09591000
10.46752930,-83.51251000
10.49804688,-80.07618000
10.52856445,-78.90308000
10.55908203,-79.54887000
10.58959961,-81.90585000
10.62011719,-85.83504000
10.65063477,-90.18626000
10.68115234,-91.39767000
10.71166992,-88.61362000
10.74218750,-85.14034000
10.77270508,-82.54111000
10.80322266,-81.46133000
10.83374023,-82.96050000
10.86425781,-89.10008000
10.89477539,-84.56200000
10.92529297,-79.30581000
10.95581055,-77.99461000
10.98632813,-78.43441000
11.01684570,-78.83256000
11.04736328,-79.64219000
11.07788086,-83.03318000
11.10839844,-85.37369000
11.13891602,-78.90374000
11.16943359,-75.22563000
11.19995117,-73.77209000
11.23046875,-74.05281000
11.26098633,-75.96464000
11.29150391,-78.91351000
11.32202148,-80.49499000
11.35253906,-79.54383000
11.38305664,-79.06306000
11.41357422,-80.13766000
11.44409180,-83.44337000
11.47460938,-95.37355000
11.50512695,-85.96863000
11.53564453,-79.07073000
11.56616211,-76.55921000
11.59667969,-76.32729000
11.62719727,-77.89817000
11.65771484,-80.99816000
11.68823242,-83.68044000
11.71875000,-82.45385000
11.74926758,-79.07652000
11.77978516,-76.20704000
11.81030273,-74.74056000
11.84082031,-74.51054000
11.87133789,-75.22448000
11.90185547,-76.57440000
11.93237305,-77.51777000
11.96289063,-77.89845000
11.99340820,-79.62879000
12.02392578,-82.00412000
12.05444336,-80.13951000
12.08496094,-78.25439000
12.11547852,-77.39835000
12.14599609,-76.29440000
12.17651367,-74.94211000
12.20703125,-73.71103000
12.23754883,-72.90765000
12.26806641,-73.13145000
12.29858398,-75.00507000
12.32910156,-78.22722000
12.35961914,-80.96348000
12.39013672,-84.82356000
12.42065430,-96.92963000
12.45117188,-88.58954000
12.48168945,-89.97360000
12.51220703,-94.07432000
12.54272461,-81.33543000
12.57324219,-77.66809000
12.60375977,-76.87659000
12.63427734,-77.32740000
12.66479492,-78.45427000
12.69531250,-80.40648000
12.72583008,-81.49564000
12.75634766,-79.99346000
12.78686523,-77.73029000
12.81738281,-74.92163000
12.84790039,-72.40571000
12.87841797,-71.29248000
12.90893555,-71.96060000
12.93945313,-74.40762000
12.96997070,-78.34469000
13.00048828,-82.39218000
13.03100586,-83.42963000
13.06152344,-81.09106000
13.09204102,-77.80759000
13.12255859,-74.74694000
13.15307617,-72.76658000
13.18359375,-72.18915000
13.21411133,-72.36382000
13.24462891,-72.30472000
13.27514648,-72.03547000
13.30566406,-72.41375000
13.33618164,-73.90720000
13.36669922,-75.68150000
13.39721680,-75.40196000
13.42773438,-74.58465000
13.45825195,-77.18566000
13.48876953,-82.89172000
13.51928711,-70.48188000
13.54980469,-66.84903000
13.58032227,-68.09085000
13.61083984,-74.55062000
13.64135742,-72.45251000
13.67187500,-68.04118000
13.70239258,-67.23547000
13.73291016,-68.46561000
13.76342773,-70.70815000
13.79394531,-72.76044000
13.82446289,-74.44137000
13.85498047,-76.88775000
13.88549805,-80.13162000
13.91601563,-81.00353000
13.94653320,-80.13039000
13.97705078,-79.40945000
14.00756836,-77.41176000
14.03808594,-75.22065000
14.06860352,-74.53932000
14.09912109,-75.58170000
14.12963867,-77.39792000
14.16015625,-78.58645000
14.19067383,-79.37879000
14.22119141,-80.39985000
14.25170898,-80.80447000
14.28222656,-79.37696000
14.31274414,-77.89162000
14.34326172,-77.55429000
14.37377930,-77.97966000
14.40429688,-79.02894000
14.43481445,-80.34911000
14.46533203,-80.59529000
14.49584961,-79.80984000
14.52636719,-80.20867000
14.55688477,-82.90524000
14.58740234,-87.18068000
14.61791992,-88.27470000
14.64843750,-87.43651000
14.67895508,-85.77793000
14.70947266,-83.54239000
14.73999023,-82.09201000
14.77050781,-80.92675000
14.80102539,-79.16466000
14.83154297,-77.55902000
14.86206055,-77.23865000
14.89257813,-78.34898000
14.92309570,-79.97931000
14.95361328,-80.66565000
14.98413086,-79.87463000
15.01464844,-78.18608000
15.04516602,-76.00893000
15.07568359,-74.06386000
15.10620117,-73.18340000
15.13671875,-73.78793000
15.16723633,-76.11102000
15.19775391,-80.06435000
15.22827148,-82.97169000
15.25878906,-80.37884000
15.28930664,-77.06296000
15.31982422,-75.11157000
15.35034180,-74.12513000
15.38085938,-73.76918000
15.41137695,-74.37392000
15.44189453,-76.37656000
15.47241211,-79.18996000
15.50292969,-79.94846000
15.53344727,-77.13672000
15.56396484,-74.21167000
15.59448242,-72.78200000
15.62500000,-72.89017000
15.65551758,-74.19989000
15.68603516,-76.11452000
15.71655273,-77.98234000
15.74707031,-79.92345000
15.77758789,-82.64649000
15.80810547,-85.43855000
15.83862305,-85.53262000
15.86914063,-84.21101000
15.89965820,-83.52203000
15.93017578,-82.95135000
15.96069336,-81.63368000
15.99121094,-80.17680000
16.02172852,-79.35919000
16.05224609,-79.15011000
16.08276367,-79.66664000
16.11328125,-81.33957000
16.14379883,-83.98363000
16.17431641,-85.38170000
16.20483398,-84.09924000
16.23535156,-81.89247000
16.26586914,-80.02444000
16.29638672,-79.46986000
16.32690430,-80.49816000
16.35742188,-82.36572000
16.38793945,-83.40646000
16.41845703,-82.80646000
16.44897461,-81.75659000
16.47949219,-81.18411000
16.51000977,-80.98812000
16.54052734,-80.94319000
16.57104492,-81.23676000
16.60156250,-81.78262000
16.63208008,-82.04668000
16.66259766,-82.05700000
16.69311523,-82.29732000
16.72363281,-82.92006000
16.75415039,-83.67306000
16.78466797,-83.88422000
16.81518555,-83.05466000
16.84570313,-82.20035000
16.87622070,-82.07531000
16.90673828,-82.56876000
16.93725586,-83.29318000
16.96777344,-83.95309000
16.99829102,-84.69910000
17.02880859,-85.75575000
17.05932617,-86.52442000
17.08984375,-86.74648000
17.12036133,-86.99681000
17.15087891,-85.75940000
17.18139648,-83.61313000
17.21191406,-82.63736000
17.24243164,-82.47414000
17.27294922,-81.82799000
17.30346680,-80.99414000
17.33398438,-80.94163000
17.36450195,-81.73615000
17.39501953,-82.94823000
17.42553711,-84.14295000
17.45605469,-84.42845000
17.48657227,-83.32312000
17.51708984,-82.27196000
17.54760742,-81.86721000
17.57812500,-81.69860000
17.60864258,-81.60603000
17.63916016,-81.50941000
17.66967773,-80.86060000
17.70019531,-79.69026000
17.73071289,-79.58188000
17.76123047,-78.57560000
17.79174805,-75.30684000
17.82226563,-74.33568000
17.85278320,-76.65021000
17.88330078,-80.69156000
17.91381836,-81.34673000
17.94433594,-80.92144000
17.97485352,-80.86761000
18.00537109,-80.55475000
18.03588867,-80.45157000
18.06640625,-81.07730000
18.09692383,-82.02330000
18.12744141,-82.13110000
18.15795898,-81.00170000
18.18847656,-79.65041000
18.21899414,-79.01768000
18.24951172,-79.28546000
18.28002930,-80.21426000
18.31054688,-81.64986000
18.34106445,-83.60373000
18.37158203,-85.65192000
18.40209961,-86.74065000
18.43261719,-86.35201000
18.46313477,-85.03789000
18.49365234,-83.38398000
18.52416992,-81.89427000
18.55468750,-81.16162000
18.58520508,-81.53565000
18.61572266,-82.73210000
18.64624023,-83.67987000
18.67675781,-83.90240000
18.70727539,-84.23235000
18.73779297,-84.66213000
18.76831055,-84.30541000
18.79882813,-83.49426000
18.82934570,-83.19866000
18.85986328,-83.38090000
18.89038086,-83.31601000
18.92089844,-83.28309000
18.95141602,-84.36942000
18.98193359,-87.33075000
19.01245117,-92.31436000
19.04296875,-97.20012000
19.07348633,-97.39303000
19.10400391,-94.96787000
19.13452148,-92.39850000
19.16503906,-90.17085000
19.19555664,-88.69546000
19.22607422,-87.81584000
19.25659180,-87.06593000
19.28710938,-86.47469000
19.31762695,-86.73450000
19.34814453,-88.00322000
19.37866211,-89.18471000
19.40917969,-89.07278000
19.43969727,-88.68707000
19.47021484,-89.82037000
19.50073242,-92.98263000
19.53125000,-98.17234000
19.56176758,-105.88870000
19.59228516,-94.61838000
19.62280273,-89.70176000
19.65332031,-87.16727000
19.68383789,-85.79980000
19.71435547,-85.41397000
19.74487305,-85.52214000
19.77539063,-85.25657000
19.80590820,-84.27331000
19.83642578,-83.44334000
19.86694336,-83.48203000
19.89746094,-83.76259000
19.92797852,-83.81458000
19.95849609,-83.99333000
19.98901367,-83.94093000
20.01953125,-83.51009000
20.05004883,-82.64778000
20.08056641,-81.35121000
20.11108398,-80.39989000
20.14160156,-80.15221000
20.17211914,-80.35499000
20.20263672,-80.99900000
20.23315430,-82.57178000
20.26367188,-84.91328000
20.29418945,-86.41960000
20.32470703,-86.46409000
20.35522461,-86.23822000
20.38574219,-85.99712000
20.41625977,-84.95358000
20.44677734,-82.81084000
20.47729492,-81.43427000
20.50781250,-81.78941000
20.53833008,-83.35891000
20.56884766,-84.85256000
20.59936523,-85.91340000
20.62988281,-87.19936000
20.66040039,-88.23578000
20.69091797,-87.81865000
20.72143555,-86.89128000
20.75195313,-86.60977000
20.78247070,-86.44772000
20.81298828,-85.79234000
20.84350586,-85.56131000
20.87402344,-87.12093000
20.90454102,-90.69185000
20.93505859,-93.69411000
20.96557617,-93.16969000
20.99609375,-90.26958000
21.02661133,-87.48587000
21.05712891,-85.05229000
21.08764648,-83.79783000
21.11816406,-84.42300000
21.14868164,-86.05190000
21.17919922,-86.79626000
21.20971680,-86.03794000
21.24023438,-85.24077000
21.27075195,-84.86915000
21.30126953,-84.00273000
21.33178711,-82.69554000
21.36230469,-81.96021000
21.39282227,-82.21816000
21.42333984,-82.91960000
21.45385742,-83.20921000
21.48437500,-83.39150000
21.51489258,-84.15939000
21.54541016,-84.97144000
21.57592773,-84.28058000
21.60644531,-82.14835000
21.63696289,-80.22551000
21.66748047,-79.18061000
21.69799805,-78.93268000
21.72851563,-79.32367000
21.75903320,-80.11606000
21.78955078,-80.61597000
21.82006836,-80.08134000
21.85058594,-78.95219000
21.88110352,-78.27651000
21.91162109,-78.53790000
21.94213867,-79.44028000
21.97265625,-80.13977000
22.00317383,-79.99763000
22.03369141,-79.12581000
22.06420898,-78.25139000
22.09472656,-78.11898000
22.12524414,-78.92313000
22.15576172,-80.10368000
22.18627930,-80.62337000
22.21679688,-80.20769000
22.24731445,-79.67256000
22.27783203,-79.69678000
22.30834961,-80.40674000
22.33886719,-81.63907000
22.36938477,-83.19258000
22.39990234,-84.82034000
22.43041992,-85.74619000
22.46093750,-85.83607000
22.49145508,-86.45607000
22.52197266,-88.39120000
22.55249023,-91.05121000
22.58300781,-92.41154000
22.61352539,-92.68485000
22.64404297,-94.11603000
22.67456055,-95.40068000
22.70507813,-94.55190000
22.73559570,-96.51117000
22.76611328,-96.64135000
22.79663086,-91.25519000
22.82714844,-88.75290000
22.85766602,-87.36968000
22.88818359,-86.17506000
22.91870117,-85.31120000
22.94921875,-84.50566000
22.97973633,-83.59106000
23.01025391,-82.95499000
23.04077148,-82.88667000
23.07128906,-83.38062000
23.10180664,-84.29653000
23.13232422,-85.46518000
23.16284180,-86.45291000
23.19335938,-86.58868000
23.22387695,-85.89247000
23.25439453,-85.16092000
23.28491211,-85.15891000
23.31542969,-85.77302000
23.34594727,-86.02661000
23.37646484,-85.20771000
23.40698242,-83.72897000
23.43750000,-82.48129000
23.46801758,-81.92844000
23.49853516,-81.94615000
23.52905273,-82.26062000
23.55957031,-82.87144000
23.59008789,-83.97330000
23.62060547,-85.53180000
23.65112305,-86.89890000
23.68164063,-87.11418000
23.71215820,-86.55580000
23.74267578,-86.11660000
23.77319336,-85.79884000
23.80371094,-85.32906000
23.83422852,-84.68991000
23.86474609,-84.06792000
23.89526367,-83.82407000
23.92578125,-84.28524000
23.95629883,-85.44118000
23.98681641,-86.89869000
24.01733398,-87.88083000
24.04785156,-87.94591000
24.07836914,-87.50894000
24.10888672,-86.88948000
24.13940430,-86.13799000
24.16992188,-85.25680000
24.20043945,-84.41606000
24.23095703,-83.99377000
24.26147461,-84.07147000
24.29199219,-84.45228000
24.32250977,-85.16919000
24.35302734,-86.02357000
24.38354492,-86.24100000
24.41406250,-85.67242000
24.44458008,-85.03389000
24.47509766,-84.79332000
24.50561523,-84.89557000
24.53613281,-84.90128000
24.56665039,-84.57109000
24.59716797,-84.06776000
24.62768555,-83.40413000
24.65820313,-82.64565000
24.68872070,-82.15721000
24.71923828,-82.29100000
24.74975586,-83.07016000
24.78027344,-84.07143000
24.81079102,-84.66692000
24.84130859,-84.71530000
24.87182617,-84.74870000
24.90234375,-85.33768000
24.93286133,-86.84837000
24.96337891,-89.55325000
24.99389648,-93.64050000
25.02441406,-99.53110000
25.05493164,-104.29210000
25.08544922,-97.24358000
25.11596680,-93.55949000
25.14648438,-92.45670000
25.17700195,-92.18347000
25.20751953,-91.81136000
25.23803711,-92.34058000
25.26855469,-94.51272000
25.29907227,-97.40434000
25.32958984,-97.96150000
25.36010742,-94.34785000
25.39062500,-90.19515000
25.42114258,-87.36188000
25.45166016,-85.78056000
25.48217773,-85.07967000
25.51269531,-85.03574000
25.54321289,-85.33513000
25.57373047,-85.46246000
25.60424805,-85.22778000
25.63476563,-84.66800000
25.66528320,-83.63185000
25.69580078,-82.29036000
25.72631836,-81.15820000
25.75683594,-80.59986000
25.78735352,-80.65985000
25.81787109,-81.14597000
25.84838867,-81.84801000
25.87890625,-82.68817000
25.90942383,-83.61889000
25.93994141,-84.55654000
25.97045898,-85.24396000
26.00097656,-85.21922000
26.03149414,-84.48676000
26.06201172,-83.42490000
26.09252930,-82.52486000
26.12304688,-82.21660000
26.15356445,-82.53221000
26.18408203,-83.25258000
26.21459961,-84.05275000
26.24511719,-84.50692000
26.27563477,-84.43362000
26.30615234,-84.17062000
26.33666992,-84.43265000
26.36718750,-85.80726000
26.39770508,-88.24703000
26.42822266,-90.88773000
26.45874023,-92.76000000
26.48925781,-93.77213000
26.51977539,-93.79899000
26.55029297,-93.79502000
26.58081055,-93.93289000
26.61132813,-93.17668000
26.64184570,-92.53905000
26.67236328,-93.26557000
26.70288086,-95.50095000
26.73339844,-97.95569000
26.76391602,-97.92931000
26.79443359,-96.26195000
26.82495117,-95.76332000
26.85546875,-96.86992000
26.88598633,-98.45264000
26.91650391,-99.41453000
26.94702148,-101.18070000
26.97753906,-106.29280000
27.00805664,-107.53560000
27.03857422,-103.54440000
27.06909180,-99.89503000
27.09960938,-95.19669000
27.13012695,-92.44861000
27.16064453,-91.44212000
27.19116211,-90.96084000
27.22167969,-90.13335000
27.25219727,-89.15160000
27.28271484,-88.84324000
27.31323242,-89.71450000
27.34375000,-91.66691000
27.37426758,-93.89946000
27.40478516,-95.36067000
27.43530273,-95.12904000
27.46582031,-94.18522000
27.49633789,-94.07864000
27.52685547,-93.67225000
27.55737305,-92.85114000
27.58789063,-93.14449000
27.61840820,-93.07147000
27.64892578,-91.47701000
27.67944336,-90.32844000
27.70996094,-89.83884000
27.74047852,-89.30630000
27.77099609,-88.98062000
27.80151367,-89.74072000
27.83203125,-91.55410000
27.86254883,-93.27737000
27.89306641,-94.40244000
27.92358398,-96.22070000
27.95410156,-99.87683000
27.98461914,-100.60980000
28.01513672,-95.29346000
28.04565430,-91.94775000
28.07617188,-90.91757000
28.10668945,-90.89520000
28.13720703,-90.64228000
28.16772461,-89.89151000
28.19824219,-89.10857000
28.22875977,-88.56818000
28.25927734,-88.11273000
28.28979492,-87.60779000
28.32031250,-87.02643000
28.35083008,-86.49070000
28.38134766,-86.43838000
28.41186523,-87.17159000
28.44238281,-88.24504000
28.47290039,-88.70782000
28.50341797,-88.68714000
28.53393555,-89.30276000
28.56445313,-90.22418000
28.59497070,-89.54637000
28.62548828,-88.48291000
28.65600586,-88.78975000
28.68652344,-91.20971000
28.71704102,-96.47487000
28.74755859,-103.46930000
28.77807617,-109.46810000
28.80859375,-111.13490000
28.83911133,-100.82920000
28.86962891,-97.54993000
28.90014648,-95.44676000
28.93066406,-94.40276000
28.96118164,-94.91141000
28.99169922,-94.79730000
29.02221680,-92.09253000
29.05273438,-90.73018000
29.08325195,-91.95013000
29.11376953,-94.66168000
29.14428711,-94.54501000
29.17480469,-93.58407000
29.20532227,-96.42815000
29.23583984,-110.89450000
29.26635742,-103.48360000
29.29687500,-101.95110000
29.32739258,-100.72100000
29.35791016,-96.76705000
29.38842773,-94.25784000
29.41894531,-92.65476000
29.44946289,-92.16124000
29.47998047,-93.72469000
29.51049805,-97.73962000
29.54101563,-96.29635000
29.57153320,-92.51273000
29.60205078,-91.60953000
29.63256836,-92.85002000
29.66308594,-95.38517000
29.69360352,-97.74753000
29.72412109,-99.49048000
29.75463867,-102.82910000
29.78515625,-107.91220000
29.81567383,-107.83390000
29.84619141,-114.45420000
29.87670898,-118.40240000
29.90722656,-118.78900000
29.93774414,-109.97520000
29.96826172,-102.19590000
29.99877930,-98.53752000
30.02929688,-96.51137000
30.05981445,-94.31070000
30.09033203,-94.35764000
30.12084961,-99.00485000
30.15136719,-106.20510000
30.18188477,-101.71820000
30.21240234,-100.57610000
30.24291992,-97.79155000
30.27343750,-95.14572000
30.30395508,-94.48257000
30.33447266,-95.67124000
30.36499023,-99.12730000
30.39550781,-106.78530000
30.42602539,-106.76570000
30.45654297,-102.10470000
30.48706055,-99.21581000
30.51757813,-95.95035000
30.54809570,-93.82606000
30.57861328,-93.56271000
30.60913086,-95.62344000
30.63964844,-101.95110000
30.67016602,-103.63080000
30.70068359,-93.98408000
30.73120117,-90.31473000
30.76171875,-89.63567000
30.79223633,-90.78690000
30.82275391,-92.33196000
30.85327148,-93.47019000
30.88378906,-94.68559000
30.91430664,-95.87811000
30.94482422,-96.69151000
30.97534180,-98.36617000
31.00585938,-101.95660000
31.03637695,-103.48680000
31.06689453,-97.79201000
31.09741211,-91.35220000
31.12792969,-87.49562000
31.15844727,-86.32854000
31.18896484,-87.48940000
31.21948242,-90.54253000
31.25000000,-95.50140000
31.28051758,-103.60480000
31.31103516,-108.03260000
31.34155273,-96.49434000
31.37207031,-92.99572000
31.40258789,-93.02316000
31.43310547,-95.17311000
31.46362305,-98.34351000
31.49414063,-98.62401000
31.52465820,-94.61089000
31.55517578,-91.57840000
31.58569336,-90.52626000
31.61621094,-91.21298000
31.64672852,-93.92632000
31.67724609,-100.91060000
31.70776367,-100.09020000
31.73828125,-94.52145000
31.76879883,-94.06579000
31.79931641,-96.01891000
31.82983398,-96.91840000
31.86035156,-96.00174000
31.89086914,-95.03778000
31.92138672,-94.99257000
31.95190430,-96.22331000
31.98242188,-97.65431000
32.01293945,-97.99274000
32.04345703,-97.59308000
32.07397461,-96.00501000
32.10449219,-94.56648000
32.13500977,-95.13604000
32.16552734,-97.74255000
32.19604492,-97.46227000
32.22656250,-94.35107000
32.25708008,-94.24732000
32.28759766,-97.29195000
32.31811523,-101.35640000
32.34863281,-102.46500000
32.37915039,-102.59100000
32.40966797,-110.43910000
32.44018555,-102.29990000
32.47070313,-96.42127000
32.50122070,-93.90824000
32.53173828,-92.05933000
32.56225586,-91.15726000
32.59277344,-91.49756000
32.62329102,-92.38010000
32.65380859,-92.79935000
32.68432617,-93.19477000
32.71484375,-94.94249000
32.74536133,-99.98302000
32.77587891,-142.03630000
32.80639648,-101.64930000
32.83691406,-99.70735000
32.86743164,-103.26290000
32.89794922,-109.56750000
32.92846680,-110.39170000
32.95898438,-101.81890000
32.98950195,-97.18076000
33.02001953,-95.15511000
33.05053711,-95.37685000
33.08105469,-99.43723000
33.11157227,-111.56970000
33.14208984,-100.60130000
33.17260742,-100.35240000
33.20312500,-110.07570000
33.23364258,-102.16560000
33.26416016,-97.18591000
33.29467773,-95.27887000
33.32519531,-93.81097000
33.35571289,-93.36979000
33.38623047,-93.89530000
33.41674805,-94.16486000
33.44726563,-95.37476000
33.47778320,-99.66930000
33.50830078,-102.91080000
33.53881836,-97.32199000
33.56933594,-95.86937000
33.59985352,-96.97841000
33.63037109,-98.25980000
33.66088867,-98.21794000
33.69140625,-95.84069000
33.72192383,-92.83968000
33.75244141,-91.14122000
33.78295898,-91.70521000
33.81347656,-95.55701000
33.84399414,-105.03430000
33.87451172,-100.64670000
33.90502930,-98.00485000
33.93554688,-99.87919000
33.96606445,-99.82608000
33.99658203,-97.82629000
34.02709961,-99.08497000
34.05761719,-101.66580000
34.08813477,-100.99010000
34.11865234,-100.52580000
34.14916992,-102.40370000
34.17968750,-107.02480000
34.21020508,-113.16100000
34.24072266,-101.88190000
34.27124023,-96.87863000
34.30175781,-96.29940000
34.33227539,-99.65817000
34.36279297,-101.45700000
34.39331055,-96.32352000
34.42382813,-93.63092000
34.45434570,-93.19376000
34.48486328,-94.27797000
34.51538086,-95.77438000
34.54589844,-95.57947000
34.57641602,-94.29351000
34.60693359,-94.13721000
34.63745117,-94.60333000
34.66796875,-94.96850000
34.69848633,-95.37903000
34.72900391,-94.56949000
34.75952148,-93.73214000
34.79003906,-93.66402000
34.82055664,-94.03488000
34.85107422,-95.21877000
34.88159180,-97.20624000
34.91210938,-97.22507000
34.94262695,-96.29602000
34.97314453,-98.19853000
35.00366211,-104.13350000
35.03417969,-106.69030000
35.06469727,-101.06720000
35.09521484,-96.70084000
35.12573242,-94.46613000
35.15625000,-93.94913000
35.18676758,-94.16996000
35.21728516,-94.34787000
35.24780273,-93.13213000
35.27832031,-92.17930000
35.30883789,-92.73660000
35.33935547,-93.28943000
35.36987305,-93.05934000
35.40039063,-93.58049000
35.43090820,-96.31642000
35.46142578,-103.25130000
35.49194336,-120.31420000
35.52246094,-107.78390000
35.55297852,-112.49450000
35.58349609,-105.62240000
35.61401367,-101.32690000
35.64453125,-101.90980000
35.67504883,-103.74330000
35.70556641,-103.54590000
35.73608398,-100.81330000
35.76660156,-98.93120000
35.79711914,-98.41419000
35.82763672,-99.93791000
35.85815430,-101.61620000
35.88867188,-99.09313000
35.91918945,-95.28790000
35.94970703,-93.58702000
35.98022461,-93.91821000
36.01074219,-94.64939000
36.04125977,-94.10460000
36.07177734,-93.15209000
36.10229492,-93.31600000
36.13281250,-94.47809000
36.16333008,-95.49158000
36.19384766,-96.31676000
36.22436523,-97.37412000
36.25488281,-98.51137000
36.28540039,-98.81190000
36.31591797,-98.40397000
36.34643555,-100.22060000
36.37695313,-106.14780000
36.40747070,-109.25830000
36.43798828,-101.50080000
36.46850586,-96.86488000
36.49902344,-95.64286000
36.52954102,-98.10951000
36.56005859,-103.98320000
36.59057617,-105.34210000
36.62109375,-101.42920000
36.65161133,-98.97134000
36.68212891,-101.86420000
36.71264648,-108.99660000
36.74316406,-97.37180000
36.77368164,-94.22149000
36.80419922,-94.79679000
36.83471680,-98.31812000
36.86523438,-106.13840000
36.89575195,-107.66690000
36.92626953,-100.63330000
36.95678711,-98.42168000
36.98730469,-96.89807000
37.01782227,-94.53277000
37.04833984,-93.78825000
37.07885742,-95.28030000
37.10937500,-97.52705000
37.13989258,-99.78615000
37.17041016,-104.83530000
37.20092773,-120.99580000
37.23144531,-109.66900000
37.26196289,-107.95520000
37.29248047,-104.44190000
37.32299805,-101.58890000
37.35351563,-104.56050000
37.38403320,-111.55330000
37.41455078,-96.77394000
37.44506836,-92.19690000
37.47558594,-91.03271000
37.50610352,-92.59853000
37.53662109,-96.69328000
37.56713867,-97.11774000
37.59765625,-93.74294000
37.62817383,-92.68930000
37.65869141,-94.21942000
37.68920898,-99.37718000
37.71972656,-112.85370000
37.75024414,-104.10550000
37.78076172,-101.18490000
37.81127930,-101.47390000
37.84179688,-109.22570000
37.87231445,-104.79980000
37.90283203,-96.91867000
37.93334961,-95.36627000
37.96386719,-98.24447000
37.99438477,-104.95450000
38.02490234,-98.94643000
38.05541992,-95.58423000
38.08593750,-94.24583000
38.11645508,-93.88861000
38.14697266,-95.00942000
38.17749023,-98.50696000
38.20800781,-103.83020000
38.23852539,-101.21760000
38.26904297,-96.26869000
38.29956055,-93.79452000
38.33007813,-95.16911000
38.36059570,-103.30330000
38.39111328,-104.73540000
38.42163086,-102.57850000
38.45214844,-125.33610000
38.48266602,-101.31910000
38.51318359,-97.55452000
38.54370117,-98.31607000
38.57421875,-99.45068000
38.60473633,-95.56720000
38.63525391,-91.60302000
38.66577148,-89.62620000
38.69628906,-89.73174000
38.72680664,-92.29478000
38.75732422,-98.86618000
38.78784180,-108.60590000
38.81835938,-101.28780000
38.84887695,-100.36520000
38.87939453,-99.93124000
38.90991211,-99.57028000
38.94042969,-100.98420000
38.97094727,-101.50300000
39.00146484,-98.33009000
39.03198242,-94.51534000
39.06250000,-92.12411000
39.09301758,-91.25037000
39.12353516,-91.18968000
39.15405273,-91.47637000
39.18457031,-92.46352000
39.21508789,-95.76070000
39.24560547,-101.72750000
39.27612305,-100.30220000
39.30664063,-101.41780000
39.33715820,-95.72814000
39.36767578,-91.94495000
39.39819336,-92.66488000
39.42871094,-93.93387000
39.45922852,-90.17728000
39.48974609,-88.56738000
39.52026367,-91.01227000
39.55078125,-104.39230000
39.58129883,-93.65324000
39.61181641,-87.26739000
39.64233398,-85.32433000
39.67285156,-85.99373000
39.70336914,-88.74174000
39.73388672,-92.69374000
39.76440430,-97.71615000
39.79492188,-101.93320000
39.82543945,-98.95630000
39.85595703,-96.76667000
39.88647461,-95.30385000
39.91699219,-94.64595000
39.94750977,-94.24537000
39.97802734,-93.59099000
40.00854492,-93.90339000
40.03906250,-96.38389000
40.06958008,-108.34530000
40.10009766,-97.41020000
40.13061523,-90.66113000
40.16113281,-88.14851000
40.19165039,-87.05899000
40.22216797,-86.74692000
40.25268555,-87.68761000
40.28320313,-90.73936000
40.31372070,-95.71105000
40.34423828,-96.56567000
40.37475586,-96.64032000
40.40527344,-100.16480000
40.43579102,-100.77010000
40.46630859,-98.94208000
40.49682617,-96.59514000
40.52734375,-93.68664000
40.55786133,-93.30702000
40.58837891,-94.57710000
40.61889648,-96.38912000
40.64941406,-97.91917000
40.67993164,-94.66560000
40.71044922,-93.36343000
40.74096680,-96.65650000
40.77148438,-96.33142000
40.80200195,-90.34828000
40.83251953,-87.33058000
40.86303711,-86.18287000
40.89355469,-86.37541000
40.92407227,-86.49850000
40.95458984,-86.43525000
40.98510742,-87.73746000
41.01562500,-89.12833000
41.04614258,-88.50056000
41.07666016,-88.26039000
41.10717773,-89.71568000
41.13769531,-93.33408000
41.16821289,-99.58615000
41.19873047,-101.01660000
41.22924805,-101.01110000
41.25976563,-107.61840000
41.29028320,-96.38558000
41.32080078,-89.75722000
41.35131836,-86.79080000
41.38183594,-86.23336000
41.41235352,-87.55687000
41.44287109,-90.19619000
41.47338867,-93.69544000
41.50390625,-97.58834000
41.53442383,-97.93141000
41.56494141,-95.29198000
41.59545898,-91.92935000
41.62597656,-89.26922000
41.65649414,-87.78390000
41.68701172,-87.87179000
41.71752930,-90.29008000
41.74804688,-96.52841000
41.77856445,-111.23350000
41.80908203,-97.38067000
41.83959961,-93.27473000
41.87011719,-91.59416000
41.90063477,-89.59764000
41.93115234,-87.48396000
41.96166992,-86.86161000
41.99218750,-87.57058000
42.02270508,-88.91814000
42.05322266,-91.11826000
42.08374023,-94.92944000
42.11425781,-103.03580000
42.14477539,-100.44690000
42.17529297,-93.80075000
42.20581055,-92.36520000
42.23632813,-93.46652000
42.26684570,-95.61935000
42.29736328,-97.60082000
42.32788086,-97.14618000
42.35839844,-93.96094000
42.38891602,-90.29657000
42.41943359,-87.99150000
42.44995117,-86.94864000
42.48046875,-85.93513000
42.51098633,-85.04029000
42.54150391,-85.43414000
42.57202148,-87.78794000
42.60253906,-91.76446000
42.63305664,-94.34711000
42.66357422,-92.94991000
42.69409180,-91.51984000
42.72460938,-91.98211000
42.75512695,-92.01572000
42.78564453,-91.01027000
42.81616211,-91.10007000
42.84667969,-91.65981000
42.87719727,-91.90691000
42.90771484,-92.84915000
42.93823242,-95.35862000
42.96875000,-97.36848000
42.99926758,-95.92575000
43.02978516,-91.08039000
43.06030273,-87.48150000
43.09082031,-86.92697000
43.12133789,-89.80911000
43.15185547,-96.63682000
43.18237305,-97.17637000
43.21289063,-93.22151000
43.24340820,-91.48146000
43.27392578,-91.01923000
43.30444336,-90.63379000
43.33496094,-90.14102000
43.36547852,-90.51474000
43.39599609,-92.14863000
43.42651367,-94.49254000
43.45703125,-95.86582000
43.48754883,-94.40883000
43.51806641,-91.70948000
43.54858398,-90.32169000
43.57910156,-90.89474000
43.60961914,-92.24451000
43.64013672,-92.43719000
43.67065430,-92.67744000
43.70117188,-96.22947000
43.73168945,-107.32710000
43.76220703,-94.97566000
43.79272461,-91.27292000
43.82324219,-90.57740000
43.85375977,-90.58096000
43.88427734,-89.67376000
43.91479492,-88.44853000
43.94531250,-88.55840000
43.97583008,-90.47124000
44.00634766,-93.28220000
44.03686523,-95.73386000
44.06738281,-95.58251000
44.09790039,-93.63402000
44.12841797,-93.24704000
44.15893555,-93.40641000
44.18945313,-92.34048000
44.21997070,-90.99626000
44.25048828,-90.54336000
44.28100586,-91.30359000
44.31152344,-92.53410000
44.34204102,-92.77962000
44.37255859,-93.05994000
44.40307617,-95.09116000
44.43359375,-98.22610000
44.46411133,-98.31817000
44.49462891,-96.15271000
44.52514648,-95.51118000
44.55566406,-98.15215000
44.58618164,-102.11320000
44.61669922,-97.53669000
44.64721680,-94.85818000
44.67773438,-92.28455000
44.70825195,-89.62656000
44.73876953,-88.99178000
44.76928711,-90.39436000
44.79980469,-92.56714000
44.83032227,-94.07807000
44.86083984,-95.11807000
44.89135742,-95.94258000
44.92187500,-95.92567000
44.95239258,-97.30315000
44.98291016,-101.40250000
45.01342773,-97.57476000
45.04394531,-93.54524000
45.07446289,-92.05383000
45.10498047,-91.45815000
45.13549805,-90.53430000
45.16601563,-89.27403000
45.19653320,-88.60276000
45.22705078,-89.38035000
45.25756836,-91.89934000
45.28808594,-94.63291000
45.31860352,-94.98593000
45.34912109,-93.79799000
45.37963867,-92.82150000
45.41015625,-94.17697000
45.44067383,-99.90424000
45.47119141,-117.49470000
45.50170898,-103.39440000
45.53222656,-100.44270000
45.56274414,-101.89780000
45.59326172,-116.03890000
45.62377930,-104.40540000
45.65429688,-100.85760000
45.68481445,-102.90170000
45.71533203,-101.56940000
45.74584961,-98.22116000
45.77636719,-98.87407000
45.80688477,-102.12870000
45.83740234,-99.85816000
45.86791992,-100.81450000
45.89843750,-109.03370000
45.92895508,-96.57945000
45.95947266,-91.88706000
45.98999023,-90.70956000
46.02050781,-91.64376000
46.05102539,-93.53606000
46.08154297,-93.57187000
46.11206055,-91.82571000
46.14257813,-90.47791000
46.17309570,-88.96646000
46.20361328,-87.87408000
46.23413086,-88.59203000
46.26464844,-91.63956000
46.29516602,-96.62971000
46.32568359,-100.24730000
46.35620117,-99.89414000
46.38671875,-97.53701000
46.41723633,-94.51682000
46.44775391,-93.07339000
46.47827148,-94.07336000
46.50878906,-97.10606000
46.53930664,-100.33910000
46.56982422,-104.65520000
46.60034180,-107.83260000
46.63085938,-100.63740000
46.66137695,-96.64406000
46.69189453,-95.58241000
46.72241211,-97.05634000
46.75292969,-99.15305000
46.78344727,-98.97060000
46.81396484,-97.19530000
46.84448242,-94.78036000
46.87500000,-92.83540000
46.90551758,-91.65311000
46.93603516,-91.17301000
46.96655273,-91.34050000
46.99707031,-92.36778000
47.02758789,-95.38618000
47.05810547,-103.56720000
47.08862305,-98.99505000
47.11914063,-94.64440000
47.14965820,-95.45358000
47.18017578,-100.15090000
47.21069336,-100.72840000
47.24121094,-96.77081000
47.27172852,-94.46959000
47.30224609,-93.07258000
47.33276367,-93.20744000
47.36328125,-96.54292000
47.39379883,-104.51230000
47.42431641,-95.99831000
47.45483398,-91.93831000
47.48535156,-91.12778000
47.51586914,-93.21793000
47.54638672,-103.28320000
47.57690430,-96.16303000
47.60742188,-89.27647000
47.63793945,-87.52296000
47.66845703,-88.34095000
47.69897461,-90.51236000
47.72949219,-92.98659000
47.76000977,-95.61176000
47.79052734,-99.23145000
47.82104492,-104.37950000
47.85156250,-112.00950000
47.88208008,-110.78830000
47.91259766,-103.66890000
47.94311523,-101.19530000
47.97363281,-99.72675000
48.00415039,-97.26749000
48.03466797,-96.80764000
48.06518555,-98.80919000
48.09570313,-98.28216000
48.12622070,-93.25679000
48.15673828,-90.11118000
48.18725586,-89.86607000
48.21777344,-92.00774000
48.24829102,-95.15613000
48.27880859,-96.65248000
48.30932617,-95.63228000
48.33984375,-94.56834000
48.37036133,-95.03740000
48.40087891,-97.26643000
48.43139648,-101.26890000
48.46191406,-102.24280000
48.49243164,-96.65445000
48.52294922,-94.60789000
48.55346680,-96.61640000
48.58398438,-103.04760000
48.61450195,-103.61220000
48.64501953,-97.92725000
48.67553711,-95.81021000
48.70605469,-96.13163000
48.73657227,-96.77166000
48.76708984,-95.34873000
48.79760742,-95.16095000
48.82812500,-99.85568000
48.85864258,-95.38411000
48.88916016,-89.27702000
48.91967773,-87.95551000
48.95019531,-89.99403000
48.98071289,-94.02657000
49.01123047,-97.98981000
49.04174805,-102.64420000
49.07226563,-97.21294000
49.10278320,-94.47937000
49.13330078,-96.57401000
49.16381836,-99.04562000
49.19433594,-96.03842000
49.22485352,-93.99124000
49.25537109,-93.25745000
49.28588867,-94.89265000
49.31640625,-99.04237000
49.34692383,-97.81181000
49.37744141,-93.94905000
49.40795898,-93.05889000
49.43847656,-94.80235000
49.46899414,-98.98894000
49.49951172,-103.48700000
49.53002930,-104.38810000
49.56054688,-113.22830000
49.59106445,-96.10131000
49.62158203,-91.39709000
49.65209961,-90.82031000
49.68261719,-93.53409000
49.71313477,-97.12971000
49.74365234,-95.39979000
49.77416992,-96.50661000
49.80468750,-109.55150000
49.83520508,-94.94624000
49.86572266,-89.56630000
49.89624023,-88.46572000
49.92675781,-90.77316000
49.95727539,-98.75184000
49.98779297,-106.42060000
50.01831055,-98.34350000
