Frequency,Channel A
(MHz),(dBu)

0.00000000,-27.09703000
0.03051758,-27.45569000
0.06103516,-32.70570000
0.09155273,-43.38008000
0.12207031,-65.93797000
0.15258789,-58.00485000
0.18310547,-63.71318000
0.21362305,-68.63483000
0.24414063,-75.76809000
0.27465820,-79.55331000
0.30517578,-82.55795000
0.33569336,-68.49079000
0.36621094,-61.23140000
0.39672852,-58.65944000
0.42724609,-58.77219000
0.45776367,-60.54710000
0.48828125,-62.87083000
0.51879883,-65.90064000
0.54931641,-72.59348000
0.57983398,-66.19501000
0.61035156,-63.67415000
0.64086914,-70.79793000
0.67138672,-70.71993000
0.70190430,-65.86819000
0.73242188,-65.96146000
0.76293945,-62.26948000
0.79345703,-61.56326000
0.82397461,-63.76762000
0.85449219,-65.65962000
0.88500977,-66.57038000
0.91552734,-66.92209000
0.94604492,-66.89279000
0.97656250,-67.67762000
1.00708008,-67.49993000
1.03759766,-65.49874000
1.06811523,-64.59689000
1.09863281,-66.41242000
1.12915039,-72.36224000
1.15966797,-75.28708000
1.19018555,-73.44222000
1.22070313,-82.92656000
1.25122070,-73.79116000
1.28173828,-68.65200000
1.31225586,-70.26493000
1.34277344,-81.35537000
1.37329102,-76.99375000
1.40380859,-73.26594000
1.43432617,-74.45935000
1.46484375,-79.45421000
1.49536133,-73.20849000
1.52587891,-69.55978000
1.55639648,-69.37814000
1.58691406,-67.86271000
1.61743164,-66.54604000
1.64794922,-66.44228000
1.67846680,-65.72762000
1.70898438,-65.43045000
1.73950195,-66.30166000
1.77001953,-68.81764000
1.80053711,-74.13564000
1.83105469,-75.58565000
1.86157227,-71.63097000
1.89208984,-70.20370000
1.92260742,-73.51611000
1.95312500,-75.72073000
1.98364258,-70.57005000
2.01416016,-71.63744000
2.04467773,-79.55569000
2.07519531,-76.27326000
2.10571289,-74.15221000
2.13623047,-74.57782000
2.16674805,-73.11188000
2.19726563,-73.32399000
2.22778320,-75.40620000
2.25830078,-77.46786000
2.28881836,-79.93716000
2.31933594,-79.56200000
2.34985352,-79.59435000
2.38037109,-79.63406000
2.41088867,-73.75414000
2.44140625,-70.75676000
2.47192383,-71.47315000
2.50244141,-75.86478000
2.53295898,-83.00150000
2.56347656,-79.82213000
2.59399414,-77.20650000
2.62451172,-76.91178000
2.65502930,-74.41849000
2.68554688,-75.22825000
2.71606445,-78.24561000
2.74658203,-73.98187000
2.77709961,-74.45686000
2.80761719,-79.44545000
2.83813477,-88.15820000
2.86865234,-82.12988000
2.89916992,-75.02579000
2.92968750,-75.33561000
2.96020508,-74.65582000
2.99072266,-72.21742000
3.02124023,-74.99146000
3.05175781,-87.36961000
3.08227539,-72.95112000
3.11279297,-71.03455000
3.14331055,-74.70954000
3.17382813,-83.39716000
3.20434570,-77.48564000
3.23486328,-75.87355000
3.26538086,-84.73148000
3.29589844,-74.81042000
3.32641602,-69.78664000
3.35693359,-69.23438000
3.38745117,-70.55168000
3.41796875,-74.16480000
3.44848633,-85.84988000
3.47900391,-81.65681000
3.50952148,-79.10140000
3.54003906,-80.15263000
3.57055664,-73.84937000
3.60107422,-71.66045000
3.63159180,-72.66235000
3.66210938,-71.88969000
3.69262695,-70.85229000
3.72314453,-72.21442000
3.75366211,-76.66139000
3.78417969,-90.64958000
3.81469727,-79.60107000
3.84521484,-81.33808000
3.87573242,-71.69287000
3.90625000,-68.79619000
3.93676758,-72.27126000
3.96728516,-80.21542000
3.99780273,-74.16359000
4.02832031,-76.45011000
4.05883789,-88.43904000
4.08935547,-83.35999000
4.11987305,-89.35264000
4.15039063,-75.78011000
4.18090820,-71.97866000
4.21142578,-71.08432000
4.24194336,-71.29834000
4.27246094,-73.09348000
4.30297852,-77.23328000
4.33349609,-81.08372000
4.36401367,-78.79287000
4.39453125,-83.41367000
4.42504883,-85.81682000
4.45556641,-77.70116000
4.48608398,-77.97331000
4.51660156,-77.77798000
4.54711914,-76.99735000
4.57763672,-79.27448000
4.60815430,-81.82608000
4.63867188,-78.84248000
4.66918945,-76.21463000
4.69970703,-74.78032000
4.73022461,-73.99449000
4.76074219,-74.55354000
4.79125977,-76.44144000
4.82177734,-77.74810000
4.85229492,-78.22616000
4.88281250,-79.17382000
4.91333008,-82.75270000
4.94384766,-90.73219000
4.97436523,-78.56946000
5.00488281,-75.68155000
5.03540039,-75.66389000
5.06591797,-76.89434000
5.09643555,-77.49259000
5.12695313,-75.01104000
5.15747070,-71.63224000
5.18798828,-70.24851000
5.21850586,-71.32581000
5.24902344,-74.52591000
5.27954102,-79.01880000
5.31005859,-82.41658000
5.34057617,-80.97902000
5.37109375,-78.41897000
5.40161133,-78.26554000
5.43212891,-80.02975000
5.46264648,-80.95604000
5.49316406,-77.16378000
5.52368164,-73.60217000
5.55419922,-70.90524000
5.58471680,-69.43674000
5.61523438,-70.05695000
5.64575195,-71.97800000
5.67626953,-72.50462000
5.70678711,-74.42274000
5.73730469,-78.04019000
5.76782227,-77.89520000
5.79833984,-78.83221000
5.82885742,-80.69295000
5.85937500,-78.10675000
5.88989258,-75.00191000
5.92041016,-71.36063000
5.95092773,-70.39138000
5.98144531,-72.29266000
6.01196289,-74.89625000
6.04248047,-76.70095000
6.07299805,-73.88329000
6.10351563,-70.72829000
6.13403320,-69.33659000
6.16455078,-70.27269000
6.19506836,-73.73816000
6.22558594,-79.60977000
6.25610352,-79.42866000
6.28662109,-77.54584000
6.31713867,-78.56124000
6.34765625,-78.20250000
6.37817383,-76.20452000
6.40869141,-74.03805000
6.43920898,-71.87411000
6.46972656,-70.83556000
6.50024414,-71.67372000
6.53076172,-74.53673000
6.56127930,-78.77402000
6.59179688,-81.24833000
6.62231445,-80.96378000
6.65283203,-80.81419000
6.68334961,-80.40427000
6.71386719,-79.60969000
6.74438477,-79.04286000
6.77490234,-78.01115000
6.80541992,-77.65279000
6.83593750,-77.92808000
6.86645508,-78.06868000
6.89697266,-78.53145000
6.92749023,-80.20142000
6.95800781,-81.30005000
6.98852539,-82.25255000
7.01904297,-87.48590000
7.04956055,-85.24933000
7.08007813,-80.71237000
7.11059570,-79.20851000
7.14111328,-79.55392000
7.17163086,-80.57271000
7.20214844,-80.15240000
7.23266602,-78.09059000
7.26318359,-76.77983000
7.29370117,-77.66649000
7.32421875,-81.42936000
7.35473633,-89.17168000
7.38525391,-86.39152000
7.41577148,-82.62253000
7.44628906,-82.76991000
7.47680664,-84.12543000
7.50732422,-83.75449000
7.53784180,-83.52432000
7.56835938,-84.16190000
7.59887695,-84.45663000
7.62939453,-82.78078000
7.65991211,-80.94548000
7.69042969,-80.52470000
7.72094727,-81.82474000
7.75146484,-84.43593000
7.78198242,-83.13005000
7.81250000,-79.82678000
7.84301758,-79.30053000
7.87353516,-82.19211000
7.90405273,-89.98985000
7.93457031,-93.92807000
7.96508789,-96.60496000
7.99560547,-92.70992000
8.02612305,-85.27149000
8.05664063,-83.82165000
8.08715820,-84.53040000
8.11767578,-84.67509000
8.14819336,-83.71939000
8.17871094,-83.99115000
8.20922852,-86.67466000
8.23974609,-88.03561000
8.27026367,-84.90826000
8.30078125,-83.64119000
8.33129883,-86.39637000
8.36181641,-100.94740000
8.39233398,-89.77337000
8.42285156,-87.43316000
8.45336914,-91.72012000
8.48388672,-89.94415000
8.51440430,-84.62010000
8.54492188,-82.69843000
8.57543945,-83.19380000
8.60595703,-86.77230000
8.63647461,-99.91187000
8.66699219,-89.73267000
8.69750977,-84.52972000
8.72802734,-83.23717000
8.75854492,-84.10783000
8.78906250,-87.63795000
8.81958008,-97.89947000
8.85009766,-93.41610000
8.88061523,-90.11218000
8.91113281,-97.05873000
8.94165039,-89.90300000
8.97216797,-82.01199000
9.00268555,-79.46338000
9.03320313,-79.32211000
9.06372070,-79.74120000
9.09423828,-79.47733000
9.12475586,-79.17291000
9.15527344,-80.03726000
9.18579102,-81.71416000
9.21630859,-82.55194000
9.24682617,-84.30330000
9.27734375,-85.55116000
9.30786133,-82.59612000
9.33837891,-82.12876000
9.36889648,-85.77811000
9.39941406,-93.72864000
9.42993164,-87.36913000
9.46044922,-82.76747000
9.49096680,-80.78393000
9.52148438,-80.97980000
9.55200195,-84.27850000
9.58251953,-93.69006000
9.61303711,-91.42669000
9.64355469,-89.46877000
9.67407227,-86.88191000
9.70458984,-81.51613000
9.73510742,-79.34692000
9.76562500,-80.28787000
9.79614258,-84.26593000
9.82666016,-86.23297000
9.85717773,-84.11140000
9.88769531,-86.04314000
9.91821289,-91.14899000
9.94873047,-86.11385000
9.97924805,-83.32770000
10.00976563,-82.72925000
10.04028320,-81.33106000
10.07080078,-79.11038000
10.10131836,-78.58273000
10.13183594,-80.58911000
10.16235352,-84.91059000
10.19287109,-90.68600000
10.22338867,-98.80353000
10.25390625,-96.50293000
10.28442383,-92.39429000
10.31494141,-88.37837000
10.34545898,-86.93004000
10.37597656,-87.83253000
10.40649414,-85.83882000
10.43701172,-80.88524000
10.46752930,-79.04897000
10.49804688,-81.09325000
10.52856445,-89.18704000
10.55908203,-90.24324000
10.58959961,-82.74757000
10.62011719,-80.04948000
10.65063477,-79.15450000
10.68115234,-79.05212000
10.71166992,-78.90928000
10.74218750,-79.09915000
10.77270508,-80.81351000
10.80322266,-84.35013000
10.83374023,-87.17380000
10.86425781,-87.37746000
10.89477539,-88.08147000
10.92529297,-85.18764000
10.95581055,-81.22527000
10.98632813,-79.72081000
11.01684570,-80.39880000
11.04736328,-83.24628000
11.07788086,-89.05415000
11.10839844,-87.00552000
11.13891602,-83.68423000
11.16943359,-86.50852000
11.19995117,-91.98433000
11.23046875,-84.92245000
11.26098633,-85.45152000
11.29150391,-92.10632000
11.32202148,-88.35910000
11.35253906,-82.66264000
11.38305664,-79.36049000
11.41357422,-78.32847000
11.44409180,-80.17232000
11.47460938,-84.10278000
11.50512695,-82.77895000
11.53564453,-80.53359000
11.56616211,-79.36600000
11.59667969,-78.28195000
11.62719727,-77.51715000
11.65771484,-76.54033000
11.68823242,-75.31903000
11.71875000,-75.69353000
11.74926758,-78.21603000
11.77978516,-80.98019000
11.81030273,-82.80636000
11.84082031,-86.66291000
11.87133789,-92.37743000
11.90185547,-83.69470000
11.93237305,-79.03045000
11.96289063,-78.35732000
11.99340820,-80.70929000
12.02392578,-84.37969000
12.05444336,-86.91354000
12.08496094,-85.03292000
12.11547852,-83.58719000
12.14599609,-86.21260000
12.17651367,-95.48824000
12.20703125,-99.29405000
12.23754883,-90.65166000
12.26806641,-86.57903000
12.29858398,-84.03153000
12.32910156,-82.37682000
12.35961914,-80.71588000
12.39013672,-80.91025000
12.42065430,-83.93275000
12.45117188,-79.22099000
12.48168945,-74.98164000
12.51220703,-74.05679000
12.54272461,-75.91277000
12.57324219,-81.08292000
12.60375977,-89.38583000
12.63427734,-88.01608000
12.66479492,-86.38081000
12.69531250,-87.86617000
12.72583008,-89.38686000
12.75634766,-87.17375000
12.78686523,-88.11584000
12.81738281,-87.12295000
12.84790039,-85.80837000
12.87841797,-87.23257000
12.90893555,-87.71225000
12.93945313,-90.40884000
12.96997070,-90.43731000
13.00048828,-84.54224000
13.03100586,-81.82996000
13.06152344,-81.35675000
13.09204102,-83.48109000
13.12255859,-84.21069000
13.15307617,-81.67447000
13.18359375,-81.84451000
13.21411133,-84.45247000
13.24462891,-87.75339000
13.27514648,-83.11670000
13.30566406,-76.63117000
13.33618164,-73.95097000
13.36669922,-74.73367000
13.39721680,-78.70225000
13.42773438,-82.06973000
13.45825195,-79.15432000
13.48876953,-73.01874000
13.51928711,-67.47595000
13.54980469,-64.73685000
13.58032227,-65.12491000
13.61083984,-68.42122000
13.64135742,-72.28694000
13.67187500,-74.37522000
13.70239258,-78.52707000
13.73291016,-86.82864000
13.76342773,-101.83220000
13.79394531,-84.99377000
13.82446289,-81.85384000
13.85498047,-83.86469000
13.88549805,-96.30051000
13.91601563,-86.80148000
13.94653320,-82.60804000
13.97705078,-85.69708000
14.00756836,-90.28584000
14.03808594,-83.54951000
14.06860352,-83.41621000
14.09912109,-83.16310000
14.12963867,-79.66167000
14.16015625,-77.66006000
14.19067383,-77.38425000
14.22119141,-79.03324000
14.25170898,-81.47235000
14.28222656,-80.34856000
14.31274414,-79.62215000
14.34326172,-81.91086000
14.37377930,-84.84401000
14.40429688,-83.12219000
14.43481445,-82.57423000
14.46533203,-84.67441000
14.49584961,-85.58440000
14.52636719,-85.33569000
14.55688477,-91.52257000
14.58740234,-94.56757000
14.61791992,-87.73596000
14.64843750,-89.78334000
14.67895508,-89.59708000
14.70947266,-87.84530000
14.73999023,-86.64290000
14.77050781,-88.88680000
14.80102539,-90.23400000
14.83154297,-81.36905000
14.86206055,-79.62826000
14.89257813,-82.61405000
14.92309570,-84.38986000
14.95361328,-83.26482000
14.98413086,-88.69118000
15.01464844,-85.80022000
15.04516602,-81.23642000
15.07568359,-83.38223000
15.10620117,-96.07446000
15.13671875,-90.23705000
15.16723633,-89.63445000
15.19775391,-100.23280000
15.22827148,-94.32858000
15.25878906,-87.97203000
15.28930664,-86.92627000
15.31982422,-86.07388000
15.35034180,-85.14732000
15.38085938,-87.93208000
15.41137695,-90.49039000
15.44189453,-84.60715000
15.47241211,-81.55605000
15.50292969,-80.03440000
15.53344727,-79.85021000
15.56396484,-82.73255000
15.59448242,-88.11546000
15.62500000,-82.50451000
15.65551758,-80.83623000
15.68603516,-85.14005000
15.71655273,-95.91409000
15.74707031,-84.67025000
15.77758789,-83.55877000
15.80810547,-87.28584000
15.83862305,-115.30830000
15.86914063,-86.37241000
15.89965820,-81.80042000
15.93017578,-81.02316000
15.96069336,-81.46545000
15.99121094,-82.66788000
16.02172852,-85.37022000
16.05224609,-90.16335000
16.08276367,-97.81272000
16.11328125,-89.94891000
16.14379883,-87.90012000
16.17431641,-88.85515000
16.20483398,-86.44997000
16.23535156,-83.41973000
16.26586914,-81.96580000
16.29638672,-82.59057000
16.32690430,-85.66980000
16.35742188,-90.86653000
16.38793945,-96.31146000
16.41845703,-93.44202000
16.44897461,-88.24909000
16.47949219,-86.02062000
16.51000977,-86.80502000
16.54052734,-89.40874000
16.57104492,-90.53778000
16.60156250,-90.62759000
16.63208008,-89.89313000
16.66259766,-89.13113000
16.69311523,-89.93234000
16.72363281,-91.30402000
16.75415039,-89.40543000
16.78466797,-87.90511000
16.81518555,-89.34444000
16.84570313,-89.28050000
16.87622070,-86.06193000
16.90673828,-86.19866000
16.93725586,-92.97258000
16.96777344,-95.14889000
16.99829102,-87.95183000
17.02880859,-87.81869000
17.05932617,-89.89841000
17.08984375,-90.93161000
17.12036133,-89.56213000
17.15087891,-87.31042000
17.18139648,-85.95687000
17.21191406,-85.09209000
17.24243164,-85.25147000
17.27294922,-88.04340000
17.30346680,-92.00790000
17.33398438,-88.75703000
17.36450195,-87.95592000
17.39501953,-92.48911000
17.42553711,-95.56995000
17.45605469,-91.59648000
17.48657227,-90.29102000
17.51708984,-87.43813000
17.54760742,-86.54895000
17.57812500,-88.87132000
17.60864258,-92.95876000
17.63916016,-102.46270000
17.66967773,-91.06503000
17.70019531,-83.25140000
17.73071289,-82.15008000
17.76123047,-83.46692000
17.79174805,-79.15462000
17.82226563,-76.67911000
17.85278320,-77.54681000
17.88330078,-81.08524000
17.91381836,-86.24203000
17.94433594,-89.40056000
17.97485352,-90.35796000
18.00537109,-90.16733000
18.03588867,-90.95079000
18.06640625,-94.41415000
18.09692383,-95.26222000
18.12744141,-93.01923000
18.15795898,-94.06168000
18.18847656,-96.20180000
18.21899414,-95.84370000
18.24951172,-102.24070000
18.28002930,-94.66518000
18.31054688,-88.27174000
18.34106445,-86.46790000
18.37158203,-87.30282000
18.40209961,-90.14214000
18.43261719,-93.75981000
18.46313477,-94.63527000
18.49365234,-92.56801000
18.52416992,-90.89418000
18.55468750,-90.45773000
18.58520508,-91.48597000
18.61572266,-93.47546000
18.64624023,-94.62142000
18.67675781,-95.04568000
18.70727539,-95.98730000
18.73779297,-97.94304000
18.76831055,-102.00660000
18.79882813,-115.05440000
18.82934570,-105.62600000
18.85986328,-98.58064000
18.89038086,-95.13211000
18.92089844,-92.56657000
18.95141602,-91.33456000
18.98193359,-92.74723000
19.01245117,-97.56456000
19.04296875,-103.16170000
19.07348633,-100.02290000
19.10400391,-98.69506000
19.13452148,-105.22170000
19.16503906,-95.59898000
19.19555664,-90.18462000
19.22607422,-88.84065000
19.25659180,-89.86306000
19.28710938,-92.98109000
19.31762695,-97.92518000
19.34814453,-101.84400000
19.37866211,-104.04390000
19.40917969,-106.50710000
19.43969727,-100.21730000
19.47021484,-94.68181000
19.50073242,-92.36586000
19.53125000,-92.50014000
19.56176758,-94.41092000
19.59228516,-96.18636000
19.62280273,-96.06299000
19.65332031,-94.97819000
19.68383789,-94.53368000
19.71435547,-95.22376000
19.74487305,-96.89614000
19.77539063,-101.21110000
19.80590820,-111.43570000
19.83642578,-99.70084000
19.86694336,-91.79218000
19.89746094,-88.56598000
19.92797852,-88.70441000
19.95849609,-91.58928000
19.98901367,-96.24229000
20.01953125,-100.17340000
20.05004883,-99.45450000
20.08056641,-97.34650000
20.11108398,-96.04645000
20.14160156,-98.06503000
20.17211914,-101.80600000
20.20263672,-94.40952000
20.23315430,-92.28563000
20.26367188,-94.61288000
20.29418945,-101.27110000
20.32470703,-108.15420000
20.35522461,-103.99450000
20.38574219,-98.22057000
20.41625977,-96.69391000
20.44677734,-98.87445000
20.47729492,-96.26883000
20.50781250,-92.71936000
20.53833008,-92.43112000
20.56884766,-93.70122000
20.59936523,-94.75829000
20.62988281,-96.43485000
20.66040039,-98.68936000
20.69091797,-100.84190000
20.72143555,-99.26670000
20.75195313,-95.44144000
20.78247070,-91.50732000
20.81298828,-89.75272000
20.84350586,-90.70303000
20.87402344,-92.27021000
20.90454102,-90.68805000
20.93505859,-89.43623000
20.96557617,-90.89860000
20.99609375,-96.05820000
21.02661133,-102.57410000
21.05712891,-99.73950000
21.08764648,-98.85136000
21.11816406,-100.11540000
21.14868164,-100.15230000
21.17919922,-95.87086000
21.20971680,-94.60501000
21.24023438,-98.03221000
21.27075195,-107.15070000
21.30126953,-105.40110000
21.33178711,-102.88320000
21.36230469,-97.59271000
21.39282227,-94.83270000
21.42333984,-97.70641000
21.45385742,-106.69370000
21.48437500,-92.56970000
21.51489258,-90.05161000
21.54541016,-91.08566000
21.57592773,-92.23605000
21.60644531,-93.81624000
21.63696289,-97.06361000
21.66748047,-97.51113000
21.69799805,-98.07076000
21.72851563,-101.89410000
21.75903320,-108.47130000
21.78955078,-110.99880000
21.82006836,-97.93927000
21.85058594,-93.00142000
21.88110352,-91.92712000
21.91162109,-93.33694000
21.94213867,-97.01420000
21.97265625,-102.29010000
22.00317383,-105.53620000
22.03369141,-107.67040000
22.06420898,-102.54130000
22.09472656,-95.99804000
22.12524414,-91.59995000
22.15576172,-90.36153000
22.18627930,-92.72755000
22.21679688,-96.76299000
22.24731445,-96.87711000
22.27783203,-100.33880000
22.30834961,-111.88860000
22.33886719,-104.77660000
22.36938477,-97.42749000
22.39990234,-92.17693000
22.43041992,-89.64062000
22.46093750,-89.46767000
22.49145508,-91.70264000
22.52197266,-96.40399000
22.55249023,-101.69360000
22.58300781,-100.60050000
22.61352539,-97.41676000
22.64404297,-95.49152000
22.67456055,-95.13559000
22.70507813,-96.04984000
22.73559570,-96.40820000
22.76611328,-96.69402000
22.79663086,-100.96960000
22.82714844,-103.99200000
22.85766602,-100.41780000
22.88818359,-107.74540000
22.91870117,-101.27390000
22.94921875,-97.39791000
22.97973633,-101.73630000
23.01025391,-102.60400000
23.04077148,-93.43152000
23.07128906,-90.19090000
23.10180664,-90.16048000
23.13232422,-93.35072000
23.16284180,-101.31980000
23.19335938,-100.29860000
23.22387695,-96.32336000
23.25439453,-95.86703000
23.28491211,-96.42284000
23.31542969,-97.56153000
23.34594727,-98.68707000
23.37646484,-97.78152000
23.40698242,-97.38544000
23.43750000,-97.64400000
23.46801758,-96.99275000
23.49853516,-96.30942000
23.52905273,-98.05439000
23.55957031,-101.91560000
23.59008789,-100.70300000
23.62060547,-98.93983000
23.65112305,-98.75397000
23.68164063,-99.55960000
23.71215820,-98.35347000
23.74267578,-96.90836000
23.77319336,-97.94437000
23.80371094,-99.62584000
23.83422852,-100.35320000
23.86474609,-103.39980000
23.89526367,-115.17220000
23.92578125,-107.14260000
23.95629883,-100.77230000
23.98681641,-99.28043000
24.01733398,-103.29580000
24.04785156,-101.24420000
24.07836914,-94.66577000
24.10888672,-93.49522000
24.13940430,-96.12680000
24.16992188,-102.01340000
24.20043945,-107.79110000
24.23095703,-114.93670000
24.26147461,-112.52460000
24.29199219,-103.77350000
24.32250977,-96.87286000
24.35302734,-92.30445000
24.38354492,-91.22311000
24.41406250,-93.89289000
24.44458008,-100.33390000
24.47509766,-104.95610000
24.50561523,-99.82095000
24.53613281,-94.92360000
24.56665039,-93.70216000
24.59716797,-95.21939000
24.62768555,-100.15950000
24.65820313,-97.40666000
24.68872070,-93.64571000
24.71923828,-94.58413000
24.74975586,-97.19356000
24.78027344,-99.54017000
24.81079102,-108.97620000
24.84130859,-103.07450000
24.87182617,-95.58205000
24.90234375,-92.41169000
24.93286133,-91.82521000
24.96337891,-93.65722000
24.99389648,-97.76282000
25.02441406,-108.72750000
25.05493164,-101.51610000
25.08544922,-93.95857000
25.11596680,-91.16760000
25.14648438,-90.55306000
25.17700195,-92.09428000
25.20751953,-96.94114000
25.23803711,-109.09170000
25.26855469,-104.67810000
25.29907227,-104.37620000
25.32958984,-106.93730000
25.36010742,-99.78868000
25.39062500,-98.20937000
25.42114258,-102.72660000
25.45166016,-106.59330000
25.48217773,-99.27880000
25.51269531,-97.62878000
25.54321289,-97.48949000
25.57373047,-98.58186000
25.60424805,-99.32474000
25.63476563,-95.26162000
25.66528320,-93.99295000
25.69580078,-96.69781000
25.72631836,-104.37010000
25.75683594,-100.72330000
25.78735352,-96.18243000
25.81787109,-93.81469000
25.84838867,-92.20208000
25.87890625,-92.57433000
25.90942383,-94.41300000
25.93994141,-95.85137000
25.97045898,-95.99567000
26.00097656,-98.80557000
26.03149414,-112.78870000
26.06201172,-96.19460000
26.09252930,-93.29562000
26.12304688,-94.25533000
26.15356445,-95.70350000
26.18408203,-95.43329000
26.21459961,-93.81926000
26.24511719,-93.30171000
26.27563477,-95.59973000
26.30615234,-100.64060000
26.33666992,-103.79910000
26.36718750,-100.47150000
26.39770508,-98.16199000
26.42822266,-98.80715000
26.45874023,-95.49678000
26.48925781,-91.79416000
26.51977539,-92.09685000
26.55029297,-97.45609000
26.58081055,-105.17420000
26.61132813,-98.51380000
26.64184570,-99.10531000
26.67236328,-103.46970000
26.70288086,-103.97270000
26.73339844,-110.26010000
26.76391602,-108.90670000
26.79443359,-105.61270000
26.82495117,-116.51510000
26.85546875,-107.44440000
26.88598633,-105.73850000
26.91650391,-100.44330000
26.94702148,-96.31815000
26.97753906,-95.63124000
27.00805664,-96.95466000
27.03857422,-99.83765000
27.06909180,-106.33250000
27.09960938,-102.65030000
27.13012695,-98.61017000
27.16064453,-100.66460000
27.19116211,-105.02630000
27.22167969,-104.06350000
27.25219727,-109.76190000
27.28271484,-104.54240000
27.31323242,-106.06830000
27.34375000,-109.16040000
27.37426758,-98.93200000
27.40478516,-98.98610000
27.43530273,-103.38410000
27.46582031,-98.50906000
27.49633789,-95.77358000
27.52685547,-96.18378000
27.55737305,-96.74315000
27.58789063,-96.31061000
27.61840820,-97.03323000
27.64892578,-99.68812000
27.67944336,-105.20690000
27.70996094,-113.31320000
27.74047852,-101.41230000
27.77099609,-95.39886000
27.80151367,-94.14811000
27.83203125,-96.86459000
27.86254883,-101.10030000
27.89306641,-101.11910000
27.92358398,-98.14697000
27.95410156,-96.41109000
27.98461914,-100.09060000
28.01513672,-105.15410000
28.04565430,-94.90233000
28.07617188,-92.54371000
28.10668945,-94.30825000
28.13720703,-100.00390000
28.16772461,-100.39740000
28.19824219,-97.80620000
28.22875977,-99.48752000
28.25927734,-102.75700000
28.28979492,-101.62880000
28.32031250,-97.65484000
28.35083008,-95.40753000
28.38134766,-95.35201000
28.41186523,-99.78973000
28.44238281,-105.95120000
28.47290039,-94.48448000
28.50341797,-92.56173000
28.53393555,-93.34496000
28.56445313,-93.01665000
28.59497070,-91.33194000
28.62548828,-90.49724000
28.65600586,-92.09821000
28.68652344,-95.88448000
28.71704102,-99.70051000
28.74755859,-101.54210000
28.77807617,-98.72005000
28.80859375,-97.89292000
28.83911133,-97.09731000
28.86962891,-93.64430000
28.90014648,-90.40905000
28.93066406,-89.79535000
28.96118164,-92.93954000
28.99169922,-102.31990000
29.02221680,-105.46570000
29.05273438,-107.41760000
29.08325195,-107.34600000
29.11376953,-98.00721000
29.14428711,-95.24978000
29.17480469,-94.60575000
29.20532227,-94.34505000
29.23583984,-93.94395000
29.26635742,-94.10767000
29.29687500,-95.26106000
29.32739258,-96.99978000
29.35791016,-99.37788000
29.38842773,-102.58050000
29.41894531,-98.72613000
29.44946289,-93.44917000
29.47998047,-91.02972000
29.51049805,-90.89308000
29.54101563,-92.23975000
29.57153320,-94.03076000
29.60205078,-95.45792000
29.63256836,-95.86836000
29.66308594,-94.81229000
29.69360352,-92.95872000
29.72412109,-91.65678000
29.75463867,-91.92620000
29.78515625,-93.39711000
29.81567383,-93.10188000
29.84619141,-93.05068000
29.87670898,-96.84067000
29.90722656,-94.24194000
29.93774414,-90.06194000
29.96826172,-90.16827000
29.99877930,-93.01652000
30.02929688,-94.91207000
30.05981445,-93.83406000
30.09033203,-92.31029000
30.12084961,-92.47341000
30.15136719,-94.17906000
30.18188477,-95.06501000
30.21240234,-95.65331000
30.24291992,-97.34028000
30.27343750,-97.62019000
30.30395508,-96.96170000
30.33447266,-99.41474000
30.36499023,-102.84930000
30.39550781,-98.45200000
30.42602539,-97.06578000
30.45654297,-99.21822000
30.48706055,-106.17800000
30.51757813,-105.73530000
30.54809570,-103.65420000
30.57861328,-109.00480000
30.60913086,-103.21220000
30.63964844,-101.58560000
30.67016602,-102.31930000
30.70068359,-98.14617000
30.73120117,-93.71387000
30.76171875,-90.62985000
30.79223633,-88.90889000
30.82275391,-88.64422000
30.85327148,-89.68258000
30.88378906,-91.58825000
30.91430664,-94.16211000
30.94482422,-97.64445000
30.97534180,-100.35000000
31.00585938,-97.28168000
31.03637695,-92.82498000
31.06689453,-90.77402000
31.09741211,-91.73225000
31.12792969,-95.64381000
31.15844727,-98.62472000
31.18896484,-96.94276000
31.21948242,-96.18122000
31.25000000,-96.92468000
31.28051758,-98.02369000
31.31103516,-96.73786000
31.34155273,-95.68742000
31.37207031,-98.84448000
31.40258789,-99.62643000
31.43310547,-92.60522000
31.46362305,-90.77512000
31.49414063,-93.13876000
31.52465820,-100.02920000
31.55517578,-106.53730000
31.58569336,-105.28080000
31.61621094,-98.54722000
31.64672852,-96.19592000
31.67724609,-96.74966000
31.70776367,-98.40469000
31.73828125,-102.09300000
31.76879883,-104.70850000
31.79931641,-101.42060000
31.82983398,-99.38571000
31.86035156,-99.24984000
31.89086914,-100.57660000
31.92138672,-100.54380000
31.95190430,-97.44118000
31.98242188,-94.76966000
32.01293945,-92.81929000
32.04345703,-91.14783000
32.07397461,-90.13542000
32.10449219,-90.44479000
32.13500977,-92.58728000
32.16552734,-96.44655000
32.19604492,-96.15050000
32.22656250,-93.58285000
32.25708008,-94.52312000
32.28759766,-99.28947000
32.31811523,-103.07570000
32.34863281,-106.07440000
32.37915039,-103.03510000
32.40966797,-99.95250000
32.44018555,-99.83204000
32.47070313,-99.77242000
32.50122070,-99.21921000
32.53173828,-97.26572000
32.56225586,-96.64519000
32.59277344,-99.55415000
32.62329102,-101.40490000
32.65380859,-98.60623000
32.68432617,-97.03468000
32.71484375,-95.00907000
32.74536133,-95.49138000
32.77587891,-100.84290000
32.80639648,-103.22390000
32.83691406,-100.14870000
32.86743164,-100.07220000
32.89794922,-98.17365000
32.92846680,-95.73784000
32.95898438,-94.59424000
32.98950195,-94.84987000
33.02001953,-94.83951000
33.05053711,-93.73132000
33.08105469,-93.25749000
33.11157227,-93.84720000
33.14208984,-95.56075000
33.17260742,-99.44595000
33.20312500,-104.53350000
33.23364258,-100.29530000
33.26416016,-97.17658000
33.29467773,-96.17830000
33.32519531,-97.77426000
33.35571289,-103.99820000
33.38623047,-100.50050000
33.41674805,-95.18570000
33.44726563,-93.99329000
33.47778320,-95.30053000
33.50830078,-97.25343000
33.53881836,-100.48490000
33.56933594,-110.77240000
33.59985352,-110.36840000
33.63037109,-102.77320000
33.66088867,-97.49756000
33.69140625,-98.29451000
33.72192383,-107.53680000
33.75244141,-99.02022000
33.78295898,-94.78246000
33.81347656,-92.66020000
33.84399414,-90.94558000
33.87451172,-90.24052000
33.90502930,-90.78952000
33.93554688,-92.02744000
33.96606445,-92.67720000
33.99658203,-93.68675000
34.02709961,-96.97975000
34.05761719,-102.90240000
34.08813477,-105.93730000
34.11865234,-99.39850000
34.14916992,-96.46832000
34.17968750,-97.85755000
34.21020508,-102.88690000
34.24072266,-99.42075000
34.27124023,-96.95631000
34.30175781,-99.36389000
34.33227539,-104.33630000
34.36279297,-103.91610000
34.39331055,-102.50180000
34.42382813,-98.42551000
34.45434570,-96.95836000
34.48486328,-98.81963000
34.51538086,-105.22880000
34.54589844,-105.38430000
34.57641602,-97.53452000
34.60693359,-96.12411000
34.63745117,-100.59370000
34.66796875,-103.66640000
34.69848633,-97.00211000
34.72900391,-96.31507000
34.75952148,-98.58024000
34.79003906,-99.25057000
34.82055664,-97.53742000
34.85107422,-94.95888000
34.88159180,-92.42448000
34.91210938,-91.62988000
34.94262695,-92.59290000
34.97314453,-94.65194000
35.00366211,-98.31880000
35.03417969,-105.14650000
35.06469727,-102.03300000
35.09521484,-97.64718000
35.12573242,-97.22086000
35.15625000,-101.20650000
35.18676758,-106.80770000
35.21728516,-101.48540000
35.24780273,-100.69900000
35.27832031,-101.90910000
35.30883789,-103.94830000
35.33935547,-105.43090000
35.36987305,-102.96220000
35.40039063,-100.84580000
35.43090820,-99.92916000
35.46142578,-100.78590000
35.49194336,-104.20090000
35.52246094,-104.66100000
35.55297852,-103.90980000
35.58349609,-119.58280000
35.61401367,-101.73660000
35.64453125,-97.14665000
35.67504883,-97.99874000
35.70556641,-96.99375000
35.73608398,-93.59394000
35.76660156,-92.57397000
35.79711914,-92.83086000
35.82763672,-92.69643000
35.85815430,-92.27615000
35.88867188,-93.01411000
35.91918945,-95.62750000
35.94970703,-97.26540000
35.98022461,-95.63783000
36.01074219,-95.28169000
36.04125977,-95.66998000
36.07177734,-94.03832000
36.10229492,-92.42023000
36.13281250,-92.75755000
36.16333008,-95.75824000
36.19384766,-98.81781000
36.22436523,-95.73882000
36.25488281,-94.65405000
36.28540039,-97.05302000
36.31591797,-103.51080000
36.34643555,-108.93140000
36.37695313,-105.12440000
36.40747070,-105.49770000
36.43798828,-105.28970000
36.46850586,-105.08760000
36.49902344,-111.35610000
36.52954102,-102.47120000
36.56005859,-99.80347000
36.59057617,-102.70770000
36.62109375,-101.16300000
36.65161133,-97.48802000
36.68212891,-97.82623000
36.71264648,-102.94040000
36.74316406,-102.62070000
36.77368164,-95.39571000
36.80419922,-91.96659000
36.83471680,-90.94741000
36.86523438,-91.66805000
36.89575195,-93.05472000
36.92626953,-94.13499000
36.95678711,-95.81036000
36.98730469,-100.51230000
37.01782227,-112.51540000
37.04833984,-114.95120000
37.07885742,-107.19620000
37.10937500,-106.16590000
37.13989258,-127.59050000
37.17041016,-102.65230000
37.20092773,-100.62460000
37.23144531,-106.02820000
37.26196289,-123.17330000
37.29248047,-113.73220000
37.32299805,-104.07670000
37.35351563,-98.54216000
37.38403320,-96.58318000
37.41455078,-95.56438000
37.44506836,-94.11638000
37.47558594,-93.19508000
37.50610352,-94.57776000
37.53662109,-100.71620000
37.56713867,-120.23420000
37.59765625,-104.63740000
37.62817383,-103.66730000
37.65869141,-101.13010000
37.68920898,-98.89128000
37.71972656,-99.69364000
37.75024414,-106.18080000
37.78076172,-108.05820000
37.81127930,-105.21390000
37.84179688,-111.05650000
37.87231445,-107.63210000
37.90283203,-104.73930000
37.93334961,-104.36050000
37.96386719,-105.29800000
37.99438477,-113.02720000
38.02490234,-107.34780000
38.05541992,-98.46267000
38.08593750,-94.85239000
38.11645508,-92.70860000
38.14697266,-90.89154000
38.17749023,-90.01954000
38.20800781,-91.22253000
38.23852539,-96.34430000
38.26904297,-100.07470000
38.29956055,-93.22216000
38.33007813,-90.92206000
38.36059570,-90.69014000
38.39111328,-91.32368000
38.42163086,-92.77258000
38.45214844,-95.34648000
38.48266602,-98.27176000
38.51318359,-98.92149000
38.54370117,-96.57706000
38.57421875,-93.75357000
38.60473633,-92.24262000
38.63525391,-92.12546000
38.66577148,-92.79949000
38.69628906,-93.88290000
38.72680664,-95.98785000
38.75732422,-100.66370000
38.78784180,-104.50890000
38.81835938,-99.99847000
38.84887695,-98.64322000
38.87939453,-99.75082000
38.90991211,-102.18810000
38.94042969,-103.39060000
38.97094727,-98.64561000
39.00146484,-93.47304000
39.03198242,-90.49552000
39.06250000,-89.62279000
39.09301758,-90.58469000
39.12353516,-93.28742000
39.15405273,-95.50957000
39.18457031,-94.81937000
39.21508789,-96.76624000
39.24560547,-107.10210000
39.27612305,-100.86920000
39.30664063,-98.49890000
39.33715820,-102.91600000
39.36767578,-102.21400000
39.39819336,-100.34020000
39.42871094,-107.31400000
39.45922852,-106.48910000
39.48974609,-98.22842000
39.52026367,-95.80203000
39.55078125,-95.39040000
39.58129883,-96.35245000
39.61181641,-96.73125000
39.64233398,-93.99573000
39.67285156,-92.05545000
39.70336914,-92.06383000
39.73388672,-93.10176000
39.76440430,-93.87966000
39.79492188,-94.31342000
39.82543945,-95.11534000
39.85595703,-95.56400000
39.88647461,-93.39524000
39.91699219,-91.30126000
39.94750977,-92.54309000
39.97802734,-101.13660000
40.00854492,-97.18121000
40.03906250,-92.97168000
40.06958008,-93.69171000
40.10009766,-94.34167000
40.13061523,-94.29242000
40.16113281,-96.18997000
40.19165039,-101.20810000
40.22216797,-99.21035000
40.25268555,-95.14149000
40.28320313,-93.32663000
40.31372070,-93.48633000
40.34423828,-95.72507000
40.37475586,-99.26095000
40.40527344,-106.03280000
40.43579102,-106.34220000
40.46630859,-103.79780000
40.49682617,-100.37720000
40.52734375,-94.38020000
40.55786133,-91.87840000
40.58837891,-92.43961000
40.61889648,-96.72153000
40.64941406,-105.64990000
40.67993164,-100.28400000
40.71044922,-92.34779000
40.74096680,-88.90098000
40.77148438,-89.10271000
40.80200195,-92.18220000
40.83251953,-94.20224000
40.86303711,-91.44168000
40.89355469,-89.00703000
40.92407227,-88.72632000
40.95458984,-91.26584000
40.98510742,-97.78380000
41.01562500,-106.02880000
41.04614258,-98.64216000
41.07666016,-91.84902000
41.10717773,-88.71239000
41.13769531,-88.43320000
41.16821289,-89.83418000
41.19873047,-91.39868000
41.22924805,-92.29343000
41.25976563,-95.19329000
41.29028320,-112.34870000
41.32080078,-93.34141000
41.35131836,-89.35365000
41.38183594,-89.32876000
41.41235352,-90.83821000
41.44287109,-91.96640000
41.47338867,-91.84525000
41.50390625,-91.24702000
41.53442383,-91.32316000
41.56494141,-93.24944000
41.59545898,-96.16446000
41.62597656,-91.49370000
41.65649414,-87.83147000
41.68701172,-86.23574000
41.71752930,-86.13451000
41.74804688,-88.54310000
41.77856445,-94.96583000
41.80908203,-107.10880000
41.83959961,-99.82911000
41.87011719,-93.78027000
41.90063477,-92.33170000
41.93115234,-93.96172000
41.96166992,-95.95068000
41.99218750,-94.42447000
42.02270508,-92.50528000
42.05322266,-92.19273000
42.08374023,-92.90035000
42.11425781,-94.53766000
42.14477539,-98.47198000
42.17529297,-100.60210000
42.20581055,-94.89556000
42.23632813,-89.22682000
42.26684570,-85.10661000
42.29736328,-83.57718000
42.32788086,-84.75792000
42.35839844,-88.19724000
42.38891602,-91.89551000
42.41943359,-93.24390000
42.44995117,-91.88898000
42.48046875,-88.38333000
42.51098633,-85.73922000
42.54150391,-84.71423000
42.57202148,-85.15495000
42.60253906,-87.01741000
42.63305664,-88.64651000
42.66357422,-88.94225000
42.69409180,-91.24010000
42.72460938,-96.93856000
42.75512695,-100.32020000
42.78564453,-96.06554000
42.81616211,-91.75327000
42.84667969,-90.74939000
42.87719727,-92.91609000
42.90771484,-96.73390000
42.93823242,-93.43937000
42.96875000,-89.55713000
42.99926758,-88.39966000
43.02978516,-88.99696000
43.06030273,-90.33085000
43.09082031,-91.76642000
43.12133789,-93.43405000
43.15185547,-95.49194000
43.18237305,-96.72746000
43.21289063,-95.94803000
43.24340820,-93.84113000
43.27392578,-91.68098000
43.30444336,-90.55688000
43.33496094,-91.63846000
43.36547852,-96.88853000
43.39599609,-103.27720000
43.42651367,-94.15791000
43.45703125,-90.76407000
43.48754883,-89.47606000
43.51806641,-88.39636000
43.54858398,-87.07486000
43.57910156,-86.73438000
43.60961914,-88.62550000
43.64013672,-92.94907000
43.67065430,-93.67998000
43.70117188,-91.87293000
43.73168945,-91.25197000
43.76220703,-91.12647000
43.79272461,-92.27655000
43.82324219,-93.53778000
43.85375977,-91.59204000
43.88427734,-89.06053000
43.91479492,-87.83302000
43.94531250,-87.96128000
43.97583008,-88.94573000
44.00634766,-89.73218000
44.03686523,-89.56078000
44.06738281,-89.26834000
44.09790039,-89.67828000
44.12841797,-90.83968000
44.15893555,-93.28561000
44.18945313,-96.28772000
44.21997070,-95.85152000
44.25048828,-96.26321000
44.28100586,-102.59480000
44.31152344,-100.75090000
44.34204102,-95.30200000
44.37255859,-96.06543000
44.40307617,-100.73660000
44.43359375,-98.41472000
44.46411133,-96.39518000
44.49462891,-99.26312000
44.52514648,-105.15660000
44.55566406,-100.46260000
44.58618164,-98.69439000
44.61669922,-99.31235000
44.64721680,-99.38556000
44.67773438,-98.82249000
44.70825195,-100.30560000
44.73876953,-99.97250000
44.76928711,-95.43713000
44.79980469,-92.81670000
44.83032227,-93.09528000
44.86083984,-97.06113000
44.89135742,-95.58292000
44.92187500,-91.95061000
44.95239258,-93.36242000
44.98291016,-96.05396000
45.01342773,-93.36363000
45.04394531,-93.86140000
45.07446289,-98.76970000
45.10498047,-106.14520000
45.13549805,-108.86550000
45.16601563,-116.06610000
45.19653320,-107.12080000
45.22705078,-99.14516000
45.25756836,-97.06194000
45.28808594,-96.98257000
45.31860352,-96.09437000
45.34912109,-95.35573000
45.37963867,-95.59685000
45.41015625,-93.38767000
45.44067383,-90.39719000
45.47119141,-90.26084000
45.50170898,-93.96609000
45.53222656,-103.14180000
45.56274414,-102.15260000
45.59326172,-98.74829000
45.62377930,-97.18051000
45.65429688,-95.18091000
45.68481445,-93.81686000
45.71533203,-94.41341000
45.74584961,-96.13008000
45.77636719,-95.94540000
45.80688477,-94.67338000
45.83740234,-94.09926000
45.86791992,-96.35883000
45.89843750,-103.10610000
45.92895508,-100.66530000
45.95947266,-100.53010000
45.98999023,-105.77970000
46.02050781,-101.02670000
46.05102539,-98.38512000
46.08154297,-98.38364000
46.11206055,-100.00020000
46.14257813,-105.32020000
46.17309570,-107.90340000
46.20361328,-100.27140000
46.23413086,-96.28147000
46.26464844,-94.05885000
46.29516602,-92.84381000
46.32568359,-91.79496000
46.35620117,-91.34278000
46.38671875,-92.40788000
46.41723633,-94.94144000
46.44775391,-97.86055000
46.47827148,-100.56630000
46.50878906,-106.42040000
46.53930664,-106.95980000
46.56982422,-97.01733000
46.60034180,-93.10303000
46.63085938,-91.43922000
46.66137695,-90.51952000
46.69189453,-90.34004000
46.72241211,-91.83013000
46.75292969,-94.71154000
46.78344727,-94.49231000
46.81396484,-91.91718000
46.84448242,-90.72549000
46.87500000,-91.22865000
46.90551758,-94.17583000
46.93603516,-102.87820000
46.96655273,-103.89290000
46.99707031,-98.51234000
47.02758789,-97.99562000
47.05810547,-98.87804000
47.08862305,-99.36285000
47.11914063,-98.07984000
47.14965820,-98.02763000
47.18017578,-103.67780000
47.21069336,-100.76910000
47.24121094,-92.43082000
47.27172852,-89.13713000
47.30224609,-88.55492000
47.33276367,-90.23607000
47.36328125,-93.50129000
47.39379883,-94.43283000
47.42431641,-92.55046000
47.45483398,-91.40568000
47.48535156,-91.35064000
47.51586914,-92.01128000
47.54638672,-92.78024000
47.57690430,-93.49287000
47.60742188,-95.02510000
47.63793945,-98.61304000
47.66845703,-105.61040000
47.69897461,-109.22980000
47.72949219,-105.55870000
47.76000977,-101.67050000
47.79052734,-96.49605000
47.82104492,-93.04330000
47.85156250,-93.71014000
47.88208008,-104.29940000
47.91259766,-99.43526000
47.94311523,-96.81905000
47.97363281,-108.74340000
48.00415039,-100.45580000
48.03466797,-96.44530000
48.06518555,-95.85090000
48.09570313,-94.65318000
48.12622070,-93.57440000
48.15673828,-94.32925000
48.18725586,-97.41043000
48.21777344,-102.89420000
48.24829102,-104.50490000
48.27880859,-99.75793000
48.30932617,-97.74338000
48.33984375,-99.25702000
48.37036133,-107.24010000
48.40087891,-104.45520000
48.43139648,-97.69096000
48.46191406,-94.80869000
48.49243164,-93.08249000
48.52294922,-92.08629000
48.55346680,-92.24303000
48.58398438,-93.58680000
48.61450195,-95.04073000
48.64501953,-95.76639000
48.67553711,-95.37614000
48.70605469,-94.14979000
48.73657227,-95.00301000
48.76708984,-101.45460000
48.79760742,-106.22050000
48.82812500,-95.34645000
48.85864258,-92.12238000
48.88916016,-91.59626000
48.91967773,-93.00096000
48.95019531,-95.54910000
48.98071289,-97.64366000
49.01123047,-97.47807000
49.04174805,-95.21494000
49.07226563,-94.21558000
49.10278320,-95.57648000
49.13330078,-97.18880000
49.16381836,-95.05043000
49.19433594,-92.23332000
49.22485352,-90.52039000
49.25537109,-90.05711000
49.28588867,-91.28513000
49.31640625,-94.60875000
49.34692383,-98.33869000
49.37744141,-97.42691000
49.40795898,-95.43159000
49.43847656,-95.07656000
49.46899414,-96.76746000
49.49951172,-96.18625000
49.53002930,-92.17767000
49.56054688,-90.56256000
49.59106445,-91.66751000
49.62158203,-95.27953000
49.65209961,-102.70980000
49.68261719,-115.01570000
49.71313477,-100.98990000
49.74365234,-97.70103000
49.77416992,-97.70721000
49.80468750,-98.86945000
49.83520508,-102.88950000
49.86572266,-106.96740000
49.89624023,-95.84843000
49.92675781,-92.79202000
49.95727539,-93.21820000
49.98779297,-95.16128000
50.01831055,-96.96079000
