Frequency,Channel A
(MHz),(dBu)

0.00000000,-26.71688000
0.03051758,-26.98768000
0.06103516,-31.74223000
0.09155273,-39.92402000
0.12207031,-50.96487000
0.15258789,-59.67254000
0.18310547,-63.35632000
0.21362305,-66.52304000
0.24414063,-63.80412000
0.27465820,-62.00812000
0.30517578,-61.76216000
0.33569336,-61.70044000
0.36621094,-63.16742000
0.39672852,-62.76863000
0.42724609,-59.08988000
0.45776367,-57.21975000
0.48828125,-57.80476000
0.51879883,-58.75644000
0.54931641,-56.41494000
0.57983398,-50.01644000
0.61035156,-43.80334000
0.64086914,-40.14799000
0.67138672,-39.42237000
0.70190430,-41.78725000
0.73242188,-47.75120000
0.76293945,-58.50368000
0.79345703,-66.76280000
0.82397461,-70.25348000
0.85449219,-85.37087000
0.88500977,-69.74229000
0.91552734,-64.55248000
0.94604492,-63.46481000
0.97656250,-63.37051000
1.00708008,-61.65798000
1.03759766,-60.67875000
1.06811523,-61.69345000
1.09863281,-64.81737000
1.12915039,-72.04124000
1.15966797,-78.54379000
1.19018555,-69.21786000
1.22070313,-67.35663000
1.25122070,-66.31747000
1.28173828,-64.47557000
1.31225586,-63.29672000
1.34277344,-63.88160000
1.37329102,-66.38526000
1.40380859,-70.79469000
1.43432617,-78.57949000
1.46484375,-81.08262000
1.49536133,-84.54994000
1.52587891,-72.78721000
1.55639648,-67.01293000
1.58691406,-65.42881000
1.61743164,-65.71104000
1.64794922,-65.73749000
1.67846680,-64.62392000
1.70898438,-64.18170000
1.73950195,-66.22527000
1.77001953,-71.47200000
1.80053711,-72.89185000
1.83105469,-71.03316000
1.86157227,-74.18021000
1.89208984,-87.08124000
1.92260742,-76.96725000
1.95312500,-79.21524000
1.98364258,-73.54196000
2.01416016,-71.10244000
2.04467773,-78.90707000
2.07519531,-74.59103000
2.10571289,-69.13123000
2.13623047,-69.94320000
2.16674805,-69.69165000
2.19726563,-67.28934000
2.22778320,-68.40654000
2.25830078,-74.56437000
2.28881836,-78.92518000
2.31933594,-76.81321000
2.34985352,-79.71853000
2.38037109,-88.16059000
2.41088867,-83.36447000
2.44140625,-76.99957000
2.47192383,-79.49100000
2.50244141,-85.94376000
2.53295898,-73.22260000
2.56347656,-70.07402000
2.59399414,-70.73966000
2.62451172,-74.60567000
2.65502930,-80.84351000
2.68554688,-91.72695000
2.71606445,-75.01052000
2.74658203,-70.18483000
2.77709961,-69.27074000
2.80761719,-71.07142000
2.83813477,-76.88625000
2.86865234,-79.97523000
2.89916992,-73.73766000
2.92968750,-69.52775000
2.96020508,-67.23251000
2.99072266,-68.35090000
3.02124023,-73.49306000
3.05175781,-81.92548000
3.08227539,-85.49562000
3.11279297,-72.71996000
3.14331055,-68.96739000
3.17382813,-69.64133000
3.20434570,-75.87879000
3.23486328,-83.87093000
3.26538086,-72.67440000
3.29589844,-71.54158000
3.32641602,-74.72614000
3.35693359,-78.96184000
3.38745117,-74.86140000
3.41796875,-70.01283000
3.44848633,-68.98116000
3.47900391,-73.16933000
3.50952148,-89.70447000
3.54003906,-71.91315000
3.57055664,-69.11493000
3.60107422,-70.53960000
3.63159180,-75.64854000
3.66210938,-76.45296000
3.69262695,-72.03441000
3.72314453,-69.10634000
3.75366211,-67.56011000
3.78417969,-68.21278000
3.81469727,-71.53283000
3.84521484,-81.79906000
3.87573242,-77.47912000
3.90625000,-71.66628000
3.93676758,-74.04115000
3.96728516,-78.85926000
3.99780273,-73.44675000
4.02832031,-73.83466000
4.05883789,-70.87632000
4.08935547,-66.36977000
4.11987305,-65.41508000
4.15039063,-67.96429000
4.18090820,-73.56136000
4.21142578,-74.36014000
4.24194336,-73.69630000
4.27246094,-75.00526000
4.30297852,-71.68324000
4.33349609,-68.42375000
4.36401367,-68.40299000
4.39453125,-71.54086000
4.42504883,-71.89198000
4.45556641,-69.20818000
4.48608398,-68.99844000
4.51660156,-70.59674000
4.54711914,-73.23635000
4.57763672,-74.75200000
4.60815430,-73.41579000
4.63867188,-72.30216000
4.66918945,-72.49669000
4.69970703,-74.61520000
4.73022461,-81.94644000
4.76074219,-81.49466000
4.79125977,-74.53283000
4.82177734,-75.54662000
4.85229492,-76.81590000
4.88281250,-73.03671000
4.91333008,-73.53738000
4.94384766,-76.14232000
4.97436523,-75.85696000
5.00488281,-78.28011000
5.03540039,-82.19395000
5.06591797,-76.09747000
5.09643555,-75.11296000
5.12695313,-79.09951000
5.15747070,-82.92461000
5.18798828,-84.23325000
5.21850586,-96.61990000
5.24902344,-79.27104000
5.27954102,-74.90834000
5.31005859,-74.79916000
5.34057617,-78.21541000
5.37109375,-85.83126000
5.40161133,-92.13393000
5.43212891,-82.64578000
5.46264648,-77.63355000
5.49316406,-75.78955000
5.52368164,-77.23746000
5.55419922,-80.90054000
5.58471680,-76.34816000
5.61523438,-71.44534000
5.64575195,-69.56061000
5.67626953,-69.99297000
5.70678711,-71.19688000
5.73730469,-71.47375000
5.76782227,-71.21625000
5.79833984,-70.08659000
5.82885742,-69.00987000
5.85937500,-68.34690000
5.88989258,-67.59365000
5.92041016,-68.17030000
5.95092773,-70.38068000
5.98144531,-70.59892000
6.01196289,-69.90831000
6.04248047,-70.70785000
6.07299805,-70.81671000
6.10351563,-70.55943000
6.13403320,-72.42177000
6.16455078,-76.04272000
6.19506836,-75.05800000
6.22558594,-73.20169000
6.25610352,-73.81895000
6.28662109,-75.36987000
6.31713867,-75.63467000
6.34765625,-75.92955000
6.37817383,-78.95545000
6.40869141,-83.94230000
6.43920898,-77.58926000
6.46972656,-75.62452000
6.50024414,-78.91985000
6.53076172,-90.05258000
6.56127930,-81.91968000
6.59179688,-80.13167000
6.62231445,-84.37710000
6.65283203,-92.46173000
6.68334961,-81.89281000
6.71386719,-79.85553000
6.74438477,-82.30933000
6.77490234,-83.88847000
6.80541992,-82.85203000
6.83593750,-88.44319000
6.86645508,-90.89016000
6.89697266,-83.14946000
6.92749023,-84.50946000
6.95800781,-84.99048000
6.98852539,-79.52355000
7.01904297,-78.58563000
7.04956055,-80.99677000
7.08007813,-83.72266000
7.11059570,-87.93377000
7.14111328,-88.89822000
7.17163086,-82.16942000
7.20214844,-81.50039000
7.23266602,-85.58223000
7.26318359,-84.16145000
7.29370117,-79.80913000
7.32421875,-79.02059000
7.35473633,-81.50977000
7.38525391,-87.60461000
7.41577148,-94.18733000
7.44628906,-99.76236000
7.47680664,-89.35101000
7.50732422,-87.75886000
7.53784180,-95.41526000
7.56835938,-92.01076000
7.59887695,-84.78342000
7.62939453,-83.24614000
7.65991211,-85.09667000
7.69042969,-86.70656000
7.72094727,-85.19362000
7.75146484,-85.15181000
7.78198242,-84.37756000
7.81250000,-82.32872000
7.84301758,-81.78870000
7.87353516,-84.49928000
7.90405273,-92.16208000
7.93457031,-94.07432000
7.96508789,-98.42342000
7.99560547,-93.41586000
8.02612305,-91.32301000
8.05664063,-99.11324000
8.08715820,-107.91230000
8.11767578,-100.42740000
8.14819336,-91.64878000
8.17871094,-90.80116000
8.20922852,-96.21177000
8.23974609,-94.74735000
8.27026367,-95.21137000
8.30078125,-104.33080000
8.33129883,-95.58430000
8.36181641,-91.42635000
8.39233398,-90.10220000
8.42285156,-89.76357000
8.45336914,-92.30831000
8.48388672,-92.44569000
8.51440430,-85.81628000
8.54492188,-83.83294000
8.57543945,-85.75722000
8.60595703,-91.90111000
8.63647461,-99.59723000
8.66699219,-91.17055000
8.69750977,-85.55917000
8.72802734,-83.14042000
8.75854492,-83.72298000
8.78906250,-86.92619000
8.81958008,-90.26145000
8.85009766,-88.70856000
8.88061523,-86.50835000
8.91113281,-87.19310000
8.94165039,-91.96655000
8.97216797,-96.59468000
9.00268555,-94.59510000
9.03320313,-95.55450000
9.06372070,-92.92388000
9.09423828,-92.57562000
9.12475586,-99.08765000
9.15527344,-103.17010000
9.18579102,-100.05980000
9.21630859,-114.99190000
9.24682617,-93.63766000
9.27734375,-88.63747000
9.30786133,-86.81805000
9.33837891,-85.81155000
9.36889648,-85.06264000
9.39941406,-85.54330000
9.42993164,-88.61647000
9.46044922,-100.11280000
9.49096680,-95.62585000
9.52148438,-91.22736000
9.55200195,-91.80836000
9.58251953,-95.33263000
9.61303711,-99.19919000
9.64355469,-88.57016000
9.67407227,-86.71017000
9.70458984,-89.28133000
9.73510742,-92.72607000
9.76562500,-88.81726000
9.79614258,-85.10251000
9.82666016,-84.77864000
9.85717773,-88.68784000
9.88769531,-99.81938000
9.91821289,-88.22723000
9.94873047,-84.33638000
9.97924805,-84.81266000
10.00976563,-90.49344000
10.04028320,-89.61106000
10.07080078,-83.31831000
10.10131836,-81.71832000
10.13183594,-83.86184000
10.16235352,-91.18703000
10.19287109,-92.57758000
10.22338867,-92.96647000
10.25390625,-91.99799000
10.28442383,-89.57470000
10.31494141,-99.63387000
10.34545898,-87.80098000
10.37597656,-83.52759000
10.40649414,-84.75846000
10.43701172,-89.11716000
10.46752930,-87.56442000
10.49804688,-86.47641000
10.52856445,-87.57872000
10.55908203,-85.14174000
10.58959961,-83.90591000
10.62011719,-84.08398000
10.65063477,-84.58623000
10.68115234,-86.86501000
10.71166992,-87.80518000
10.74218750,-83.54883000
10.77270508,-80.17355000
10.80322266,-79.26537000
10.83374023,-80.47600000
10.86425781,-82.40768000
10.89477539,-84.10028000
10.92529297,-86.25279000
10.95581055,-87.94189000
10.98632813,-87.57188000
11.01684570,-85.85262000
11.04736328,-85.60136000
11.07788086,-89.70078000
11.10839844,-97.07219000
11.13891602,-87.29475000
11.16943359,-86.74178000
11.19995117,-97.76781000
11.23046875,-87.91742000
11.26098633,-82.03510000
11.29150391,-80.89706000
11.32202148,-81.45140000
11.35253906,-82.21233000
11.38305664,-84.19041000
11.41357422,-85.36594000
11.44409180,-82.42799000
11.47460938,-81.44798000
11.50512695,-85.13956000
11.53564453,-90.15731000
11.56616211,-85.62602000
11.59667969,-89.10984000
11.62719727,-91.93225000
11.65771484,-87.39083000
11.68823242,-88.78612000
11.71875000,-85.79026000
11.74926758,-84.01717000
11.77978516,-84.61697000
11.81030273,-83.87335000
11.84082031,-85.03407000
11.87133789,-84.10720000
11.90185547,-80.28172000
11.93237305,-78.89659000
11.96289063,-78.62054000
11.99340820,-78.41590000
12.02392578,-78.92672000
12.05444336,-81.47858000
12.08496094,-87.99547000
12.11547852,-87.67597000
12.14599609,-82.12563000
12.17651367,-81.63293000
12.20703125,-87.07053000
12.23754883,-91.27872000
12.26806641,-81.69553000
12.29858398,-79.71143000
12.32910156,-80.93466000
12.35961914,-84.24852000
12.39013672,-88.68607000
12.42065430,-85.18330000
12.45117188,-80.29675000
12.48168945,-78.54181000
12.51220703,-80.22136000
12.54272461,-85.89387000
12.57324219,-83.23195000
12.60375977,-79.88528000
12.63427734,-79.70647000
12.66479492,-79.68017000
12.69531250,-78.60174000
12.72583008,-78.64908000
12.75634766,-81.58017000
12.78686523,-90.95906000
12.81738281,-90.57220000
12.84790039,-82.09235000
12.87841797,-80.11619000
12.90893555,-81.37718000
12.93945313,-80.10151000
12.96997070,-77.67279000
13.00048828,-78.82504000
13.03100586,-84.48294000
13.06152344,-89.49601000
13.09204102,-88.87704000
13.12255859,-89.26833000
13.15307617,-89.11836000
13.18359375,-92.45095000
13.21411133,-95.35626000
13.24462891,-88.62174000
13.27514648,-82.93476000
13.30566406,-80.06394000
13.33618164,-80.29579000
13.36669922,-83.16773000
13.39721680,-87.99430000
13.42773438,-107.26260000
13.45825195,-84.55873000
13.48876953,-75.44804000
13.51928711,-69.70050000
13.54980469,-66.54735000
13.58032227,-65.98363000
13.61083984,-68.09341000
13.64135742,-73.36900000
13.67187500,-83.02605000
13.70239258,-75.49914000
13.73291016,-71.04489000
13.76342773,-70.46811000
13.79394531,-72.80659000
13.82446289,-77.13966000
13.85498047,-81.13670000
13.88549805,-82.93229000
13.91601563,-82.46669000
13.94653320,-78.89320000
13.97705078,-76.70293000
14.00756836,-77.48886000
14.03808594,-80.40385000
14.06860352,-81.77738000
14.09912109,-81.64491000
14.12963867,-81.16952000
14.16015625,-79.86169000
14.19067383,-79.45379000
14.22119141,-81.33232000
14.25170898,-87.87776000
14.28222656,-88.97838000
14.31274414,-81.53594000
14.34326172,-79.13873000
14.37377930,-78.78457000
14.40429688,-79.10150000
14.43481445,-80.05960000
14.46533203,-82.77520000
14.49584961,-84.06453000
14.52636719,-81.94534000
14.55688477,-83.84846000
14.58740234,-95.28091000
14.61791992,-93.76689000
14.64843750,-91.55053000
14.67895508,-89.07105000
14.70947266,-83.38200000
14.73999023,-80.63402000
14.77050781,-81.26164000
14.80102539,-86.42259000
14.83154297,-88.17135000
14.86206055,-84.28318000
14.89257813,-86.19884000
14.92309570,-96.53182000
14.95361328,-99.14509000
14.98413086,-99.22379000
15.01464844,-92.47543000
15.04516602,-85.65996000
15.07568359,-83.47238000
15.10620117,-83.65524000
15.13671875,-84.33806000
15.16723633,-83.26848000
15.19775391,-81.49274000
15.22827148,-81.01007000
15.25878906,-82.20938000
15.28930664,-84.87207000
15.31982422,-88.36577000
15.35034180,-89.98290000
15.38085938,-91.33511000
15.41137695,-96.07522000
15.44189453,-91.13914000
15.47241211,-87.38788000
15.50292969,-86.94174000
15.53344727,-87.66841000
15.56396484,-88.74345000
15.59448242,-87.93425000
15.62500000,-86.16394000
15.65551758,-88.30383000
15.68603516,-97.87904000
15.71655273,-95.26214000
15.74707031,-95.16921000
15.77758789,-104.32600000
15.80810547,-105.11270000
15.83862305,-94.42923000
15.86914063,-89.05842000
15.89965820,-87.71677000
15.93017578,-91.68689000
15.96069336,-92.69106000
15.99121094,-87.31206000
16.02172852,-88.85547000
16.05224609,-96.68004000
16.08276367,-91.83902000
16.11328125,-91.21606000
16.14379883,-93.22475000
16.17431641,-92.00764000
16.20483398,-92.98370000
16.23535156,-95.99541000
16.26586914,-97.91431000
16.29638672,-99.93340000
16.32690430,-95.61340000
16.35742188,-97.31582000
16.38793945,-104.75930000
16.41845703,-97.50965000
16.44897461,-89.41116000
16.47949219,-86.86598000
16.51000977,-89.94247000
16.54052734,-102.60210000
16.57104492,-93.07657000
16.60156250,-91.75991000
16.63208008,-93.54033000
16.66259766,-94.93768000
16.69311523,-91.34243000
16.72363281,-89.77077000
16.75415039,-92.24145000
16.78466797,-95.48695000
16.81518555,-96.00087000
16.84570313,-95.11380000
16.87622070,-91.91359000
16.90673828,-89.72721000
16.93725586,-87.81651000
16.96777344,-87.23301000
16.99829102,-89.40598000
17.02880859,-93.73405000
17.05932617,-93.86234000
17.08984375,-95.25580000
17.12036133,-98.38742000
17.15087891,-90.37895000
17.18139648,-87.68111000
17.21191406,-88.88416000
17.24243164,-91.96140000
17.27294922,-93.19962000
17.30346680,-92.82068000
17.33398438,-94.34338000
17.36450195,-100.01020000
17.39501953,-98.56950000
17.42553711,-95.80773000
17.45605469,-95.12363000
17.48657227,-95.68336000
17.51708984,-95.78612000
17.54760742,-96.45306000
17.57812500,-98.68442000
17.60864258,-95.77307000
17.63916016,-98.35923000
17.66967773,-96.23343000
17.70019531,-86.49460000
17.73071289,-83.82751000
17.76123047,-84.72473000
17.79174805,-87.06420000
17.82226563,-89.12155000
17.85278320,-93.53875000
17.88330078,-101.97170000
17.91381836,-94.94942000
17.94433594,-94.09077000
17.97485352,-98.75186000
18.00537109,-100.65390000
18.03588867,-99.06598000
18.06640625,-102.00310000
18.09692383,-97.11264000
18.12744141,-95.14890000
18.15795898,-98.27544000
18.18847656,-107.21250000
18.21899414,-103.51300000
18.24951172,-99.99622000
18.28002930,-97.88586000
18.31054688,-96.11892000
18.34106445,-96.03905000
18.37158203,-97.88588000
18.40209961,-100.32530000
18.43261719,-101.29640000
18.46313477,-103.93320000
18.49365234,-108.81830000
18.52416992,-101.85400000
18.55468750,-97.03808000
18.58520508,-93.86641000
18.61572266,-92.05406000
18.64624023,-91.29650000
18.67675781,-91.16199000
18.70727539,-91.07260000
18.73779297,-91.23025000
18.76831055,-93.51472000
18.79882813,-101.31280000
18.82934570,-104.76860000
18.85986328,-97.41089000
18.89038086,-97.20186000
18.92089844,-100.48690000
18.95141602,-100.57060000
18.98193359,-98.33006000
19.01245117,-98.34603000
19.04296875,-101.35580000
19.07348633,-111.69820000
19.10400391,-103.22050000
19.13452148,-99.44305000
19.16503906,-102.61780000
19.19555664,-103.31500000
19.22607422,-98.21885000
19.25659180,-98.48850000
19.28710938,-101.13680000
19.31762695,-101.01880000
19.34814453,-98.25143000
19.37866211,-96.30588000
19.40917969,-95.72908000
19.43969727,-96.27046000
19.47021484,-98.81262000
19.50073242,-105.86510000
19.53125000,-102.00990000
19.56176758,-95.73975000
19.59228516,-93.46185000
19.62280273,-94.20256000
19.65332031,-99.40349000
19.68383789,-114.08590000
19.71435547,-98.62596000
19.74487305,-96.53492000
19.77539063,-98.22145000
19.80590820,-100.75310000
19.83642578,-100.94830000
19.86694336,-99.92375000
19.89746094,-99.79092000
19.92797852,-101.76910000
19.95849609,-100.64150000
19.98901367,-95.95479000
20.01953125,-94.22324000
20.05004883,-95.17653000
20.08056641,-97.91294000
20.11108398,-99.06450000
20.14160156,-96.60255000
20.17211914,-96.16635000
20.20263672,-99.58807000
20.23315430,-102.38140000
20.26367188,-97.06458000
20.29418945,-93.54264000
20.32470703,-91.15475000
20.35522461,-89.36685000
20.38574219,-88.12875000
20.41625977,-87.34936000
20.44677734,-87.72549000
20.47729492,-90.76904000
20.50781250,-99.77490000
20.53833008,-107.18030000
20.56884766,-99.45950000
20.59936523,-96.44641000
20.62988281,-93.86787000
20.66040039,-92.52028000
20.69091797,-92.21480000
20.72143555,-91.57996000
20.75195313,-91.25470000
20.78247070,-92.40109000
20.81298828,-94.01481000
20.84350586,-95.41767000
20.87402344,-98.04375000
20.90454102,-101.21280000
20.93505859,-106.10590000
20.96557617,-105.35900000
20.99609375,-94.04129000
21.02661133,-88.99513000
21.05712891,-87.11058000
21.08764648,-88.47475000
21.11816406,-94.16286000
21.14868164,-100.04570000
21.17919922,-99.15009000
21.20971680,-102.79080000
21.24023438,-98.21052000
21.27075195,-97.98142000
21.30126953,-96.63098000
21.33178711,-91.10170000
21.36230469,-89.37031000
21.39282227,-90.63050000
21.42333984,-93.25323000
21.45385742,-95.51691000
21.48437500,-97.06569000
21.51489258,-97.94975000
21.54541016,-97.98717000
21.57592773,-97.17615000
21.60644531,-94.75254000
21.63696289,-92.06490000
21.66748047,-90.55363000
21.69799805,-90.86552000
21.72851563,-94.26617000
21.75903320,-105.69570000
21.78955078,-101.44940000
21.82006836,-95.49113000
21.85058594,-93.03967000
21.88110352,-92.25949000
21.91162109,-93.12036000
21.94213867,-94.88187000
21.97265625,-97.95233000
22.00317383,-100.11280000
22.03369141,-94.27583000
22.06420898,-91.84052000
22.09472656,-92.11522000
22.12524414,-91.93790000
22.15576172,-89.92499000
22.18627930,-88.42759000
22.21679688,-88.66723000
22.24731445,-90.92963000
22.27783203,-95.44922000
22.30834961,-98.87257000
22.33886719,-95.85777000
22.36938477,-95.18541000
22.39990234,-97.76237000
22.43041992,-101.17520000
22.46093750,-98.07507000
22.49145508,-92.87462000
22.52197266,-90.88750000
22.55249023,-92.68050000
22.58300781,-99.21517000
22.61352539,-101.26150000
22.64404297,-99.06342000
22.67456055,-101.35570000
22.70507813,-97.46954000
22.73559570,-94.11246000
22.76611328,-93.63961000
22.79663086,-93.74687000
22.82714844,-92.71371000
22.85766602,-92.36970000
22.88818359,-93.51530000
22.91870117,-94.31410000
22.94921875,-93.65909000
22.97973633,-95.12447000
23.01025391,-110.48410000
23.04077148,-93.42204000
23.07128906,-88.56195000
23.10180664,-88.58882000
23.13232422,-90.22597000
23.16284180,-89.35480000
23.19335938,-89.07237000
23.22387695,-92.32326000
23.25439453,-103.36370000
23.28491211,-98.56876000
23.31542969,-95.96281000
23.34594727,-102.27750000
23.37646484,-101.91550000
23.40698242,-93.28920000
23.43750000,-90.85468000
23.46801758,-90.35429000
23.49853516,-90.75397000
23.52905273,-92.65045000
23.55957031,-96.85315000
23.59008789,-102.24350000
23.62060547,-104.15290000
23.65112305,-104.55940000
23.68164063,-101.89090000
23.71215820,-98.25136000
23.74267578,-97.72145000
23.77319336,-101.41710000
23.80371094,-98.57372000
23.83422852,-93.35735000
23.86474609,-92.88591000
23.89526367,-96.65143000
23.92578125,-95.82381000
23.95629883,-92.66281000
23.98681641,-93.21705000
24.01733398,-95.64507000
24.04785156,-95.37735000
24.07836914,-93.77927000
24.10888672,-93.01421000
24.13940430,-92.50863000
24.16992188,-92.45645000
24.20043945,-92.49416000
24.23095703,-93.15619000
24.26147461,-96.19157000
24.29199219,-100.50910000
24.32250977,-100.36660000
24.35302734,-96.34998000
24.38354492,-92.75061000
24.41406250,-90.20171000
24.44458008,-89.02389000
24.47509766,-90.41081000
24.50561523,-94.65923000
24.53613281,-97.14028000
24.56665039,-97.38953000
24.59716797,-96.39497000
24.62768555,-93.33772000
24.65820313,-91.77129000
24.68872070,-92.21391000
24.71923828,-95.09279000
24.74975586,-101.20050000
24.78027344,-99.30360000
24.81079102,-93.01640000
24.84130859,-90.06867000
24.87182617,-89.33348000
24.90234375,-89.72658000
24.93286133,-90.23797000
24.96337891,-90.89589000
24.99389648,-92.54427000
25.02441406,-95.86818000
25.05493164,-101.38120000
25.08544922,-100.41700000
25.11596680,-96.13766000
25.14648438,-94.35242000
25.17700195,-92.93659000
25.20751953,-92.95518000
25.23803711,-97.10175000
25.26855469,-110.87380000
25.29907227,-96.37128000
25.32958984,-92.42039000
25.36010742,-91.05316000
25.39062500,-91.35960000
25.42114258,-93.85260000
25.45166016,-96.79863000
25.48217773,-95.75257000
25.51269531,-94.32147000
25.54321289,-93.82831000
25.57373047,-95.66814000
25.60424805,-100.51890000
25.63476563,-102.53070000
25.66528320,-99.55466000
25.69580078,-99.84779000
25.72631836,-104.90820000
25.75683594,-106.79220000
25.78735352,-102.88200000
25.81787109,-98.48383000
25.84838867,-93.33946000
25.87890625,-90.66680000
25.90942383,-90.70728000
25.93994141,-93.68507000
25.97045898,-100.68200000
26.00097656,-119.08200000
26.03149414,-102.83670000
26.06201172,-94.39996000
26.09252930,-91.00323000
26.12304688,-90.58012000
26.15356445,-90.74661000
26.18408203,-89.81799000
26.21459961,-89.76260000
26.24511719,-91.14519000
26.27563477,-93.87468000
26.30615234,-98.12966000
26.33666992,-97.73258000
26.36718750,-95.37144000
26.39770508,-95.00882000
26.42822266,-95.68059000
26.45874023,-93.34926000
26.48925781,-89.51450000
26.51977539,-87.88963000
26.55029297,-89.20244000
26.58081055,-93.53709000
26.61132813,-97.59009000
26.64184570,-96.57505000
26.67236328,-95.25623000
26.70288086,-95.77551000
26.73339844,-99.02010000
26.76391602,-99.33163000
26.79443359,-94.28792000
26.82495117,-89.76538000
26.85546875,-87.89272000
26.88598633,-89.14909000
26.91650391,-93.76291000
26.94702148,-104.55870000
26.97753906,-103.58220000
27.00805664,-97.35672000
27.03857422,-97.10792000
27.06909180,-101.50040000
27.09960938,-95.78906000
27.13012695,-91.27285000
27.16064453,-91.08303000
27.19116211,-94.49838000
27.22167969,-100.91850000
27.25219727,-103.42760000
27.28271484,-100.62070000
27.31323242,-96.89775000
27.34375000,-93.62459000
27.37426758,-92.48218000
27.40478516,-94.12139000
27.43530273,-98.54499000
27.46582031,-105.10350000
27.49633789,-110.21030000
27.52685547,-113.12190000
27.55737305,-123.57270000
27.58789063,-103.34840000
27.61840820,-99.03781000
27.64892578,-101.46950000
27.67944336,-98.22694000
27.70996094,-94.57922000
27.74047852,-97.20308000
27.77099609,-106.72490000
27.80151367,-105.43450000
27.83203125,-104.51220000
27.86254883,-98.88856000
27.89306641,-97.06361000
27.92358398,-101.49570000
27.95410156,-107.65510000
27.98461914,-96.53802000
28.01513672,-94.69009000
28.04565430,-95.59911000
28.07617188,-96.42447000
28.10668945,-98.01695000
28.13720703,-99.75905000
28.16772461,-98.31812000
28.19824219,-98.00316000
28.22875977,-106.20820000
28.25927734,-98.92979000
28.28979492,-93.37851000
28.32031250,-92.56458000
28.35083008,-93.92557000
28.38134766,-97.83894000
28.41186523,-97.87927000
28.44238281,-98.66020000
28.47290039,-101.45860000
28.50341797,-93.70506000
28.53393555,-91.86728000
28.56445313,-93.52157000
28.59497070,-93.92036000
28.62548828,-91.07301000
28.65600586,-89.62563000
28.68652344,-90.27560000
28.71704102,-92.47817000
28.74755859,-94.87647000
28.77807617,-95.72312000
28.80859375,-95.40355000
28.83911133,-95.53941000
28.86962891,-96.81438000
28.90014648,-98.22243000
28.93066406,-98.92190000
28.96118164,-99.93934000
28.99169922,-101.32880000
29.02221680,-97.38519000
29.05273438,-93.35183000
29.08325195,-92.27715000
29.11376953,-92.56120000
29.14428711,-92.60784000
29.17480469,-93.52280000
29.20532227,-95.91109000
29.23583984,-96.88655000
29.26635742,-95.91447000
29.29687500,-97.67323000
29.32739258,-102.87980000
29.35791016,-96.44917000
29.38842773,-94.47208000
29.41894531,-98.09215000
29.44946289,-110.16640000
29.47998047,-102.81470000
29.51049805,-98.08406000
29.54101563,-96.76955000
29.57153320,-99.81627000
29.60205078,-110.35990000
29.63256836,-104.19710000
29.66308594,-101.73830000
29.69360352,-99.66618000
29.72412109,-98.85767000
29.75463867,-101.60150000
29.78515625,-108.14320000
29.81567383,-104.74150000
29.84619141,-99.11137000
29.87670898,-95.38273000
29.90722656,-92.98734000
29.93774414,-92.89761000
29.96826172,-96.53762000
29.99877930,-101.51410000
30.02929688,-96.02724000
30.05981445,-95.40246000
30.09033203,-101.20940000
30.12084961,-105.79530000
30.15136719,-100.04220000
30.18188477,-102.97680000
30.21240234,-107.21570000
30.24291992,-102.32790000
30.27343750,-100.30750000
30.30395508,-97.36751000
30.33447266,-95.48320000
30.36499023,-96.40179000
30.39550781,-100.03980000
30.42602539,-102.82010000
30.45654297,-103.45020000
30.48706055,-105.75700000
30.51757813,-98.18742000
30.54809570,-92.93484000
30.57861328,-91.20108000
30.60913086,-92.19078000
30.63964844,-95.85860000
30.67016602,-103.82100000
30.70068359,-108.63970000
30.73120117,-100.04910000
30.76171875,-96.18262000
30.79223633,-94.09914000
30.82275391,-93.23431000
30.85327148,-93.24879000
30.88378906,-94.06961000
30.91430664,-95.82069000
30.94482422,-98.05148000
30.97534180,-98.77774000
31.00585938,-96.67752000
31.03637695,-94.61478000
31.06689453,-95.08028000
31.09741211,-98.31142000
31.12792969,-102.32010000
31.15844727,-104.86510000
31.18896484,-107.75670000
31.21948242,-98.16248000
31.25000000,-93.76201000
31.28051758,-93.64216000
31.31103516,-95.78361000
31.34155273,-93.50795000
31.37207031,-90.99654000
31.40258789,-91.12720000
31.43310547,-92.90030000
31.46362305,-94.12568000
31.49414063,-93.57640000
31.52465820,-93.70248000
31.55517578,-97.58511000
31.58569336,-114.57310000
31.61621094,-106.01720000
31.64672852,-110.51570000
31.67724609,-95.22369000
31.70776367,-89.58333000
31.73828125,-87.84969000
31.76879883,-88.16907000
31.79931641,-89.23576000
31.82983398,-90.22371000
31.86035156,-91.22704000
31.89086914,-93.01666000
31.92138672,-95.94979000
31.95190430,-96.83131000
31.98242188,-96.53912000
32.01293945,-98.51056000
32.04345703,-98.35062000
32.07397461,-97.50522000
32.10449219,-98.82785000
32.13500977,-100.42640000
32.16552734,-101.75070000
32.19604492,-98.26158000
32.22656250,-96.53553000
32.25708008,-99.49556000
32.28759766,-106.86710000
32.31811523,-104.13540000
32.34863281,-100.01970000
32.37915039,-98.97549000
32.40966797,-100.51890000
32.44018555,-94.56313000
32.47070313,-90.54106000
32.50122070,-90.13757000
32.53173828,-91.71302000
32.56225586,-92.80071000
32.59277344,-93.97469000
32.62329102,-96.54851000
32.65380859,-100.47710000
32.68432617,-109.98580000
32.71484375,-101.44600000
32.74536133,-95.23354000
32.77587891,-93.96661000
32.80639648,-94.13786000
32.83691406,-93.80264000
32.86743164,-94.06561000
32.89794922,-94.93702000
32.92846680,-96.36110000
32.95898438,-100.79040000
32.98950195,-118.49080000
33.02001953,-105.31960000
33.05053711,-110.90310000
33.08105469,-97.19834000
33.11157227,-91.24135000
33.14208984,-89.91713000
33.17260742,-91.68220000
33.20312500,-94.88671000
33.23364258,-95.59155000
33.26416016,-93.92419000
33.29467773,-95.14789000
33.32519531,-104.98230000
33.35571289,-98.07113000
33.38623047,-94.31723000
33.41674805,-95.94064000
33.44726563,-102.13300000
33.47778320,-105.23200000
33.50830078,-101.76080000
33.53881836,-102.75970000
33.56933594,-105.86640000
33.59985352,-104.46460000
33.63037109,-102.18070000
33.66088867,-99.89836000
33.69140625,-97.29051000
33.72192383,-95.67605000
33.75244141,-95.56175000
33.78295898,-98.08884000
33.81347656,-101.94020000
33.84399414,-97.70905000
33.87451172,-95.59287000
33.90502930,-96.26860000
33.93554688,-96.83928000
33.96606445,-96.56808000
33.99658203,-96.52825000
34.02709961,-97.20322000
34.05761719,-101.34410000
34.08813477,-111.65160000
34.11865234,-117.08590000
34.14916992,-104.83020000
34.17968750,-95.90828000
34.21020508,-92.62849000
34.24072266,-92.41562000
34.27124023,-94.73172000
34.30175781,-99.22382000
34.33227539,-102.40470000
34.36279297,-98.52034000
34.39331055,-97.39130000
34.42382813,-102.09430000
34.45434570,-104.06550000
34.48486328,-97.76150000
34.51538086,-96.81718000
34.54589844,-98.29169000
34.57641602,-98.72597000
34.60693359,-97.96096000
34.63745117,-98.55613000
34.66796875,-101.11650000
34.69848633,-101.56560000
34.72900391,-99.11774000
34.75952148,-98.08224000
34.79003906,-96.59211000
34.82055664,-95.92674000
34.85107422,-98.19801000
34.88159180,-102.17590000
34.91210938,-104.30800000
34.94262695,-106.66150000
34.97314453,-105.06220000
35.00366211,-103.96090000
35.03417969,-103.32400000
35.06469727,-100.53410000
35.09521484,-99.23082000
35.12573242,-101.79990000
35.15625000,-105.04030000
35.18676758,-106.59900000
35.21728516,-103.72630000
35.24780273,-95.01653000
35.27832031,-93.77148000
35.30883789,-98.74001000
35.33935547,-100.31370000
35.36987305,-96.53529000
35.40039063,-97.95937000
35.43090820,-103.76450000
35.46142578,-130.78900000
35.49194336,-104.21590000
35.52246094,-100.26890000
35.55297852,-100.04900000
35.58349609,-100.77600000
35.61401367,-103.05060000
35.64453125,-110.52630000
35.67504883,-104.89920000
35.70556641,-103.42450000
35.73608398,-106.92630000
35.76660156,-104.88140000
35.79711914,-98.22121000
35.82763672,-94.49783000
35.85815430,-93.84742000
35.88867188,-95.95853000
35.91918945,-100.05540000
35.94970703,-105.24690000
35.98022461,-103.23860000
36.01074219,-98.73803000
36.04125977,-98.36727000
36.07177734,-101.30010000
36.10229492,-105.72420000
36.13281250,-108.64090000
36.16333008,-105.51000000
36.19384766,-103.93380000
36.22436523,-106.48590000
36.25488281,-112.00420000
36.28540039,-111.44090000
36.31591797,-105.98590000
36.34643555,-100.08790000
36.37695313,-96.09992000
36.40747070,-94.80678000
36.43798828,-96.37376000
36.46850586,-101.42320000
36.49902344,-101.13850000
36.52954102,-95.08319000
36.56005859,-92.66753000
36.59057617,-92.47795000
36.62109375,-93.55807000
36.65161133,-94.78406000
36.68212891,-94.87611000
36.71264648,-95.19402000
36.74316406,-97.44851000
36.77368164,-101.94120000
36.80419922,-108.13020000
36.83471680,-118.04990000
36.86523438,-105.03760000
36.89575195,-101.50540000
36.92626953,-102.65990000
36.95678711,-109.72140000
36.98730469,-105.97060000
37.01782227,-97.65056000
37.04833984,-93.93428000
37.07885742,-92.90290000
37.10937500,-93.90726000
37.13989258,-96.16373000
37.17041016,-98.68054000
37.20092773,-99.84900000
37.23144531,-98.37587000
37.26196289,-98.35524000
37.29248047,-104.47810000
37.32299805,-102.47450000
37.35351563,-95.68750000
37.38403320,-94.23402000
37.41455078,-94.30368000
37.44506836,-93.36510000
37.47558594,-91.55669000
37.50610352,-90.56015000
37.53662109,-90.73186000
37.56713867,-91.18668000
37.59765625,-91.00112000
37.62817383,-90.49469000
37.65869141,-91.17683000
37.68920898,-93.75598000
37.71972656,-97.06049000
37.75024414,-99.51637000
37.78076172,-101.56780000
37.81127930,-100.69000000
37.84179688,-98.35928000
37.87231445,-96.58675000
37.90283203,-95.82614000
37.93334961,-95.35496000
37.96386719,-93.41145000
37.99438477,-91.62070000
38.02490234,-91.42859000
38.05541992,-93.39143000
38.08593750,-98.67210000
38.11645508,-105.73050000
38.14697266,-101.94620000
38.17749023,-104.27500000
38.20800781,-116.93400000
38.23852539,-104.13650000
38.26904297,-102.05920000
38.29956055,-98.93638000
38.33007813,-98.24662000
38.36059570,-103.16040000
38.39111328,-115.31380000
38.42163086,-111.28910000
38.45214844,-101.88710000
38.48266602,-97.46777000
38.51318359,-97.67892000
38.54370117,-104.17500000
38.57421875,-102.84180000
38.60473633,-96.64484000
38.63525391,-96.93321000
38.66577148,-105.21950000
38.69628906,-102.54160000
38.72680664,-95.00508000
38.75732422,-92.33479000
38.78784180,-90.92169000
38.81835938,-90.16158000
38.84887695,-90.45228000
38.87939453,-92.95350000
38.90991211,-98.39066000
38.94042969,-97.49291000
38.97094727,-96.61650000
39.00146484,-101.39650000
39.03198242,-99.50566000
39.06250000,-93.25935000
39.09301758,-92.05133000
39.12353516,-96.82416000
39.15405273,-103.75580000
39.18457031,-91.88138000
39.21508789,-89.84574000
39.24560547,-92.72437000
39.27612305,-107.96800000
39.30664063,-95.33344000
39.33715820,-92.34668000
39.36767578,-95.61227000
39.39819336,-110.60170000
39.42871094,-101.91460000
39.45922852,-97.54715000
39.48974609,-96.35986000
39.52026367,-93.12285000
39.55078125,-88.94726000
39.58129883,-87.24624000
39.61181641,-88.24757000
39.64233398,-89.56150000
39.67285156,-89.24419000
39.70336914,-89.60358000
39.73388672,-89.13049000
39.76440430,-87.93021000
39.79492188,-88.03831000
39.82543945,-89.79306000
39.85595703,-93.48201000
39.88647461,-99.96074000
39.91699219,-113.18940000
39.94750977,-110.99110000
39.97802734,-101.74290000
40.00854492,-95.21370000
40.03906250,-91.44858000
40.06958008,-89.58495000
40.10009766,-89.14681000
40.13061523,-90.22208000
40.16113281,-92.81102000
40.19165039,-95.16479000
40.22216797,-89.43689000
40.25268555,-84.95773000
40.28320313,-83.46590000
40.31372070,-84.17854000
40.34423828,-86.50491000
40.37475586,-90.24327000
40.40527344,-96.15408000
40.43579102,-107.77110000
40.46630859,-99.52361000
40.49682617,-91.46135000
40.52734375,-87.05399000
40.55786133,-85.64731000
40.58837891,-87.32780000
40.61889648,-91.94686000
40.64941406,-94.18448000
40.67993164,-92.50805000
40.71044922,-93.21156000
40.74096680,-97.04510000
40.77148438,-97.27147000
40.80200195,-90.65630000
40.83251953,-85.34663000
40.86303711,-83.08475000
40.89355469,-84.25948000
40.92407227,-89.64224000
40.95458984,-97.69408000
40.98510742,-94.21310000
41.01562500,-92.84247000
41.04614258,-93.05454000
41.07666016,-91.98823000
41.10717773,-90.15968000
41.13769531,-89.78966000
41.16821289,-90.33015000
41.19873047,-90.13338000
41.22924805,-90.14535000
41.25976563,-90.30471000
41.29028320,-88.84836000
41.32080078,-88.27248000
41.35131836,-89.49059000
41.38183594,-91.91463000
41.41235352,-97.27776000
41.44287109,-97.32421000
41.47338867,-88.11169000
41.50390625,-85.55470000
41.53442383,-88.55583000
41.56494141,-112.83340000
41.59545898,-90.67974000
41.62597656,-88.44949000
41.65649414,-89.88793000
41.68701172,-90.67270000
41.71752930,-90.37801000
41.74804688,-90.66405000
41.77856445,-90.44543000
41.80908203,-89.11717000
41.83959961,-88.14980000
41.87011719,-88.18106000
41.90063477,-90.61969000
41.93115234,-100.93350000
41.96166992,-99.24629000
41.99218750,-93.20617000
42.02270508,-89.09662000
42.05322266,-87.37080000
42.08374023,-90.59829000
42.11425781,-98.47241000
42.14477539,-87.32306000
42.17529297,-82.41248000
42.20581055,-80.66498000
42.23632813,-81.12678000
42.26684570,-82.36952000
42.29736328,-83.10736000
42.32788086,-84.16261000
42.35839844,-86.56409000
42.38891602,-91.04636000
42.41943359,-97.63676000
42.44995117,-100.96150000
42.48046875,-93.16689000
42.51098633,-86.76465000
42.54150391,-84.11372000
42.57202148,-84.49889000
42.60253906,-87.18293000
42.63305664,-89.51804000
42.66357422,-88.86211000
42.69409180,-87.49335000
42.72460938,-86.70295000
42.75512695,-86.72657000
42.78564453,-86.96944000
42.81616211,-85.31190000
42.84667969,-81.93860000
42.87719727,-79.81931000
42.90771484,-79.93185000
42.93823242,-82.59894000
42.96875000,-88.30769000
42.99926758,-89.88770000
43.02978516,-86.87596000
43.06030273,-87.44289000
43.09082031,-90.63114000
43.12133789,-94.27276000
43.15185547,-100.36020000
43.18237305,-104.25450000
43.21289063,-101.61940000
43.24340820,-111.55840000
43.27392578,-97.99937000
43.30444336,-92.26230000
43.33496094,-89.26080000
43.36547852,-87.69592000
43.39599609,-88.20232000
43.42651367,-91.50330000
43.45703125,-99.56996000
43.48754883,-90.64656000
43.51806641,-84.74492000
43.54858398,-83.60862000
43.57910156,-85.87445000
43.60961914,-90.37154000
43.64013672,-93.83218000
43.67065430,-92.46215000
43.70117188,-90.77544000
43.73168945,-91.32478000
43.76220703,-90.61866000
43.79272461,-88.67668000
43.82324219,-87.78896000
43.85375977,-86.35524000
43.88427734,-85.40900000
43.91479492,-86.43968000
43.94531250,-89.56435000
43.97583008,-93.77739000
44.00634766,-94.57429000
44.03686523,-93.44392000
44.06738281,-94.41772000
44.09790039,-97.41485000
44.12841797,-95.50548000
44.15893555,-90.30309000
44.18945313,-87.74837000
44.21997070,-87.84167000
44.25048828,-90.05595000
44.28100586,-92.15010000
44.31152344,-91.38062000
44.34204102,-90.60307000
44.37255859,-91.62907000
44.40307617,-94.71078000
44.43359375,-100.21090000
44.46411133,-99.55090000
44.49462891,-92.61949000
44.52514648,-90.01994000
44.55566406,-91.43241000
44.58618164,-97.28366000
44.61669922,-99.56326000
44.64721680,-96.18504000
44.67773438,-95.06763000
44.70825195,-94.62508000
44.73876953,-94.76764000
44.76928711,-95.28076000
44.79980469,-93.78275000
44.83032227,-91.27702000
44.86083984,-90.40387000
44.89135742,-91.48604000
44.92187500,-93.27824000
44.95239258,-93.29993000
44.98291016,-91.53378000
45.01342773,-89.91565000
45.04394531,-89.57531000
45.07446289,-90.60049000
45.10498047,-91.76657000
45.13549805,-91.49689000
45.16601563,-90.70679000
45.19653320,-91.14265000
45.22705078,-93.57186000
45.25756836,-96.44954000
45.28808594,-99.63707000
45.31860352,-108.61440000
45.34912109,-93.21278000
45.37963867,-90.67527000
45.41015625,-93.77583000
45.44067383,-98.45925000
45.47119141,-99.48730000
45.50170898,-99.18700000
45.53222656,-92.42112000
45.56274414,-90.81116000
45.59326172,-94.37920000
45.62377930,-101.28850000
45.65429688,-91.06717000
45.68481445,-87.79799000
45.71533203,-88.72705000
45.74584961,-94.35168000
45.77636719,-108.95670000
45.80688477,-101.05030000
45.83740234,-100.76720000
45.86791992,-98.12372000
45.89843750,-96.14122000
45.92895508,-96.53360000
45.95947266,-97.40403000
45.98999023,-95.68997000
46.02050781,-91.93121000
46.05102539,-90.10838000
46.08154297,-91.28761000
46.11206055,-95.51109000
46.14257813,-101.08090000
46.17309570,-102.41110000
46.20361328,-103.81750000
46.23413086,-118.63850000
46.26464844,-101.44780000
46.29516602,-94.61571000
46.32568359,-90.58140000
46.35620117,-88.41679000
46.38671875,-88.34602000
46.41723633,-90.42630000
46.44775391,-94.07117000
46.47827148,-97.61433000
46.50878906,-98.18406000
46.53930664,-95.99765000
46.56982422,-94.52405000
46.60034180,-94.45364000
46.63085938,-96.19343000
46.66137695,-97.06351000
46.69189453,-93.96159000
46.72241211,-93.33618000
46.75292969,-97.28046000
46.78344727,-109.80340000
46.81396484,-115.83430000
46.84448242,-110.69180000
46.87500000,-108.88740000
46.90551758,-111.23210000
46.93603516,-107.12800000
46.96655273,-110.24550000
46.99707031,-108.63970000
47.02758789,-100.22070000
47.05810547,-98.60918000
47.08862305,-101.98490000
47.11914063,-105.94540000
47.14965820,-104.52520000
47.18017578,-107.45240000
47.21069336,-110.04630000
47.24121094,-104.84330000
47.27172852,-101.83570000
47.30224609,-99.34016000
47.33276367,-98.06029000
47.36328125,-97.90788000
47.39379883,-98.82272000
47.42431641,-104.45690000
47.45483398,-107.13890000
47.48535156,-96.56467000
47.51586914,-92.56781000
47.54638672,-91.31042000
47.57690430,-92.60294000
47.60742188,-97.70176000
47.63793945,-110.71060000
47.66845703,-98.47691000
47.69897461,-96.67383000
47.72949219,-101.31200000
47.76000977,-108.71850000
47.79052734,-99.48383000
47.82104492,-95.53573000
47.85156250,-93.84894000
47.88208008,-95.52426000
47.91259766,-103.30010000
47.94311523,-102.73360000
47.97363281,-96.12004000
48.00415039,-93.94083000
48.03466797,-94.27142000
48.06518555,-95.69733000
48.09570313,-94.05589000
48.12622070,-91.92172000
48.15673828,-92.19911000
48.18725586,-95.77515000
48.21777344,-104.65450000
48.24829102,-118.36300000
48.27880859,-104.25800000
48.30932617,-97.06554000
48.33984375,-94.08566000
48.37036133,-94.06194000
48.40087891,-96.66917000
48.43139648,-102.03710000
48.46191406,-108.89130000
48.49243164,-99.30937000
48.52294922,-96.10037000
48.55346680,-96.91551000
48.58398438,-101.20810000
48.61450195,-110.86420000
48.64501953,-103.47120000
48.67553711,-97.07497000
48.70605469,-94.99973000
48.73657227,-96.62122000
48.76708984,-98.26157000
48.79760742,-94.02542000
48.82812500,-90.91083000
48.85864258,-90.26111000
48.88916016,-91.39830000
48.91967773,-93.32181000
48.95019531,-95.64665000
48.98071289,-90.14240000
49.01123047,-85.38627000
49.04174805,-84.18134000
49.07226563,-86.03882000
49.10278320,-90.54848000
49.13330078,-95.55116000
49.16381836,-96.01192000
49.19433594,-93.88698000
49.22485352,-93.78509000
49.25537109,-95.42599000
49.28588867,-95.18419000
49.31640625,-93.10683000
49.34692383,-88.73927000
49.37744141,-86.02792000
49.40795898,-86.14737000
49.43847656,-88.88632000
49.46899414,-94.72960000
49.49951172,-113.06070000
49.53002930,-98.06790000
49.56054688,-93.43232000
49.59106445,-92.29828000
49.62158203,-91.88686000
49.65209961,-89.13808000
49.68261719,-85.97189000
49.71313477,-84.99597000
49.74365234,-86.85512000
49.77416992,-92.36012000
49.80468750,-107.08700000
49.83520508,-98.40348000
49.86572266,-95.38781000
49.89624023,-98.22557000
49.92675781,-108.39040000
49.95727539,-96.67785000
49.98779297,-92.92354000
50.01831055,-92.76981000
