Frequency,Channel A
(MHz),(dBu)

0.00000000,-32.59713000
0.03051758,-32.84167000
0.06103516,-37.45543000
0.09155273,-45.17116000
0.12207031,-54.57229000
0.15258789,-55.86622000
0.18310547,-55.54942000
0.21362305,-56.47089000
0.24414063,-57.73637000
0.27465820,-58.61003000
0.30517578,-60.17981000
0.33569336,-66.15958000
0.36621094,-73.47873000
0.39672852,-61.49449000
0.42724609,-58.06551000
0.45776367,-57.73082000
0.48828125,-59.09476000
0.51879883,-59.27920000
0.54931641,-57.27509000
0.57983398,-55.13956000
0.61035156,-53.37029000
0.64086914,-52.60393000
0.67138672,-53.78748000
0.70190430,-56.85604000
0.73242188,-59.64604000
0.76293945,-60.11616000
0.79345703,-59.11929000
0.82397461,-58.24657000
0.85449219,-57.90547000
0.88500977,-58.06558000
0.91552734,-59.15285000
0.94604492,-61.92280000
0.97656250,-67.99745000
1.00708008,-74.29987000
1.03759766,-67.20609000
1.06811523,-65.20157000
1.09863281,-65.25084000
1.12915039,-65.09022000
1.15966797,-64.47768000
1.19018555,-63.93810000
1.22070313,-64.04329000
1.25122070,-65.60874000
1.28173828,-66.80325000
1.31225586,-64.20198000
1.34277344,-62.40202000
1.37329102,-62.83768000
1.40380859,-65.05850000
1.43432617,-67.64816000
1.46484375,-66.37274000
1.49536133,-63.57626000
1.52587891,-62.93970000
1.55639648,-65.09673000
1.58691406,-70.10413000
1.61743164,-69.30053000
1.64794922,-65.28011000
1.67846680,-64.10562000
1.70898438,-65.09049000
1.73950195,-66.32474000
1.77001953,-64.91434000
1.80053711,-62.95999000
1.83105469,-62.47607000
1.86157227,-63.69007000
1.89208984,-66.51057000
1.92260742,-71.51298000
1.95312500,-75.48965000
1.98364258,-70.24607000
2.01416016,-68.16319000
2.04467773,-67.91204000
2.07519531,-66.83162000
2.10571289,-66.18181000
2.13623047,-67.91690000
2.16674805,-72.15456000
2.19726563,-73.91921000
2.22778320,-72.53716000
2.25830078,-72.39926000
2.28881836,-71.83134000
2.31933594,-70.28073000
2.34985352,-69.98384000
2.38037109,-71.79147000
2.41088867,-71.45094000
2.44140625,-68.08217000
2.47192383,-66.52952000
2.50244141,-66.91423000
2.53295898,-68.78802000
2.56347656,-70.64845000
2.59399414,-69.51074000
2.62451172,-67.65157000
2.65502930,-66.79269000
2.68554688,-67.23190000
2.71606445,-69.87623000
2.74658203,-74.75986000
2.77709961,-71.69175000
2.80761719,-68.35263000
2.83813477,-68.39790000
2.86865234,-71.02724000
2.89916992,-70.08711000
2.92968750,-66.09118000
2.96020508,-63.83602000
2.99072266,-63.08638000
3.02124023,-63.86889000
3.05175781,-65.88197000
3.08227539,-66.42011000
3.11279297,-65.69103000
3.14331055,-66.82218000
3.17382813,-68.83810000
3.20434570,-67.18317000
3.23486328,-65.43151000
3.26538086,-65.12285000
3.29589844,-65.11098000
3.32641602,-65.44384000
3.35693359,-66.86858000
3.38745117,-68.43478000
3.41796875,-67.61649000
3.44848633,-65.66817000
3.47900391,-64.48876000
3.50952148,-64.16351000
3.54003906,-64.09530000
3.57055664,-64.22855000
3.60107422,-65.32103000
3.63159180,-67.00272000
3.66210938,-66.09122000
3.69262695,-64.02429000
3.72314453,-63.37797000
3.75366211,-63.67783000
3.78417969,-63.53487000
3.81469727,-63.24535000
3.84521484,-63.91102000
3.87573242,-65.31145000
3.90625000,-66.47435000
3.93676758,-67.19599000
3.96728516,-66.95735000
3.99780273,-65.76867000
4.02832031,-65.02790000
4.05883789,-64.99589000
4.08935547,-64.77738000
4.11987305,-64.35828000
4.15039063,-64.96399000
4.18090820,-66.74081000
4.21142578,-67.79357000
4.24194336,-67.73586000
4.27246094,-67.49821000
4.30297852,-66.31277000
4.33349609,-65.12798000
4.36401367,-65.16483000
4.39453125,-66.81058000
4.42504883,-69.98219000
4.45556641,-72.19455000
4.48608398,-70.52571000
4.51660156,-68.64377000
4.54711914,-67.97612000
4.57763672,-68.40927000
4.60815430,-69.22855000
4.63867188,-69.51399000
4.66918945,-69.49118000
4.69970703,-69.86329000
4.73022461,-70.14359000
4.76074219,-69.02554000
4.79125977,-67.20204000
4.82177734,-66.06071000
4.85229492,-66.01707000
4.88281250,-66.70996000
4.91333008,-67.20364000
4.94384766,-67.63503000
4.97436523,-69.55955000
5.00488281,-74.17380000
5.03540039,-74.61107000
5.06591797,-69.86092000
5.09643555,-67.28082000
5.12695313,-66.38253000
5.15747070,-66.77264000
5.18798828,-68.01669000
5.21850586,-70.21391000
5.24902344,-75.58158000
5.27954102,-87.98476000
5.31005859,-74.35839000
5.34057617,-71.14526000
5.37109375,-70.80651000
5.40161133,-71.64273000
5.43212891,-72.87271000
5.46264648,-73.52363000
5.49316406,-72.91356000
5.52368164,-72.15408000
5.55419922,-72.26448000
5.58471680,-73.88393000
5.61523438,-76.63152000
5.64575195,-73.91512000
5.67626953,-68.75648000
5.70678711,-65.50291000
5.73730469,-63.83319000
5.76782227,-63.02036000
5.79833984,-62.73404000
5.82885742,-63.31786000
5.85937500,-65.06931000
5.88989258,-67.10020000
5.92041016,-66.39595000
5.95092773,-64.01122000
5.98144531,-62.43546000
6.01196289,-61.74377000
6.04248047,-61.56442000
6.07299805,-61.99459000
6.10351563,-63.41378000
6.13403320,-65.80775000
6.16455078,-68.17085000
6.19506836,-68.40045000
6.22558594,-66.56581000
6.25610352,-65.07365000
6.28662109,-64.58587000
6.31713867,-64.80518000
6.34765625,-65.78603000
6.37817383,-67.97111000
6.40869141,-71.91202000
6.43920898,-79.81101000
6.46972656,-82.44698000
6.50024414,-73.87461000
6.53076172,-70.90553000
6.56127930,-70.49992000
6.59179688,-72.11189000
6.62231445,-75.57861000
6.65283203,-79.71020000
6.68334961,-83.05008000
6.71386719,-92.25919000
6.74438477,-86.91579000
6.77490234,-79.54625000
6.80541992,-77.57059000
6.83593750,-78.37405000
6.86645508,-81.41686000
6.89697266,-86.84063000
6.92749023,-93.72853000
6.95800781,-91.57661000
6.98852539,-85.49487000
7.01904297,-81.48466000
7.04956055,-79.29714000
7.08007813,-79.18686000
7.11059570,-81.44920000
7.14111328,-83.04681000
7.17163086,-82.57741000
7.20214844,-84.66267000
7.23266602,-93.73042000
7.26318359,-87.42675000
7.29370117,-78.75621000
7.32421875,-75.09945000
7.35473633,-74.26332000
7.38525391,-75.48547000
7.41577148,-77.44857000
7.44628906,-78.28065000
7.47680664,-79.07091000
7.50732422,-82.11272000
7.53784180,-90.73492000
7.56835938,-93.77200000
7.59887695,-84.13609000
7.62939453,-80.34050000
7.65991211,-78.43208000
7.69042969,-78.00886000
7.72094727,-79.23707000
7.75146484,-83.05534000
7.78198242,-93.13969000
7.81250000,-85.95306000
7.84301758,-81.09978000
7.87353516,-79.91878000
7.90405273,-79.06340000
7.93457031,-77.06853000
7.96508789,-75.77544000
7.99560547,-76.11230000
8.02612305,-78.43682000
8.05664063,-82.69232000
8.08715820,-84.65333000
8.11767578,-84.04597000
8.14819336,-82.66685000
8.17871094,-80.17905000
8.20922852,-78.92505000
8.23974609,-78.61936000
8.27026367,-78.59153000
8.30078125,-79.87311000
8.33129883,-84.36774000
8.36181641,-97.65121000
8.39233398,-94.34196000
8.42285156,-88.87104000
8.45336914,-84.28702000
8.48388672,-81.77229000
8.51440430,-81.57783000
8.54492188,-82.97076000
8.57543945,-85.54498000
8.60595703,-89.04730000
8.63647461,-89.60400000
8.66699219,-87.40016000
8.69750977,-85.78470000
8.72802734,-84.88560000
8.75854492,-84.57903000
8.78906250,-84.58926000
8.81958008,-84.23959000
8.85009766,-82.97477000
8.88061523,-81.30370000
8.91113281,-80.37612000
8.94165039,-80.92994000
8.97216797,-82.54927000
9.00268555,-83.51440000
9.03320313,-84.16763000
9.06372070,-86.36318000
9.09423828,-92.51996000
9.12475586,-93.91469000
9.15527344,-84.86632000
9.18579102,-82.39241000
9.21630859,-83.04404000
9.24682617,-84.32000000
9.27734375,-85.72204000
9.30786133,-90.87978000
9.33837891,-112.16520000
9.36889648,-100.54650000
9.39941406,-92.34577000
9.42993164,-85.24248000
9.46044922,-82.46785000
9.49096680,-82.68296000
9.52148438,-85.54581000
9.55200195,-89.97972000
9.58251953,-91.51300000
9.61303711,-90.62961000
9.64355469,-89.90930000
9.67407227,-89.26585000
9.70458984,-85.83362000
9.73510742,-83.07654000
9.76562500,-81.72134000
9.79614258,-80.34276000
9.82666016,-79.02789000
9.85717773,-78.62327000
9.88769531,-79.27050000
9.91821289,-80.80906000
9.94873047,-83.29700000
9.97924805,-87.30949000
10.00976563,-90.22106000
10.04028320,-85.34386000
10.07080078,-81.26461000
10.10131836,-78.74982000
10.13183594,-78.18478000
10.16235352,-79.88245000
10.19287109,-80.45471000
10.22338867,-78.08518000
10.25390625,-78.02686000
10.28442383,-82.43683000
10.31494141,-137.82010000
10.34545898,-83.64482000
10.37597656,-78.92709000
10.40649414,-76.49612000
10.43701172,-75.86642000
10.46752930,-77.68010000
10.49804688,-82.46414000
10.52856445,-89.57908000
10.55908203,-94.25002000
10.58959961,-86.28558000
10.62011719,-80.06854000
10.65063477,-77.16718000
10.68115234,-76.22569000
10.71166992,-75.98098000
10.74218750,-76.02638000
10.77270508,-77.70806000
10.80322266,-82.84763000
10.83374023,-87.22797000
10.86425781,-82.90236000
10.89477539,-82.20322000
10.92529297,-84.92653000
10.95581055,-91.44156000
10.98632813,-95.50975000
11.01684570,-100.57040000
11.04736328,-91.73035000
11.07788086,-85.81902000
11.10839844,-85.10738000
11.13891602,-87.60460000
11.16943359,-87.88071000
11.19995117,-84.20996000
11.23046875,-83.28613000
11.26098633,-87.15583000
11.29150391,-90.55177000
11.32202148,-84.17435000
11.35253906,-81.50260000
11.38305664,-78.48270000
11.41357422,-76.08189000
11.44409180,-75.79449000
11.47460938,-77.93477000
11.50512695,-82.38456000
11.53564453,-87.21762000
11.56616211,-86.83972000
11.59667969,-82.31825000
11.62719727,-78.62572000
11.65771484,-76.61231000
11.68823242,-76.19640000
11.71875000,-77.06488000
11.74926758,-78.96732000
11.77978516,-83.09448000
11.81030273,-96.99216000
11.84082031,-85.51846000
11.87133789,-80.27793000
11.90185547,-78.68864000
11.93237305,-78.51453000
11.96289063,-78.24187000
11.99340820,-77.84722000
12.02392578,-79.31157000
12.05444336,-85.06767000
12.08496094,-83.42019000
12.11547852,-77.90340000
12.14599609,-76.77497000
12.17651367,-78.96985000
12.20703125,-86.25466000
12.23754883,-88.66965000
12.26806641,-80.08392000
12.29858398,-77.61858000
12.32910156,-77.93268000
12.35961914,-79.69520000
12.39013672,-81.60376000
12.42065430,-84.60712000
12.45117188,-93.24532000
12.48168945,-91.66290000
12.51220703,-85.53062000
12.54272461,-80.64435000
12.57324219,-77.34183000
12.60375977,-76.10749000
12.63427734,-76.11983000
12.66479492,-76.80885000
12.69531250,-78.55093000
12.72583008,-83.35957000
12.75634766,-108.94870000
12.78686523,-83.19833000
12.81738281,-79.77901000
12.84790039,-80.33929000
12.87841797,-82.92706000
12.90893555,-84.81372000
12.93945313,-85.81398000
12.96997070,-88.69515000
13.00048828,-98.57530000
13.03100586,-92.89063000
13.06152344,-84.28971000
13.09204102,-81.15242000
13.12255859,-81.81996000
13.15307617,-89.04630000
13.18359375,-88.51852000
13.21411133,-80.39710000
13.24462891,-78.54796000
13.27514648,-80.36536000
13.30566406,-82.04938000
13.33618164,-77.47926000
13.36669922,-75.24502000
13.39721680,-76.02950000
13.42773438,-78.94524000
13.45825195,-78.60356000
13.48876953,-72.81760000
13.51928711,-67.89218000
13.54980469,-65.71725000
13.58032227,-66.74501000
13.61083984,-71.69775000
13.64135742,-82.13113000
13.67187500,-90.01123000
13.70239258,-81.93756000
13.73291016,-73.17912000
13.76342773,-70.15524000
13.79394531,-69.81340000
13.82446289,-70.83723000
13.85498047,-72.61614000
13.88549805,-75.62161000
13.91601563,-82.10059000
13.94653320,-87.70691000
13.97705078,-80.44019000
14.00756836,-79.04176000
14.03808594,-80.51350000
14.06860352,-80.85743000
14.09912109,-77.32450000
14.12963867,-75.08916000
14.16015625,-75.28947000
14.19067383,-77.67693000
14.22119141,-81.52512000
14.25170898,-84.98997000
14.28222656,-86.44890000
14.31274414,-86.42712000
14.34326172,-84.57596000
14.37377930,-82.10187000
14.40429688,-80.72159000
14.43481445,-79.96725000
14.46533203,-78.48777000
14.49584961,-76.83133000
14.52636719,-76.77918000
14.55688477,-79.55107000
14.58740234,-86.09399000
14.61791992,-91.67151000
14.64843750,-90.91542000
14.67895508,-89.98473000
14.70947266,-87.68961000
14.73999023,-86.23715000
14.77050781,-86.47209000
14.80102539,-88.42345000
14.83154297,-89.05933000
14.86206055,-86.44608000
14.89257813,-85.15515000
14.92309570,-84.43032000
14.95361328,-83.26412000
14.98413086,-83.16307000
15.01464844,-84.84505000
15.04516602,-85.97469000
15.07568359,-83.51536000
15.10620117,-81.82356000
15.13671875,-82.21757000
15.16723633,-85.97519000
15.19775391,-91.21948000
15.22827148,-82.09235000
15.25878906,-79.78772000
15.28930664,-82.13172000
15.31982422,-89.74838000
15.35034180,-87.57257000
15.38085938,-82.74017000
15.41137695,-81.03697000
15.44189453,-80.17047000
15.47241211,-79.60637000
15.50292969,-80.26248000
15.53344727,-82.99821000
15.56396484,-86.67389000
15.59448242,-87.42786000
15.62500000,-90.48351000
15.65551758,-111.15000000
15.68603516,-87.83688000
15.71655273,-83.19318000
15.74707031,-81.46191000
15.77758789,-80.84372000
15.80810547,-80.86915000
15.83862305,-81.87122000
15.86914063,-84.34562000
15.89965820,-89.42292000
15.93017578,-99.83707000
15.96069336,-87.61993000
15.99121094,-83.22566000
16.02172852,-82.26517000
16.05224609,-82.83744000
16.08276367,-83.15566000
16.11328125,-83.24869000
16.14379883,-84.75230000
16.17431641,-89.43031000
16.20483398,-100.80040000
16.23535156,-92.65639000
16.26586914,-89.29994000
16.29638672,-87.76340000
16.32690430,-85.73479000
16.35742188,-84.08313000
16.38793945,-83.61787000
16.41845703,-84.52290000
16.44897461,-86.37253000
16.47949219,-86.90514000
16.51000977,-84.86198000
16.54052734,-83.48512000
16.57104492,-84.87061000
16.60156250,-91.64768000
16.63208008,-99.14639000
16.66259766,-88.55127000
16.69311523,-85.56258000
16.72363281,-84.19931000
16.75415039,-84.74170000
16.78466797,-88.71939000
16.81518555,-99.58179000
16.84570313,-91.86671000
16.87622070,-88.65983000
16.90673828,-89.11603000
16.93725586,-90.38563000
16.96777344,-89.94861000
16.99829102,-87.98382000
17.02880859,-85.70489000
17.05932617,-84.56676000
17.08984375,-85.24586000
17.12036133,-87.76950000
17.15087891,-91.65925000
17.18139648,-94.42787000
17.21191406,-93.73457000
17.24243164,-93.35921000
17.27294922,-95.69741000
17.30346680,-99.24760000
17.33398438,-92.92839000
17.36450195,-88.58507000
17.39501953,-86.74361000
17.42553711,-86.24742000
17.45605469,-86.47640000
17.48657227,-87.17184000
17.51708984,-88.54317000
17.54760742,-91.81009000
17.57812500,-100.16950000
17.60864258,-95.43808000
17.63916016,-87.70173000
17.66967773,-82.38065000
17.70019531,-78.98560000
17.73071289,-78.19530000
17.76123047,-80.77816000
17.79174805,-88.98863000
17.82226563,-98.62243000
17.85278320,-92.59253000
17.88330078,-94.03423000
17.91381836,-93.95435000
17.94433594,-93.65952000
17.97485352,-91.64894000
18.00537109,-89.49932000
18.03588867,-89.88748000
18.06640625,-92.63462000
18.09692383,-94.93033000
18.12744141,-94.03576000
18.15795898,-93.53294000
18.18847656,-97.30597000
18.21899414,-99.73663000
18.24951172,-90.41026000
18.28002930,-87.10496000
18.31054688,-86.69266000
18.34106445,-88.07201000
18.37158203,-90.58054000
18.40209961,-94.26781000
18.43261719,-100.36020000
18.46313477,-107.77540000
18.49365234,-106.26980000
18.52416992,-103.22750000
18.55468750,-101.30310000
18.58520508,-98.44878000
18.61572266,-96.74171000
18.64624023,-97.71510000
18.67675781,-100.83300000
18.70727539,-103.92390000
18.73779297,-105.31700000
18.76831055,-103.29740000
18.79882813,-99.00979000
18.82934570,-96.64860000
18.85986328,-96.53046000
18.89038086,-97.42883000
18.92089844,-96.95424000
18.95141602,-95.65586000
18.98193359,-95.61864000
19.01245117,-97.46109000
19.04296875,-100.46950000
19.07348633,-101.36290000
19.10400391,-97.85527000
19.13452148,-94.35999000
19.16503906,-93.40714000
19.19555664,-95.37093000
19.22607422,-100.07470000
19.25659180,-107.80240000
19.28710938,-106.82780000
19.31762695,-98.68388000
19.34814453,-96.22558000
19.37866211,-96.67794000
19.40917969,-98.68050000
19.43969727,-101.12860000
19.47021484,-101.67650000
19.50073242,-99.56517000
19.53125000,-99.25956000
19.56176758,-101.18060000
19.59228516,-104.36710000
19.62280273,-111.82080000
19.65332031,-105.78130000
19.68383789,-100.96880000
19.71435547,-99.97348000
19.74487305,-102.60860000
19.77539063,-109.18550000
19.80590820,-99.31655000
19.83642578,-94.87392000
19.86694336,-94.18423000
19.89746094,-95.24222000
19.92797852,-95.99203000
19.95849609,-96.68176000
19.98901367,-98.28485000
20.01953125,-101.07000000
20.05004883,-105.92190000
20.08056641,-98.45852000
20.11108398,-93.27893000
20.14160156,-90.90498000
20.17211914,-90.20041000
20.20263672,-90.91034000
20.23315430,-92.07023000
20.26367188,-92.46968000
20.29418945,-92.41611000
20.32470703,-92.59551000
20.35522461,-95.76725000
20.38574219,-109.38420000
20.41625977,-100.63100000
20.44677734,-101.57530000
20.47729492,-90.95025000
20.50781250,-86.98963000
20.53833008,-87.64703000
20.56884766,-91.08787000
20.59936523,-94.03391000
20.62988281,-94.51686000
20.66040039,-94.30461000
20.69091797,-89.33273000
20.72143555,-85.33687000
20.75195313,-84.44949000
20.78247070,-85.58610000
20.81298828,-87.50144000
20.84350586,-90.00062000
20.87402344,-94.29134000
20.90454102,-103.62170000
20.93505859,-105.83310000
20.96557617,-104.28690000
20.99609375,-101.81300000
21.02661133,-95.23647000
21.05712891,-92.13951000
21.08764648,-91.72154000
21.11816406,-93.36608000
21.14868164,-93.59702000
21.17919922,-91.25244000
21.20971680,-90.68241000
21.24023438,-92.62299000
21.27075195,-99.13419000
21.30126953,-104.24990000
21.33178711,-93.64134000
21.36230469,-90.23254000
21.39282227,-89.37306000
21.42333984,-90.70485000
21.45385742,-93.67535000
21.48437500,-95.74158000
21.51489258,-94.99110000
21.54541016,-93.31180000
21.57592773,-91.97383000
21.60644531,-91.32169000
21.63696289,-91.36909000
21.66748047,-91.93752000
21.69799805,-92.82746000
21.72851563,-93.93917000
21.75903320,-94.46697000
21.78955078,-93.18594000
21.82006836,-91.18625000
21.85058594,-90.21153000
21.88110352,-90.63237000
21.91162109,-92.76161000
21.94213867,-97.79861000
21.97265625,-97.30267000
22.00317383,-93.62880000
22.03369141,-94.66895000
22.06420898,-102.53140000
22.09472656,-95.80807000
22.12524414,-89.18514000
22.15576172,-86.94826000
22.18627930,-87.94216000
22.21679688,-92.83128000
22.24731445,-103.91930000
22.27783203,-98.77501000
22.30834961,-97.06831000
22.33886719,-99.41396000
22.36938477,-97.96581000
22.39990234,-92.02613000
22.43041992,-89.82338000
22.46093750,-90.44366000
22.49145508,-91.69545000
22.52197266,-91.04127000
22.55249023,-90.14103000
22.58300781,-90.91731000
22.61352539,-94.09924000
22.64404297,-101.48460000
22.67456055,-116.80750000
22.70507813,-103.49760000
22.73559570,-101.49090000
22.76611328,-97.11709000
22.79663086,-93.02580000
22.82714844,-91.74080000
22.85766602,-92.83740000
22.88818359,-94.11079000
22.91870117,-94.87556000
22.94921875,-98.97284000
22.97973633,-101.51960000
23.01025391,-96.19141000
23.04077148,-95.74174000
23.07128906,-97.40437000
23.10180664,-94.78946000
23.13232422,-91.15852000
23.16284180,-89.71147000
23.19335938,-90.57278000
23.22387695,-93.45601000
23.25439453,-96.21413000
23.28491211,-95.94528000
23.31542969,-97.14771000
23.34594727,-101.96110000
23.37646484,-98.03883000
23.40698242,-94.84818000
23.43750000,-94.23621000
23.46801758,-93.98412000
23.49853516,-93.94761000
23.52905273,-96.30716000
23.55957031,-101.72720000
23.59008789,-104.41980000
23.62060547,-105.39790000
23.65112305,-96.77681000
23.68164063,-94.02157000
23.71215820,-95.15942000
23.74267578,-94.87276000
23.77319336,-91.64264000
23.80371094,-88.68275000
23.83422852,-86.60817000
23.86474609,-86.16924000
23.89526367,-87.58110000
23.92578125,-90.31052000
23.95629883,-92.20166000
23.98681641,-92.93046000
24.01733398,-95.35198000
24.04785156,-99.48219000
24.07836914,-101.75230000
24.10888672,-106.12060000
24.13940430,-102.80400000
24.16992188,-95.10013000
24.20043945,-92.86384000
24.23095703,-94.35063000
24.26147461,-97.97408000
24.29199219,-97.57314000
24.32250977,-94.32414000
24.35302734,-92.52056000
24.38354492,-92.99068000
24.41406250,-96.65623000
24.44458008,-104.07260000
24.47509766,-95.44325000
24.50561523,-90.55607000
24.53613281,-89.36988000
24.56665039,-91.34930000
24.59716797,-96.96115000
24.62768555,-111.68040000
24.65820313,-103.36640000
24.68872070,-97.99615000
24.71923828,-96.47340000
24.74975586,-97.46288000
24.78027344,-100.80150000
24.81079102,-96.52130000
24.84130859,-92.00340000
24.87182617,-91.54663000
24.90234375,-94.28000000
24.93286133,-98.35285000
24.96337891,-100.46360000
24.99389648,-100.47810000
25.02441406,-100.04230000
25.05493164,-98.97142000
25.08544922,-96.03761000
25.11596680,-94.73621000
25.14648438,-95.81363000
25.17700195,-95.26482000
25.20751953,-93.51215000
25.23803711,-93.60107000
25.26855469,-94.70419000
25.29907227,-96.26801000
25.32958984,-100.15530000
25.36010742,-112.53590000
25.39062500,-109.43920000
25.42114258,-106.39730000
25.45166016,-101.02500000
25.48217773,-94.44061000
25.51269531,-91.77258000
25.54321289,-92.51625000
25.57373047,-97.13996000
25.60424805,-110.85530000
25.63476563,-103.92330000
25.66528320,-98.34485000
25.69580078,-96.98158000
25.72631836,-99.47872000
25.75683594,-105.19530000
25.78735352,-98.05087000
25.81787109,-92.88496000
25.84838867,-90.87776000
25.87890625,-91.57772000
25.90942383,-94.80867000
25.93994141,-98.97897000
25.97045898,-99.61388000
26.00097656,-95.65648000
26.03149414,-90.43075000
26.06201172,-86.62103000
26.09252930,-85.16675000
26.12304688,-86.45912000
26.15356445,-90.32350000
26.18408203,-91.68088000
26.21459961,-90.09902000
26.24511719,-90.85255000
26.27563477,-95.34485000
26.30615234,-100.05920000
26.33666992,-92.52041000
26.36718750,-90.68419000
26.39770508,-92.99109000
26.42822266,-95.37129000
26.45874023,-95.76980000
26.48925781,-102.53960000
26.51977539,-104.06790000
26.55029297,-96.52011000
26.58081055,-94.96280000
26.61132813,-94.45674000
26.64184570,-94.49561000
26.67236328,-95.05379000
26.70288086,-94.90805000
26.73339844,-94.83548000
26.76391602,-97.43092000
26.79443359,-105.58440000
26.82495117,-97.14005000
26.85546875,-93.84330000
26.88598633,-95.45938000
26.91650391,-101.18990000
26.94702148,-97.33344000
26.97753906,-93.45045000
27.00805664,-93.33325000
27.03857422,-96.59507000
27.06909180,-99.59331000
27.09960938,-95.69289000
27.13012695,-93.47128000
27.16064453,-91.74660000
27.19116211,-89.78637000
27.22167969,-89.16719000
27.25219727,-90.06515000
27.28271484,-91.44179000
27.31323242,-93.34708000
27.34375000,-97.01318000
27.37426758,-98.36936000
27.40478516,-95.62637000
27.43530273,-94.35629000
27.46582031,-94.18332000
27.49633789,-95.24911000
27.52685547,-101.23190000
27.55737305,-103.15700000
27.58789063,-92.13503000
27.61840820,-88.17977000
27.64892578,-86.75533000
27.67944336,-87.24515000
27.70996094,-89.90990000
27.74047852,-95.61694000
27.77099609,-104.81120000
27.80151367,-104.34280000
27.83203125,-101.69720000
27.86254883,-98.19530000
27.89306641,-95.25888000
27.92358398,-94.18565000
27.95410156,-95.49148000
27.98461914,-100.38700000
28.01513672,-107.67010000
28.04565430,-97.95956000
28.07617188,-93.38312000
28.10668945,-91.18671000
28.13720703,-90.24484000
28.16772461,-90.39041000
28.19824219,-92.03903000
28.22875977,-95.83962000
28.25927734,-101.28530000
28.28979492,-98.87236000
28.32031250,-94.35093000
28.35083008,-91.81850000
28.38134766,-91.78623000
28.41186523,-95.38161000
28.44238281,-107.74800000
28.47290039,-104.59480000
28.50341797,-99.22432000
28.53393555,-96.59175000
28.56445313,-94.58516000
28.59497070,-93.31656000
28.62548828,-91.98887000
28.65600586,-90.51105000
28.68652344,-89.84452000
28.71704102,-90.40141000
28.74755859,-91.14278000
28.77807617,-90.93347000
28.80859375,-91.27158000
28.83911133,-91.95061000
28.86962891,-91.94070000
28.90014648,-93.31074000
28.93066406,-95.77312000
28.96118164,-91.73207000
28.99169922,-88.00739000
29.02221680,-87.26587000
29.05273438,-89.09663000
29.08325195,-92.34966000
29.11376953,-94.31198000
29.14428711,-96.48525000
29.17480469,-102.69560000
29.20532227,-101.62740000
29.23583984,-97.09026000
29.26635742,-94.35104000
29.29687500,-92.19800000
29.32739258,-91.18633000
29.35791016,-91.52168000
29.38842773,-92.61787000
29.41894531,-92.96007000
29.44946289,-92.21870000
29.47998047,-91.24870000
29.51049805,-90.80882000
29.54101563,-91.51021000
29.57153320,-93.49483000
29.60205078,-96.50246000
29.63256836,-99.53976000
29.66308594,-96.12525000
29.69360352,-92.85720000
29.72412109,-93.97702000
29.75463867,-99.53312000
29.78515625,-99.98245000
29.81567383,-103.21740000
29.84619141,-109.12510000
29.87670898,-100.13520000
29.90722656,-99.68317000
29.93774414,-104.25510000
29.96826172,-109.62410000
29.99877930,-95.95103000
30.02929688,-91.62633000
30.05981445,-90.71017000
30.09033203,-91.36855000
30.12084961,-92.84279000
30.15136719,-96.40499000
30.18188477,-101.42160000
30.21240234,-98.74332000
30.24291992,-95.14536000
30.27343750,-92.86877000
30.30395508,-92.48070000
30.33447266,-94.56252000
30.36499023,-97.92888000
30.39550781,-97.53623000
30.42602539,-96.50531000
30.45654297,-97.37145000
30.48706055,-100.21610000
30.51757813,-106.61440000
30.54809570,-109.98580000
30.57861328,-100.12830000
30.60913086,-96.46367000
30.63964844,-94.61266000
30.67016602,-92.29350000
30.70068359,-91.23065000
30.73120117,-92.50928000
30.76171875,-94.58217000
30.79223633,-94.92242000
30.82275391,-94.92241000
30.85327148,-97.17847000
30.88378906,-104.03540000
30.91430664,-100.34400000
30.94482422,-96.73814000
30.97534180,-96.92043000
31.00585938,-98.03145000
31.03637695,-98.96976000
31.06689453,-95.29494000
31.09741211,-92.51143000
31.12792969,-92.64951000
31.15844727,-94.18136000
31.18896484,-96.06682000
31.21948242,-98.81348000
31.25000000,-98.60367000
31.28051758,-97.53958000
31.31103516,-99.16711000
31.34155273,-96.60987000
31.37207031,-93.83453000
31.40258789,-93.99666000
31.43310547,-97.39369000
31.46362305,-114.86370000
31.49414063,-98.89165000
31.52465820,-94.32140000
31.55517578,-94.32112000
31.58569336,-96.03630000
31.61621094,-95.15991000
31.64672852,-91.89882000
31.67724609,-89.50822000
31.70776367,-88.86855000
31.73828125,-89.87572000
31.76879883,-91.17245000
31.79931641,-91.35586000
31.82983398,-91.72904000
31.86035156,-94.46918000
31.89086914,-102.05300000
31.92138672,-100.26080000
31.95190430,-95.51491000
31.98242188,-92.93552000
32.01293945,-90.18581000
32.04345703,-88.65715000
32.07397461,-90.34998000
32.10449219,-98.95325000
32.13500977,-93.95432000
32.16552734,-88.57970000
32.19604492,-88.23485000
32.22656250,-91.84348000
32.25708008,-99.35493000
32.28759766,-95.33978000
32.31811523,-93.34820000
32.34863281,-94.01199000
32.37915039,-93.44712000
32.40966797,-92.60934000
32.44018555,-94.08805000
32.47070313,-96.76669000
32.50122070,-95.38372000
32.53173828,-94.38565000
32.56225586,-96.31519000
32.59277344,-99.62741000
32.62329102,-99.60052000
32.65380859,-99.85074000
32.68432617,-103.95280000
32.71484375,-109.16670000
32.74536133,-101.93090000
32.77587891,-98.34896000
32.80639648,-98.28362000
32.83691406,-101.47940000
32.86743164,-107.21710000
32.89794922,-103.56990000
32.92846680,-96.63322000
32.95898438,-92.95753000
32.98950195,-92.16649000
33.02001953,-93.61581000
33.05053711,-95.20241000
33.08105469,-93.68892000
33.11157227,-91.45409000
33.14208984,-90.92467000
33.17260742,-92.78861000
33.20312500,-95.53969000
33.23364258,-95.22400000
33.26416016,-94.79315000
33.29467773,-94.61638000
33.32519531,-94.80785000
33.35571289,-96.68109000
33.38623047,-99.42575000
33.41674805,-99.31590000
33.44726563,-96.13605000
33.47778320,-95.44404000
33.50830078,-97.60788000
33.53881836,-97.45020000
33.56933594,-94.76437000
33.59985352,-94.16251000
33.63037109,-96.21767000
33.66088867,-100.27710000
33.69140625,-100.90190000
33.72192383,-101.79460000
33.75244141,-113.64080000
33.78295898,-105.72920000
33.81347656,-102.40750000
33.84399414,-107.12620000
33.87451172,-120.66110000
33.90502930,-107.19960000
33.93554688,-101.77220000
33.96606445,-97.62576000
33.99658203,-96.31308000
34.02709961,-96.44570000
34.05761719,-96.64321000
34.08813477,-97.25472000
34.11865234,-98.23033000
34.14916992,-98.38996000
34.17968750,-99.54507000
34.21020508,-106.78440000
34.24072266,-106.88040000
34.27124023,-98.64811000
34.30175781,-97.98199000
34.33227539,-101.98570000
34.36279297,-112.95130000
34.39331055,-111.03760000
34.42382813,-102.28640000
34.45434570,-97.72723000
34.48486328,-95.68918000
34.51538086,-95.14568000
34.54589844,-94.41270000
34.57641602,-93.18979000
34.60693359,-93.00419000
34.63745117,-95.02988000
34.66796875,-97.95414000
34.69848633,-95.20439000
34.72900391,-92.50088000
34.75952148,-92.34148000
34.79003906,-94.62312000
34.82055664,-98.12623000
34.85107422,-99.44752000
34.88159180,-99.02824000
34.91210938,-95.02182000
34.94262695,-92.73167000
34.97314453,-93.48743000
35.00366211,-95.23132000
35.03417969,-96.05340000
35.06469727,-99.77378000
35.09521484,-111.56060000
35.12573242,-97.55315000
35.15625000,-93.61314000
35.18676758,-92.99017000
35.21728516,-93.70838000
35.24780273,-94.59401000
35.27832031,-96.81957000
35.30883789,-103.70840000
35.33935547,-112.46630000
35.36987305,-103.22290000
35.40039063,-103.50750000
35.43090820,-108.47610000
35.46142578,-103.63600000
35.49194336,-97.25374000
35.52246094,-93.79477000
35.55297852,-92.09924000
35.58349609,-91.55036000
35.61401367,-91.62280000
35.64453125,-91.99832000
35.67504883,-93.04187000
35.70556641,-95.77483000
35.73608398,-100.47600000
35.76660156,-100.97660000
35.79711914,-98.63885000
35.82763672,-97.75544000
35.85815430,-100.11120000
35.88867188,-104.10840000
35.91918945,-94.90150000
35.94970703,-91.73526000
35.98022461,-92.55787000
36.01074219,-96.81999000
36.04125977,-105.85150000
36.07177734,-103.87230000
36.10229492,-97.85114000
36.13281250,-95.66257000
36.16333008,-95.72585000
36.19384766,-96.87310000
36.22436523,-98.65905000
36.25488281,-101.68650000
36.28540039,-102.16780000
36.31591797,-98.34122000
36.34643555,-96.32592000
36.37695313,-96.62993000
36.40747070,-98.30685000
36.43798828,-99.07594000
36.46850586,-99.68666000
36.49902344,-105.68650000
36.52954102,-106.44980000
36.56005859,-96.45829000
36.59057617,-93.92831000
36.62109375,-95.08392000
36.65161133,-98.67068000
36.68212891,-96.41806000
36.71264648,-93.08237000
36.74316406,-92.77525000
36.77368164,-94.46463000
36.80419922,-95.12707000
36.83471680,-94.64267000
36.86523438,-95.19763000
36.89575195,-94.76539000
36.92626953,-92.20948000
36.95678711,-90.48538000
36.98730469,-90.57297000
37.01782227,-92.66846000
37.04833984,-97.12089000
37.07885742,-100.16080000
37.10937500,-96.62735000
37.13989258,-93.88802000
37.17041016,-92.39371000
37.20092773,-92.40874000
37.23144531,-94.70837000
37.26196289,-96.35355000
37.29248047,-93.35185000
37.32299805,-92.59246000
37.35351563,-94.33097000
37.38403320,-93.44858000
37.41455078,-91.59375000
37.44506836,-92.62420000
37.47558594,-96.35922000
37.50610352,-100.75540000
37.53662109,-110.37820000
37.56713867,-102.56720000
37.59765625,-97.53896000
37.62817383,-97.54539000
37.65869141,-100.06510000
37.68920898,-101.84510000
37.71972656,-100.53790000
37.75024414,-98.59138000
37.78076172,-97.31892000
37.81127930,-95.80212000
37.84179688,-92.89085000
37.87231445,-89.92496000
37.90283203,-88.44618000
37.93334961,-89.41096000
37.96386719,-93.93581000
37.99438477,-105.26900000
38.02490234,-98.77068000
38.05541992,-94.66953000
38.08593750,-93.88666000
38.11645508,-95.46313000
38.14697266,-99.52344000
38.17749023,-107.00810000
38.20800781,-105.92350000
38.23852539,-96.58035000
38.26904297,-93.04061000
38.29956055,-92.13776000
38.33007813,-92.24132000
38.36059570,-93.23128000
38.39111328,-94.96124000
38.42163086,-95.80722000
38.45214844,-95.32033000
38.48266602,-95.18188000
38.51318359,-96.88442000
38.54370117,-102.12780000
38.57421875,-109.38320000
38.60473633,-99.98788000
38.63525391,-97.42069000
38.66577148,-100.67420000
38.69628906,-104.76200000
38.72680664,-94.92657000
38.75732422,-91.67706000
38.78784180,-90.83801000
38.81835938,-90.57936000
38.84887695,-90.60378000
38.87939453,-92.26566000
38.90991211,-96.92981000
38.94042969,-95.48432000
38.97094727,-91.93726000
39.00146484,-92.52238000
39.03198242,-97.99414000
39.06250000,-117.32300000
39.09301758,-98.88431000
39.12353516,-94.58961000
39.15405273,-93.14444000
39.18457031,-93.09167000
39.21508789,-93.93904000
39.24560547,-95.96206000
39.27612305,-99.18997000
39.30664063,-102.76200000
39.33715820,-103.60730000
39.36767578,-102.58260000
39.39819336,-105.03670000
39.42871094,-104.53360000
39.45922852,-99.51888000
39.48974609,-99.60716000
39.52026367,-99.26087000
39.55078125,-102.69770000
39.58129883,-102.25280000
39.61181641,-91.59940000
39.64233398,-88.67189000
39.67285156,-88.55923000
39.70336914,-89.48380000
39.73388672,-90.37177000
39.76440430,-91.32526000
39.79492188,-93.86949000
39.82543945,-100.66700000
39.85595703,-101.07900000
39.88647461,-92.26157000
39.91699219,-89.16015000
39.94750977,-90.19646000
39.97802734,-97.64366000
40.00854492,-102.26790000
40.03906250,-96.44704000
40.06958008,-99.21541000
40.10009766,-93.91705000
40.13061523,-88.53397000
40.16113281,-85.98114000
40.19165039,-85.74738000
40.22216797,-89.00132000
40.25268555,-101.35080000
40.28320313,-91.68163000
40.31372070,-88.64754000
40.34423828,-89.83136000
40.37475586,-92.27971000
40.40527344,-94.68780000
40.43579102,-96.61127000
40.46630859,-98.67303000
40.49682617,-99.17022000
40.52734375,-92.67944000
40.55786133,-88.61645000
40.58837891,-87.43041000
40.61889648,-88.53223000
40.64941406,-90.53720000
40.67993164,-89.71324000
40.71044922,-88.71144000
40.74096680,-92.07958000
40.77148438,-99.70834000
40.80200195,-90.01019000
40.83251953,-87.12843000
40.86303711,-87.47525000
40.89355469,-90.43176000
40.92407227,-97.67129000
40.95458984,-101.31800000
40.98510742,-96.56172000
41.01562500,-95.22926000
41.04614258,-91.63159000
41.07666016,-88.16222000
41.10717773,-86.53964000
41.13769531,-86.82985000
41.16821289,-89.66841000
41.19873047,-97.17105000
41.22924805,-91.04655000
41.25976563,-86.84596000
41.29028320,-88.16115000
41.32080078,-96.95404000
41.35131836,-95.18690000
41.38183594,-91.64955000
41.41235352,-94.50212000
41.44287109,-107.16840000
41.47338867,-91.88946000
41.50390625,-85.49149000
41.53442383,-82.50778000
41.56494141,-81.68317000
41.59545898,-82.94132000
41.62597656,-87.09518000
41.65649414,-96.44588000
41.68701172,-90.80952000
41.71752930,-86.64840000
41.74804688,-85.61653000
41.77856445,-86.01817000
41.80908203,-87.14197000
41.83959961,-86.43073000
41.87011719,-84.33128000
41.90063477,-84.09674000
41.93115234,-86.45188000
41.96166992,-91.13288000
41.99218750,-95.53876000
42.02270508,-93.65223000
42.05322266,-89.35375000
42.08374023,-88.40579000
42.11425781,-91.80833000
42.14477539,-93.78830000
42.17529297,-88.71781000
42.20581055,-87.74810000
42.23632813,-92.18402000
42.26684570,-96.15434000
42.29736328,-86.74340000
42.32788086,-84.38109000
42.35839844,-86.83037000
42.38891602,-97.52426000
42.41943359,-87.30902000
42.44995117,-83.41908000
42.48046875,-83.95995000
42.51098633,-87.76762000
42.54150391,-95.14580000
42.57202148,-98.04944000
42.60253906,-89.98231000
42.63305664,-86.26559000
42.66357422,-84.96468000
42.69409180,-85.55480000
42.72460938,-87.94991000
42.75512695,-90.67344000
42.78564453,-89.58984000
42.81616211,-85.43207000
42.84667969,-83.54051000
42.87719727,-85.13040000
42.90771484,-90.10619000
42.93823242,-92.41380000
42.96875000,-87.74910000
42.99926758,-84.59058000
43.02978516,-83.80135000
43.06030273,-85.28332000
43.09082031,-88.54395000
43.12133789,-92.60139000
43.15185547,-92.76852000
43.18237305,-88.68603000
43.21289063,-87.90428000
43.24340820,-91.41354000
43.27392578,-104.45370000
43.30444336,-99.77020000
43.33496094,-96.91082000
43.36547852,-97.20630000
43.39599609,-97.01621000
43.42651367,-103.51110000
43.45703125,-107.95180000
43.48754883,-104.22960000
43.51806641,-105.07580000
43.54858398,-95.63716000
43.57910156,-93.99718000
43.60961914,-97.10152000
43.64013672,-96.63414000
43.67065430,-91.77448000
43.70117188,-90.41194000
43.73168945,-91.43528000
43.76220703,-92.77818000
43.79272461,-93.91521000
43.82324219,-94.30237000
43.85375977,-93.13213000
43.88427734,-93.21343000
43.91479492,-95.39740000
43.94531250,-100.77590000
43.97583008,-113.91370000
44.00634766,-96.78699000
44.03686523,-92.63866000
44.06738281,-91.81362000
44.09790039,-91.48708000
44.12841797,-90.29988000
44.15893555,-88.62921000
44.18945313,-87.76943000
44.21997070,-88.94286000
44.25048828,-92.78586000
44.28100586,-100.89010000
44.31152344,-99.63165000
44.34204102,-93.07196000
44.37255859,-90.59752000
44.40307617,-90.54080000
44.43359375,-91.53638000
44.46411133,-91.33777000
44.49462891,-89.45713000
44.52514648,-88.56322000
44.55566406,-90.26741000
44.58618164,-95.59885000
44.61669922,-109.77290000
44.64721680,-97.04041000
44.67773438,-91.78595000
44.70825195,-90.53699000
44.73876953,-92.34733000
44.76928711,-95.65608000
44.79980469,-99.21136000
44.83032227,-95.36213000
44.86083984,-90.75957000
44.89135742,-90.34396000
44.92187500,-93.06268000
44.95239258,-96.59707000
44.98291016,-95.68169000
45.01342773,-93.77206000
45.04394531,-94.01989000
45.07446289,-98.48096000
45.10498047,-107.61670000
45.13549805,-100.98240000
45.16601563,-102.06320000
45.19653320,-105.80780000
45.22705078,-105.84450000
45.25756836,-100.74840000
45.28808594,-95.48737000
45.31860352,-92.19685000
45.34912109,-91.04655000
45.37963867,-92.64442000
45.41015625,-97.32735000
45.44067383,-100.16220000
45.47119141,-99.83060000
45.50170898,-100.07280000
45.53222656,-100.37460000
45.56274414,-100.29650000
45.59326172,-98.46796000
45.62377930,-95.07247000
45.65429688,-90.77228000
45.68481445,-87.43896000
45.71533203,-86.71709000
45.74584961,-89.21729000
45.77636719,-94.16099000
45.80688477,-97.52452000
45.83740234,-105.52800000
45.86791992,-107.43680000
45.89843750,-105.99040000
45.92895508,-105.96010000
45.95947266,-94.37332000
45.98999023,-89.97302000
46.02050781,-87.97968000
46.05102539,-87.75314000
46.08154297,-89.26447000
46.11206055,-91.18138000
46.14257813,-90.73078000
46.17309570,-89.18327000
46.20361328,-88.89571000
46.23413086,-90.80524000
46.26464844,-94.83836000
46.29516602,-98.48663000
46.32568359,-97.01384000
46.35620117,-94.23508000
46.38671875,-93.54784000
46.41723633,-96.38458000
46.44775391,-102.55740000
46.47827148,-107.43350000
46.50878906,-111.20300000
46.53930664,-98.48553000
46.56982422,-95.62177000
46.60034180,-95.61362000
46.63085938,-92.77972000
46.66137695,-89.37565000
46.69189453,-88.82859000
46.72241211,-91.88333000
46.75292969,-98.89084000
46.78344727,-97.31063000
46.81396484,-94.91386000
46.84448242,-95.97149000
46.87500000,-98.85246000
46.90551758,-100.46630000
46.93603516,-103.99980000
46.96655273,-102.55050000
46.99707031,-93.25819000
47.02758789,-90.01884000
47.05810547,-89.99221000
47.08862305,-91.99155000
47.11914063,-95.42794000
47.14965820,-100.52300000
47.18017578,-108.78840000
47.21069336,-103.52360000
47.24121094,-96.32850000
47.27172852,-93.68790000
47.30224609,-94.17165000
47.33276367,-95.82542000
47.36328125,-95.70128000
47.39379883,-95.73071000
47.42431641,-98.28416000
47.45483398,-105.55310000
47.48535156,-103.44350000
47.51586914,-100.22960000
47.54638672,-98.18887000
47.57690430,-96.39746000
47.60742188,-96.90899000
47.63793945,-97.63196000
47.66845703,-97.21444000
47.69897461,-98.34091000
47.72949219,-102.98960000
47.76000977,-128.03730000
47.79052734,-103.70650000
47.82104492,-98.00889000
47.85156250,-96.28687000
47.88208008,-96.84471000
47.91259766,-97.07462000
47.94311523,-96.00977000
47.97363281,-95.67398000
48.00415039,-96.04170000
48.03466797,-94.77470000
48.06518555,-92.60464000
48.09570313,-91.48708000
48.12622070,-91.23534000
48.15673828,-91.19308000
48.18725586,-91.78214000
48.21777344,-94.69600000
48.24829102,-105.69290000
48.27880859,-99.85111000
48.30932617,-93.28854000
48.33984375,-91.99463000
48.37036133,-94.16527000
48.40087891,-99.87961000
48.43139648,-106.00410000
48.46191406,-105.60570000
48.49243164,-98.60168000
48.52294922,-93.56358000
48.55346680,-91.91374000
48.58398438,-93.67931000
48.61450195,-97.34572000
48.64501953,-96.83601000
48.67553711,-95.36302000
48.70605469,-95.25939000
48.73657227,-95.96124000
48.76708984,-97.16126000
48.79760742,-99.79317000
48.82812500,-107.11740000
48.85864258,-100.69050000
48.88916016,-93.72743000
48.91967773,-91.46004000
48.95019531,-94.29312000
48.98071289,-105.66730000
49.01123047,-90.23254000
49.04174805,-87.09946000
49.07226563,-88.03593000
49.10278320,-91.22951000
49.13330078,-95.67603000
49.16381836,-103.45890000
49.19433594,-95.82252000
49.22485352,-90.42671000
49.25537109,-89.08263000
49.28588867,-89.75793000
49.31640625,-90.48314000
49.34692383,-90.25639000
49.37744141,-90.69276000
49.40795898,-93.28590000
49.43847656,-99.05638000
49.46899414,-114.15250000
49.49951172,-102.18650000
49.53002930,-101.95850000
49.56054688,-103.35640000
49.59106445,-95.47301000
49.62158203,-91.13613000
49.65209961,-88.27824000
49.68261719,-86.16693000
49.71313477,-85.62957000
49.74365234,-87.29430000
49.77416992,-91.68400000
49.80468750,-101.52980000
49.83520508,-101.91850000
49.86572266,-95.94609000
49.89624023,-97.39722000
49.92675781,-105.66090000
49.95727539,-105.27120000
49.98779297,-94.75191000
50.01831055,-89.11990000
