Frequency,Channel A
(MHz),(dBu)

0.00000000,-38.10730000
0.03051758,-39.02153000
0.06103516,-46.45985000
0.09155273,-53.01769000
0.12207031,-51.44624000
0.15258789,-52.76984000
0.18310547,-53.12172000
0.21362305,-53.43864000
0.24414063,-53.79650000
0.27465820,-55.08410000
0.30517578,-59.17940000
0.33569336,-62.29156000
0.36621094,-56.98677000
0.39672852,-55.04630000
0.42724609,-55.94122000
0.45776367,-56.73737000
0.48828125,-54.48153000
0.51879883,-51.01580000
0.54931641,-48.29920000
0.57983398,-47.34875000
0.61035156,-48.59039000
0.64086914,-48.82433000
0.67138672,-45.67548000
0.70190430,-44.56569000
0.73242188,-46.31051000
0.76293945,-50.52289000
0.79345703,-56.57057000
0.82397461,-63.34813000
0.85449219,-69.54696000
0.88500977,-75.30904000
0.91552734,-78.75055000
0.94604492,-72.07950000
0.97656250,-70.31168000
1.00708008,-72.74611000
1.03759766,-68.07592000
1.06811523,-62.24498000
1.09863281,-60.08446000
1.12915039,-60.76494000
1.15966797,-63.49108000
1.19018555,-66.23544000
1.22070313,-66.05462000
1.25122070,-64.59856000
1.28173828,-63.17845000
1.31225586,-61.89926000
1.34277344,-61.53227000
1.37329102,-63.41808000
1.40380859,-67.78011000
1.43432617,-65.41989000
1.46484375,-61.78305000
1.49536133,-61.02148000
1.52587891,-62.91895000
1.55639648,-66.72756000
1.58691406,-68.21065000
1.61743164,-66.94169000
1.64794922,-65.68391000
1.67846680,-64.68096000
1.70898438,-64.20219000
1.73950195,-64.15666000
1.77001953,-64.05747000
1.80053711,-63.65382000
1.83105469,-62.99181000
1.86157227,-62.08654000
1.89208984,-61.16946000
1.92260742,-60.72168000
1.95312500,-61.04171000
1.98364258,-61.88982000
2.01416016,-62.28382000
2.04467773,-61.91016000
2.07519531,-62.05552000
2.10571289,-63.91911000
2.13623047,-67.26473000
2.16674805,-66.94707000
2.19726563,-65.00990000
2.22778320,-64.92274000
2.25830078,-65.31066000
2.28881836,-64.48788000
2.31933594,-63.69812000
2.34985352,-64.04224000
2.38037109,-65.31873000
2.41088867,-66.22757000
2.44140625,-65.84818000
2.47192383,-65.72577000
2.50244141,-67.03674000
2.53295898,-69.20545000
2.56347656,-68.84918000
2.59399414,-66.63005000
2.62451172,-65.50591000
2.65502930,-65.65636000
2.68554688,-66.15173000
2.71606445,-65.78326000
2.74658203,-64.80411000
2.77709961,-64.07973000
2.80761719,-63.74577000
2.83813477,-63.61311000
2.86865234,-63.53791000
2.89916992,-63.20395000
2.92968750,-62.18155000
2.96020508,-61.04060000
2.99072266,-60.88247000
3.02124023,-62.03318000
3.05175781,-63.52326000
3.08227539,-63.96668000
3.11279297,-64.19485000
3.14331055,-65.29018000
3.17382813,-66.23364000
3.20434570,-65.15366000
3.23486328,-63.58788000
3.26538086,-62.67402000
3.29589844,-62.31248000
3.32641602,-62.42408000
3.35693359,-62.88712000
3.38745117,-63.33868000
3.41796875,-63.67039000
3.44848633,-63.93459000
3.47900391,-63.73127000
3.50952148,-62.91040000
3.54003906,-61.99918000
3.57055664,-61.31593000
3.60107422,-60.88216000
3.63159180,-60.77176000
3.66210938,-60.96300000
3.69262695,-61.13170000
3.72314453,-60.94881000
3.75366211,-60.48835000
3.78417969,-60.02505000
3.81469727,-59.68052000
3.84521484,-59.43983000
3.87573242,-59.27890000
3.90625000,-59.15681000
3.93676758,-59.04184000
3.96728516,-58.96479000
3.99780273,-59.00414000
4.02832031,-59.26797000
4.05883789,-59.74577000
4.08935547,-60.04331000
4.11987305,-59.75666000
4.15039063,-59.35706000
4.18090820,-59.46943000
4.21142578,-59.93808000
4.24194336,-60.15629000
4.27246094,-59.92595000
4.30297852,-59.51294000
4.33349609,-59.21833000
4.36401367,-59.33666000
4.39453125,-60.14831000
4.42504883,-61.68027000
4.45556641,-63.41401000
4.48608398,-64.38873000
4.51660156,-64.37012000
4.54711914,-64.04105000
4.57763672,-63.77355000
4.60815430,-63.51373000
4.63867188,-63.37015000
4.66918945,-63.61404000
4.69970703,-64.13663000
4.73022461,-64.36977000
4.76074219,-63.94168000
4.79125977,-63.13996000
4.82177734,-62.51875000
4.85229492,-62.45839000
4.88281250,-62.93980000
4.91333008,-63.52121000
4.94384766,-63.84649000
4.97436523,-64.07079000
5.00488281,-64.25510000
5.03540039,-64.19302000
5.06591797,-64.04750000
5.09643555,-64.39920000
5.12695313,-65.49078000
5.15747070,-66.37572000
5.18798828,-66.28668000
5.21850586,-66.38898000
5.24902344,-67.23956000
5.27954102,-68.34996000
5.31005859,-69.22621000
5.34057617,-69.85812000
5.37109375,-70.22169000
5.40161133,-70.43088000
5.43212891,-71.54443000
5.46264648,-74.02805000
5.49316406,-74.24475000
5.52368164,-71.14264000
5.55419922,-68.42660000
5.58471680,-66.71353000
5.61523438,-65.87510000
5.64575195,-65.47976000
5.67626953,-64.86470000
5.70678711,-63.53921000
5.73730469,-61.72903000
5.76782227,-60.08019000
5.79833984,-58.98290000
5.82885742,-58.47112000
5.85937500,-58.42228000
5.88989258,-58.64034000
5.92041016,-58.85236000
5.95092773,-58.85265000
5.98144531,-58.65345000
6.01196289,-58.38144000
6.04248047,-58.16099000
6.07299805,-58.19125000
6.10351563,-58.69764000
6.13403320,-59.64492000
6.16455078,-60.62120000
6.19506836,-61.26570000
6.22558594,-61.64833000
6.25610352,-61.95059000
6.28662109,-62.24384000
6.31713867,-62.55580000
6.34765625,-63.00240000
6.37817383,-63.74342000
6.40869141,-64.93763000
6.43920898,-66.76980000
6.46972656,-69.05215000
6.50024414,-70.80555000
6.53076172,-71.14713000
6.56127930,-70.50267000
6.59179688,-69.73619000
6.62231445,-69.64707000
6.65283203,-70.88187000
6.68334961,-73.41523000
6.71386719,-76.08964000
6.74438477,-77.28078000
6.77490234,-77.13095000
6.80541992,-77.02616000
6.83593750,-77.36671000
6.86645508,-77.60417000
6.89697266,-77.75666000
6.92749023,-78.03224000
6.95800781,-77.61646000
6.98852539,-76.56393000
7.01904297,-75.97495000
7.04956055,-76.51032000
7.08007813,-77.08118000
7.11059570,-76.62982000
7.14111328,-77.06740000
7.17163086,-79.78220000
7.20214844,-85.01143000
7.23266602,-85.27554000
7.26318359,-80.49149000
7.29370117,-77.11188000
7.32421875,-75.26426000
7.35473633,-75.23932000
7.38525391,-77.48000000
7.41577148,-81.32751000
7.44628906,-81.68196000
7.47680664,-81.09009000
7.50732422,-82.60513000
7.53784180,-83.69450000
7.56835938,-82.38649000
7.59887695,-80.59025000
7.62939453,-78.86651000
7.65991211,-77.82723000
7.69042969,-78.43561000
7.72094727,-80.88724000
7.75146484,-82.53783000
7.78198242,-81.22136000
7.81250000,-80.08739000
7.84301758,-79.71162000
7.87353516,-79.62106000
7.90405273,-79.79697000
7.93457031,-80.23604000
7.96508789,-79.19323000
7.99560547,-76.83619000
8.02612305,-75.91426000
8.05664063,-77.23008000
8.08715820,-80.14024000
8.11767578,-81.97432000
8.14819336,-81.92584000
8.17871094,-82.02963000
8.20922852,-82.21245000
8.23974609,-81.64147000
8.27026367,-81.22710000
8.30078125,-82.35001000
8.33129883,-84.72900000
8.36181641,-85.21178000
8.39233398,-83.83834000
8.42285156,-82.71611000
8.45336914,-81.94614000
8.48388672,-81.71169000
8.51440430,-82.48116000
8.54492188,-82.77449000
8.57543945,-81.45662000
8.60595703,-81.58379000
8.63647461,-84.62250000
8.66699219,-86.22101000
8.69750977,-82.93593000
8.72802734,-82.77740000
8.75854492,-86.68625000
8.78906250,-90.78025000
8.81958008,-87.38858000
8.85009766,-85.12875000
8.88061523,-84.98322000
8.91113281,-87.18124000
8.94165039,-91.16719000
8.97216797,-94.11739000
9.00268555,-90.93269000
9.03320313,-86.87142000
9.06372070,-86.01052000
9.09423828,-88.78143000
9.12475586,-94.37451000
9.15527344,-97.66307000
9.18579102,-97.45160000
9.21630859,-90.25352000
9.24682617,-86.85983000
9.27734375,-86.59525000
9.30786133,-86.79002000
9.33837891,-86.89705000
9.36889648,-91.77129000
9.39941406,-94.43060000
9.42993164,-86.74705000
9.46044922,-85.87564000
9.49096680,-88.48797000
9.52148438,-90.67265000
9.55200195,-87.88037000
9.58251953,-86.88040000
9.61303711,-89.14326000
9.64355469,-96.58829000
9.67407227,-96.93347000
9.70458984,-86.20778000
9.73510742,-82.53463000
9.76562500,-81.80924000
9.79614258,-82.18428000
9.82666016,-82.00039000
9.85717773,-81.84283000
9.88769531,-81.78078000
9.91821289,-80.88914000
9.94873047,-80.70895000
9.97924805,-82.86668000
10.00976563,-87.44076000
10.04028320,-88.00821000
10.07080078,-85.83474000
10.10131836,-84.26944000
10.13183594,-81.98219000
10.16235352,-79.55637000
10.19287109,-78.46819000
10.22338867,-79.41768000
10.25390625,-81.27277000
10.28442383,-82.57072000
10.31494141,-85.28458000
10.34545898,-89.23749000
10.37597656,-86.42793000
10.40649414,-80.84050000
10.43701172,-77.66763000
10.46752930,-76.47099000
10.49804688,-76.46270000
10.52856445,-77.81834000
10.55908203,-80.92612000
10.58959961,-81.64024000
10.62011719,-78.76820000
10.65063477,-77.18772000
10.68115234,-76.79900000
10.71166992,-76.76221000
10.74218750,-76.45181000
10.77270508,-76.11383000
10.80322266,-76.86675000
10.83374023,-79.87317000
10.86425781,-85.39773000
10.89477539,-88.25215000
10.92529297,-90.58983000
10.95581055,-97.33632000
10.98632813,-105.31790000
11.01684570,-98.22821000
11.04736328,-90.28906000
11.07788086,-90.50745000
11.10839844,-102.47130000
11.13891602,-89.43870000
11.16943359,-86.28555000
11.19995117,-88.62080000
11.23046875,-89.28738000
11.26098633,-86.83099000
11.29150391,-86.72461000
11.32202148,-85.70930000
11.35253906,-82.07005000
11.38305664,-80.22113000
11.41357422,-80.29056000
11.44409180,-79.28232000
11.47460938,-76.75856000
11.50512695,-74.66985000
11.53564453,-73.58140000
11.56616211,-74.16759000
11.59667969,-77.69956000
11.62719727,-88.82484000
11.65771484,-82.65939000
11.68823242,-76.21574000
11.71875000,-73.27538000
11.74926758,-72.14726000
11.77978516,-72.27235000
11.81030273,-72.77011000
11.84082031,-73.70271000
11.87133789,-76.27415000
11.90185547,-81.30128000
11.93237305,-89.69346000
11.96289063,-113.05750000
11.99340820,-94.16139000
12.02392578,-91.14583000
12.05444336,-84.20551000
12.08496094,-80.31097000
12.11547852,-79.41966000
12.14599609,-79.64699000
12.17651367,-79.03490000
12.20703125,-78.69180000
12.23754883,-81.08326000
12.26806641,-90.51545000
12.29858398,-90.48103000
12.32910156,-85.66917000
12.35961914,-86.28499000
12.39013672,-86.64491000
12.42065430,-84.96324000
12.45117188,-82.78527000
12.48168945,-83.83675000
12.51220703,-89.55611000
12.54272461,-88.55975000
12.57324219,-85.36578000
12.60375977,-86.38411000
12.63427734,-84.57340000
12.66479492,-79.03627000
12.69531250,-77.07615000
12.72583008,-76.96576000
12.75634766,-75.26195000
12.78686523,-72.94749000
12.81738281,-71.81036000
12.84790039,-71.94035000
12.87841797,-73.28604000
12.90893555,-75.76010000
12.93945313,-78.23753000
12.96997070,-78.93047000
13.00048828,-79.34255000
13.03100586,-81.55124000
13.06152344,-87.16451000
13.09204102,-102.13490000
13.12255859,-90.10049000
13.15307617,-88.91267000
13.18359375,-87.06067000
13.21411133,-82.10413000
13.24462891,-81.70508000
13.27514648,-87.01318000
13.30566406,-84.38171000
13.33618164,-79.56583000
13.36669922,-77.26833000
13.39721680,-76.16907000
13.42773438,-78.42480000
13.45825195,-89.46367000
13.48876953,-73.87674000
13.51928711,-67.84550000
13.54980469,-65.68168000
13.58032227,-66.47311000
13.61083984,-70.35704000
13.64135742,-78.68213000
13.67187500,-92.05313000
13.70239258,-81.08933000
13.73291016,-77.77042000
13.76342773,-78.03157000
13.79394531,-83.02177000
13.82446289,-82.58678000
13.85498047,-78.19528000
13.88549805,-77.32738000
13.91601563,-77.81554000
13.94653320,-78.09111000
13.97705078,-77.46896000
14.00756836,-76.47274000
14.03808594,-76.14955000
14.06860352,-76.77790000
14.09912109,-77.93415000
14.12963867,-79.25988000
14.16015625,-80.49752000
14.19067383,-80.42446000
14.22119141,-78.78211000
14.25170898,-77.45749000
14.28222656,-77.78947000
14.31274414,-80.99155000
14.34326172,-89.99886000
14.37377930,-89.86710000
14.40429688,-86.88785000
14.43481445,-88.56886000
14.46533203,-90.77963000
14.49584961,-91.61952000
14.52636719,-93.59018000
14.55688477,-93.40796000
14.58740234,-89.80176000
14.61791992,-88.51457000
14.64843750,-87.02061000
14.67895508,-85.30026000
14.70947266,-86.46272000
14.73999023,-93.51285000
14.77050781,-94.25813000
14.80102539,-88.38715000
14.83154297,-83.70358000
14.86206055,-80.02537000
14.89257813,-79.21502000
14.92309570,-81.11489000
14.95361328,-83.68864000
14.98413086,-82.70320000
15.01464844,-80.70339000
15.04516602,-80.01563000
15.07568359,-80.83202000
15.10620117,-83.21671000
15.13671875,-85.79152000
15.16723633,-83.49200000
15.19775391,-77.73192000
15.22827148,-74.43523000
15.25878906,-74.78000000
15.28930664,-79.81839000
15.31982422,-108.96550000
15.35034180,-83.58452000
15.38085938,-80.92859000
15.41137695,-81.86645000
15.44189453,-84.44197000
15.47241211,-86.47004000
15.50292969,-86.17253000
15.53344727,-84.54536000
15.56396484,-82.67307000
15.59448242,-81.95168000
15.62500000,-83.06080000
15.65551758,-85.34763000
15.68603516,-87.23603000
15.71655273,-88.23051000
15.74707031,-89.41570000
15.77758789,-90.73811000
15.80810547,-89.38765000
15.83862305,-87.04199000
15.86914063,-87.36958000
15.89965820,-93.46556000
15.93017578,-96.94740000
15.96069336,-86.01948000
15.99121094,-82.50947000
16.02172852,-81.44202000
16.05224609,-81.67488000
16.08276367,-83.01935000
16.11328125,-86.29700000
16.14379883,-92.44868000
16.17431641,-90.40610000
16.20483398,-86.92842000
16.23535156,-86.41456000
16.26586914,-87.50467000
16.29638672,-89.39665000
16.32690430,-90.74577000
16.35742188,-89.91959000
16.38793945,-89.08421000
16.41845703,-90.10753000
16.44897461,-91.18839000
16.47949219,-89.41154000
16.51000977,-87.91840000
16.54052734,-87.86004000
16.57104492,-88.78233000
16.60156250,-88.68896000
16.63208008,-86.20712000
16.66259766,-83.99353000
16.69311523,-83.33321000
16.72363281,-84.46104000
16.75415039,-86.55979000
16.78466797,-85.26486000
16.81518555,-82.59556000
16.84570313,-81.98109000
16.87622070,-83.35593000
16.90673828,-85.50027000
16.93725586,-87.30849000
16.96777344,-89.40002000
16.99829102,-91.85278000
17.02880859,-93.93263000
17.05932617,-97.40836000
17.08984375,-101.86160000
17.12036133,-93.19557000
17.15087891,-87.55708000
17.18139648,-84.93280000
17.21191406,-85.04013000
17.24243164,-88.14742000
17.27294922,-95.04456000
17.30346680,-97.52393000
17.33398438,-95.10624000
17.36450195,-96.52228000
17.39501953,-98.71181000
17.42553711,-97.15811000
17.45605469,-95.78659000
17.48657227,-95.24516000
17.51708984,-91.91049000
17.54760742,-88.97781000
17.57812500,-88.64524000
17.60864258,-89.49413000
17.63916016,-88.27237000
17.66967773,-85.72114000
17.70019531,-83.24736000
17.73071289,-83.05268000
17.76123047,-88.19595000
17.79174805,-98.63118000
17.82226563,-86.20541000
17.85278320,-84.97917000
17.88330078,-87.06331000
17.91381836,-90.41982000
17.94433594,-92.87876000
17.97485352,-90.97926000
18.00537109,-87.89331000
18.03588867,-86.56173000
18.06640625,-87.28199000
18.09692383,-89.88708000
18.12744141,-92.23258000
18.15795898,-91.61197000
18.18847656,-91.30417000
18.21899414,-91.21085000
18.24951172,-90.89779000
18.28002930,-92.75711000
18.31054688,-99.50637000
18.34106445,-111.51130000
18.37158203,-100.75400000
18.40209961,-98.27782000
18.43261719,-95.56500000
18.46313477,-92.91965000
18.49365234,-91.54572000
18.52416992,-91.25371000
18.55468750,-92.01844000
18.58520508,-94.12846000
18.61572266,-97.20137000
18.64624023,-101.77260000
18.67675781,-132.69790000
18.70727539,-99.89154000
18.73779297,-95.58979000
18.76831055,-96.03794000
18.79882813,-100.92680000
18.82934570,-116.72100000
18.85986328,-106.65550000
18.89038086,-103.23410000
18.92089844,-101.20000000
18.95141602,-99.39078000
18.98193359,-99.70150000
19.01245117,-101.83790000
19.04296875,-105.59980000
19.07348633,-115.93080000
19.10400391,-104.12680000
19.13452148,-101.01310000
19.16503906,-102.14100000
19.19555664,-101.90800000
19.22607422,-98.43881000
19.25659180,-97.79088000
19.28710938,-101.40650000
19.31762695,-108.02280000
19.34814453,-102.10490000
19.37866211,-99.49352000
19.40917969,-99.59798000
19.43969727,-100.92590000
19.47021484,-102.32370000
19.50073242,-102.48550000
19.53125000,-101.74500000
19.56176758,-100.81070000
19.59228516,-99.10987000
19.62280273,-97.63567000
19.65332031,-97.77206000
19.68383789,-99.44241000
19.71435547,-99.43824000
19.74487305,-98.26484000
19.77539063,-98.10808000
19.80590820,-97.32377000
19.83642578,-95.77538000
19.86694336,-95.30281000
19.89746094,-98.41377000
19.92797852,-99.80442000
19.95849609,-91.73880000
19.98901367,-89.11078000
20.01953125,-90.78606000
20.05004883,-98.47578000
20.08056641,-102.56690000
20.11108398,-96.32553000
20.14160156,-95.60481000
20.17211914,-94.83006000
20.20263672,-93.05266000
20.23315430,-92.21425000
20.26367188,-93.60570000
20.29418945,-98.99304000
20.32470703,-102.79020000
20.35522461,-98.05070000
20.38574219,-95.16288000
20.41625977,-91.51932000
20.44677734,-89.71179000
20.47729492,-90.75517000
20.50781250,-95.39867000
20.53833008,-105.50070000
20.56884766,-101.68560000
20.59936523,-95.82713000
20.62988281,-93.42968000
20.66040039,-94.27120000
20.69091797,-98.41908000
20.72143555,-94.79832000
20.75195313,-90.73562000
20.78247070,-91.82565000
20.81298828,-102.30300000
20.84350586,-96.12034000
20.87402344,-91.20126000
20.90454102,-90.64518000
20.93505859,-92.95445000
20.96557617,-102.95040000
20.99609375,-95.64041000
21.02661133,-90.65240000
21.05712891,-91.16431000
21.08764648,-97.66911000
21.11816406,-102.72470000
21.14868164,-94.38069000
21.17919922,-93.67142000
21.20971680,-95.85881000
21.24023438,-103.75110000
21.27075195,-99.27103000
21.30126953,-91.87130000
21.33178711,-90.88436000
21.36230469,-93.83855000
21.39282227,-100.10900000
21.42333984,-104.64430000
21.45385742,-96.41040000
21.48437500,-93.10139000
21.51489258,-92.59686000
21.54541016,-90.69225000
21.57592773,-89.08629000
21.60644531,-90.36391000
21.63696289,-95.56786000
21.66748047,-107.16360000
21.69799805,-109.80140000
21.72851563,-104.22970000
21.75903320,-94.60464000
21.78955078,-91.37209000
21.82006836,-91.63054000
21.85058594,-94.28863000
21.88110352,-97.51716000
21.91162109,-96.93223000
21.94213867,-95.38967000
21.97265625,-95.13851000
22.00317383,-94.91322000
22.03369141,-93.41553000
22.06420898,-91.20607000
22.09472656,-90.13139000
22.12524414,-90.95596000
22.15576172,-93.60674000
22.18627930,-96.94518000
22.21679688,-95.04754000
22.24731445,-92.00673000
22.27783203,-91.21049000
22.30834961,-91.86374000
22.33886719,-92.10782000
22.36938477,-89.41734000
22.39990234,-86.33105000
22.43041992,-84.34958000
22.46093750,-83.32127000
22.49145508,-83.24622000
22.52197266,-84.34259000
22.55249023,-87.00481000
22.58300781,-91.14915000
22.61352539,-92.10275000
22.64404297,-90.29629000
22.67456055,-89.97659000
22.70507813,-90.83287000
22.73559570,-92.36563000
22.76611328,-92.68304000
22.79663086,-89.33425000
22.82714844,-86.06030000
22.85766602,-84.84340000
22.88818359,-85.81145000
22.91870117,-88.87880000
22.94921875,-94.30435000
22.97973633,-101.98890000
23.01025391,-103.96050000
23.04077148,-101.20940000
23.07128906,-98.92036000
23.10180664,-98.29587000
23.13232422,-96.83872000
23.16284180,-93.88768000
23.19335938,-91.95897000
23.22387695,-92.28988000
23.25439453,-95.40744000
23.28491211,-103.36950000
23.31542969,-107.30140000
23.34594727,-103.23620000
23.37646484,-108.72230000
23.40698242,-98.50010000
23.43750000,-94.56184000
23.46801758,-95.63132000
23.49853516,-96.08570000
23.52905273,-93.58120000
23.55957031,-94.01859000
23.59008789,-96.42125000
23.62060547,-96.82565000
23.65112305,-92.75120000
23.68164063,-89.13868000
23.71215820,-87.78843000
23.74267578,-88.29660000
23.77319336,-90.13678000
23.80371094,-92.68719000
23.83422852,-95.10646000
23.86474609,-96.92229000
23.89526367,-99.31549000
23.92578125,-106.55300000
23.95629883,-109.09380000
23.98681641,-100.39790000
24.01733398,-99.95087000
24.04785156,-102.61790000
24.07836914,-103.09070000
24.10888672,-104.19600000
24.13940430,-100.70460000
24.16992188,-96.09584000
24.20043945,-93.34917000
24.23095703,-90.80963000
24.26147461,-89.65054000
24.29199219,-90.49521000
24.32250977,-92.70776000
24.35302734,-95.87098000
24.38354492,-100.13360000
24.41406250,-98.55412000
24.44458008,-94.16546000
24.47509766,-91.42883000
24.50561523,-90.89076000
24.53613281,-93.86506000
24.56665039,-103.76590000
24.59716797,-99.33247000
24.62768555,-96.43129000
24.65820313,-94.49237000
24.68872070,-90.76514000
24.71923828,-88.21571000
24.74975586,-86.65891000
24.78027344,-85.06227000
24.81079102,-83.59277000
24.84130859,-83.48599000
24.87182617,-85.89219000
24.90234375,-91.66538000
24.93286133,-94.77220000
24.96337891,-92.71280000
24.99389648,-92.98238000
25.02441406,-95.06728000
25.05493164,-98.66382000
25.08544922,-106.35730000
25.11596680,-100.13740000
25.14648438,-91.11047000
25.17700195,-87.81426000
25.20751953,-87.75655000
25.23803711,-90.27217000
25.26855469,-95.30110000
25.29907227,-104.07660000
25.32958984,-104.69200000
25.36010742,-99.39651000
25.39062500,-97.73344000
25.42114258,-98.67714000
25.45166016,-99.13662000
25.48217773,-94.81380000
25.51269531,-92.46049000
25.54321289,-92.48170000
25.57373047,-93.63530000
25.60424805,-95.45768000
25.63476563,-96.29718000
25.66528320,-93.94314000
25.69580078,-91.94447000
25.72631836,-93.39903000
25.75683594,-97.83326000
25.78735352,-95.70744000
25.81787109,-95.27894000
25.84838867,-100.01150000
25.87890625,-97.19247000
25.90942383,-92.56027000
25.93994141,-91.30548000
25.97045898,-92.12491000
26.00097656,-93.42059000
26.03149414,-92.33334000
26.06201172,-90.39403000
26.09252930,-89.59000000
26.12304688,-90.08919000
26.15356445,-91.25073000
26.18408203,-91.20075000
26.21459961,-90.06564000
26.24511719,-89.67918000
26.27563477,-89.96751000
26.30615234,-89.70718000
26.33666992,-89.56883000
26.36718750,-91.21555000
26.39770508,-95.39432000
26.42822266,-98.69447000
26.45874023,-93.79527000
26.48925781,-90.92096000
26.51977539,-92.14011000
26.55029297,-99.76080000
26.58081055,-96.89681000
26.61132813,-91.56083000
26.64184570,-89.46815000
26.67236328,-88.14407000
26.70288086,-88.01296000
26.73339844,-89.33572000
26.76391602,-90.45535000
26.79443359,-89.46938000
26.82495117,-87.79945000
26.85546875,-87.04080000
26.88598633,-88.20403000
26.91650391,-92.91484000
26.94702148,-106.55030000
26.97753906,-94.42909000
27.00805664,-91.58006000
27.03857422,-92.71234000
27.06909180,-96.44937000
27.09960938,-99.84348000
27.13012695,-95.06523000
27.16064453,-90.06547000
27.19116211,-87.55093000
27.22167969,-87.13042000
27.25219727,-88.53477000
27.28271484,-91.99981000
27.31323242,-98.35106000
27.34375000,-102.78340000
27.37426758,-99.84097000
27.40478516,-99.61549000
27.43530273,-104.65820000
27.46582031,-105.50030000
27.49633789,-94.52864000
27.52685547,-90.91598000
27.55737305,-90.49815000
27.58789063,-91.77718000
27.61840820,-93.25057000
27.64892578,-94.37847000
27.67944336,-95.61835000
27.70996094,-96.57491000
27.74047852,-95.55024000
27.77099609,-94.37837000
27.80151367,-95.59299000
27.83203125,-97.90779000
27.86254883,-96.30474000
27.89306641,-95.96763000
27.92358398,-97.37099000
27.95410156,-97.75986000
27.98461914,-99.41327000
28.01513672,-97.47966000
28.04565430,-92.08367000
28.07617188,-88.89317000
28.10668945,-87.61799000
28.13720703,-88.18654000
28.16772461,-91.00406000
28.19824219,-95.80254000
28.22875977,-95.59891000
28.25927734,-92.83316000
28.28979492,-91.58994000
28.32031250,-91.33688000
28.35083008,-91.23196000
28.38134766,-90.00233000
28.41186523,-88.67847000
28.44238281,-89.22370000
28.47290039,-92.95943000
28.50341797,-104.63720000
28.53393555,-100.03760000
28.56445313,-95.69518000
28.59497070,-96.87517000
28.62548828,-101.42770000
28.65600586,-105.59340000
28.68652344,-102.56300000
28.71704102,-100.21580000
28.74755859,-96.99444000
28.77807617,-93.95491000
28.80859375,-92.74294000
28.83911133,-92.16321000
28.86962891,-91.99171000
28.90014648,-93.82445000
28.93066406,-99.70249000
28.96118164,-97.79979000
28.99169922,-93.23346000
29.02221680,-92.89793000
29.05273438,-96.63333000
29.08325195,-104.51660000
29.11376953,-99.46514000
29.14428711,-99.46263000
29.17480469,-107.76040000
29.20532227,-111.03200000
29.23583984,-102.93710000
29.26635742,-97.50262000
29.29687500,-93.20097000
29.32739258,-91.09226000
29.35791016,-91.48370000
29.38842773,-94.73583000
29.41894531,-102.04950000
29.44946289,-104.57700000
29.47998047,-100.26730000
29.51049805,-98.78371000
29.54101563,-100.18000000
29.57153320,-104.40720000
29.60205078,-98.30606000
29.63256836,-95.02758000
29.66308594,-94.15910000
29.69360352,-94.20361000
29.72412109,-93.78922000
29.75463867,-92.66795000
29.78515625,-93.09895000
29.81567383,-95.78899000
29.84619141,-99.63580000
29.87670898,-101.18580000
29.90722656,-99.74547000
29.93774414,-100.62420000
29.96826172,-108.49880000
29.99877930,-103.90270000
30.02929688,-97.37739000
30.05981445,-95.34398000
30.09033203,-96.38733000
30.12084961,-98.72444000
30.15136719,-95.10110000
30.18188477,-91.05156000
30.21240234,-89.14723000
30.24291992,-88.88960000
30.27343750,-89.50539000
30.30395508,-89.97855000
30.33447266,-90.83755000
30.36499023,-93.89633000
30.39550781,-98.30720000
30.42602539,-98.35082000
30.45654297,-96.59825000
30.48706055,-95.61737000
30.51757813,-95.79630000
30.54809570,-96.19713000
30.57861328,-95.16451000
30.60913086,-92.36668000
30.63964844,-89.88957000
30.67016602,-88.93329000
30.70068359,-90.22033000
30.73120117,-95.03261000
30.76171875,-102.03710000
30.79223633,-97.54936000
30.82275391,-96.52858000
30.85327148,-97.50622000
30.88378906,-96.83452000
30.91430664,-96.79991000
30.94482422,-100.23170000
30.97534180,-109.95200000
31.00585938,-93.11427000
31.03637695,-88.00389000
31.06689453,-86.47335000
31.09741211,-86.99345000
31.12792969,-88.37697000
31.15844727,-89.46153000
31.18896484,-90.04543000
31.21948242,-90.82741000
31.25000000,-92.47771000
31.28051758,-94.33842000
31.31103516,-94.25893000
31.34155273,-93.32513000
31.37207031,-93.09789000
31.40258789,-94.26021000
31.43310547,-97.84211000
31.46362305,-100.81080000
31.49414063,-96.28200000
31.52465820,-93.95698000
31.55517578,-93.73386000
31.58569336,-95.33879000
31.61621094,-100.91970000
31.64672852,-106.54890000
31.67724609,-96.78426000
31.70776367,-92.55524000
31.73828125,-89.96887000
31.76879883,-88.91853000
31.79931641,-90.61629000
31.82983398,-100.74780000
31.86035156,-93.80695000
31.89086914,-86.73282000
31.92138672,-85.40421000
31.95190430,-87.91106000
31.98242188,-95.14777000
32.01293945,-101.51320000
32.04345703,-96.07881000
32.07397461,-92.90541000
32.10449219,-90.19120000
32.13500977,-88.51448000
32.16552734,-88.33682000
32.19604492,-90.22522000
32.22656250,-95.28421000
32.25708008,-105.29830000
32.28759766,-101.99090000
32.31811523,-102.21520000
32.34863281,-108.04220000
32.37915039,-98.86974000
32.40966797,-93.12119000
32.44018555,-89.96611000
32.47070313,-88.71041000
32.50122070,-89.13449000
32.53173828,-90.08096000
32.56225586,-90.09978000
32.59277344,-90.18864000
32.62329102,-91.11615000
32.65380859,-93.21385000
32.68432617,-97.67772000
32.71484375,-105.13310000
32.74536133,-110.82190000
32.77587891,-115.21080000
32.80639648,-114.89080000
32.83691406,-99.90276000
32.86743164,-93.25672000
32.89794922,-89.62512000
32.92846680,-88.19855000
32.95898438,-89.18121000
32.98950195,-92.77319000
33.02001953,-97.93253000
33.05053711,-99.92033000
33.08105469,-97.38280000
33.11157227,-94.13029000
33.14208984,-93.08933000
33.17260742,-92.85936000
33.20312500,-91.90993000
33.23364258,-92.22949000
33.26416016,-95.20377000
33.29467773,-100.40220000
33.32519531,-101.89560000
33.35571289,-97.25331000
33.38623047,-93.30245000
33.41674805,-91.68546000
33.44726563,-91.89233000
33.47778320,-93.55198000
33.50830078,-96.21815000
33.53881836,-98.96992000
33.56933594,-100.50520000
33.59985352,-99.50964000
33.63037109,-96.72758000
33.66088867,-93.77803000
33.69140625,-92.23779000
33.72192383,-92.38155000
33.75244141,-93.44001000
33.78295898,-92.12747000
33.81347656,-90.02423000
33.84399414,-89.70757000
33.87451172,-91.13091000
33.90502930,-94.21459000
33.93554688,-99.20673000
33.96606445,-100.88280000
33.99658203,-98.24086000
34.02709961,-99.73031000
34.05761719,-102.41550000
34.08813477,-100.39660000
34.11865234,-101.73170000
34.14916992,-101.15880000
34.17968750,-97.87260000
34.21020508,-96.00934000
34.24072266,-95.83167000
34.27124023,-97.49280000
34.30175781,-102.80490000
34.33227539,-107.34300000
34.36279297,-104.09220000
34.39331055,-101.31640000
34.42382813,-98.88074000
34.45434570,-98.48955000
34.48486328,-99.70908000
34.51538086,-101.10810000
34.54589844,-101.13640000
34.57641602,-100.93680000
34.60693359,-102.04280000
34.63745117,-102.69270000
34.66796875,-100.35520000
34.69848633,-98.30939000
34.72900391,-100.35110000
34.75952148,-105.95180000
34.79003906,-102.63940000
34.82055664,-102.14300000
34.85107422,-106.22000000
34.88159180,-100.83290000
34.91210938,-96.95023000
34.94262695,-96.40278000
34.97314453,-96.15559000
35.00366211,-95.10258000
35.03417969,-95.80148000
35.06469727,-100.08120000
35.09521484,-100.10030000
35.12573242,-96.45013000
35.15625000,-94.40391000
35.18676758,-94.40553000
35.21728516,-98.27877000
35.24780273,-113.14720000
35.27832031,-103.53530000
35.30883789,-99.55254000
35.33935547,-100.47590000
35.36987305,-103.47440000
35.40039063,-104.72980000
35.43090820,-102.93450000
35.46142578,-100.17630000
35.49194336,-97.92779000
35.52246094,-95.27335000
35.55297852,-93.71181000
35.58349609,-93.25875000
35.61401367,-93.41887000
35.64453125,-94.82492000
35.67504883,-97.84836000
35.70556641,-100.32450000
35.73608398,-103.84620000
35.76660156,-112.26080000
35.79711914,-104.99950000
35.82763672,-102.46560000
35.85815430,-101.70080000
35.88867188,-104.78150000
35.91918945,-120.02720000
35.94970703,-111.38690000
35.98022461,-107.49880000
36.01074219,-100.75310000
36.04125977,-97.46964000
36.07177734,-95.98774000
36.10229492,-95.73963000
36.13281250,-96.64449000
36.16333008,-97.19570000
36.19384766,-97.10358000
36.22436523,-96.17433000
36.25488281,-95.46861000
36.28540039,-99.59034000
36.31591797,-101.06650000
36.34643555,-92.36554000
36.37695313,-89.22630000
36.40747070,-88.83142000
36.43798828,-90.50774000
36.46850586,-93.49730000
36.49902344,-95.64380000
36.52954102,-95.76931000
36.56005859,-94.83203000
36.59057617,-92.75436000
36.62109375,-90.22381000
36.65161133,-88.60055000
36.68212891,-88.90540000
36.71264648,-91.57991000
36.74316406,-95.38577000
36.77368164,-95.93445000
36.80419922,-95.11359000
36.83471680,-94.52151000
36.86523438,-93.92445000
36.89575195,-94.71588000
36.92626953,-99.43275000
36.95678711,-108.18290000
36.98730469,-101.03040000
37.01782227,-98.74796000
37.04833984,-98.13676000
37.07885742,-97.66618000
37.10937500,-96.44159000
37.13989258,-95.97935000
37.17041016,-97.70692000
37.20092773,-100.28010000
37.23144531,-99.60313000
37.26196289,-96.61698000
37.29248047,-95.30781000
37.32299805,-96.59953000
37.35351563,-100.02580000
37.38403320,-105.24490000
37.41455078,-104.07790000
37.44506836,-98.98560000
37.47558594,-98.55513000
37.50610352,-103.09710000
37.53662109,-122.28490000
37.56713867,-101.85780000
37.59765625,-97.72193000
37.62817383,-96.89201000
37.65869141,-97.57668000
37.68920898,-98.36964000
37.71972656,-98.62861000
37.75024414,-98.69025000
37.78076172,-99.27163000
37.81127930,-100.73840000
37.84179688,-104.91570000
37.87231445,-112.73020000
37.90283203,-98.91781000
37.93334961,-96.19565000
37.96386719,-99.51939000
37.99438477,-110.17160000
38.02490234,-97.59704000
38.05541992,-93.26007000
38.08593750,-92.03225000
38.11645508,-93.02177000
38.14697266,-94.72922000
38.17749023,-95.08968000
38.20800781,-96.23829000
38.23852539,-101.64270000
38.26904297,-101.91280000
38.29956055,-95.06156000
38.33007813,-95.20781000
38.36059570,-102.16510000
38.39111328,-102.08510000
38.42163086,-98.88139000
38.45214844,-101.47200000
38.48266602,-105.34510000
38.51318359,-97.87852000
38.54370117,-92.43481000
38.57421875,-89.17392000
38.60473633,-88.07510000
38.63525391,-89.80563000
38.66577148,-96.33176000
38.69628906,-100.56560000
38.72680664,-94.80304000
38.75732422,-95.46617000
38.78784180,-100.49970000
38.81835938,-99.59319000
38.84887695,-95.91945000
38.87939453,-95.78429000
38.90991211,-97.22419000
38.94042969,-97.12215000
38.97094727,-96.65321000
39.00146484,-96.87737000
39.03198242,-98.04066000
39.06250000,-98.13254000
39.09301758,-92.83830000
39.12353516,-90.34707000
39.15405273,-90.52360000
39.18457031,-91.35810000
39.21508789,-93.32211000
39.24560547,-98.21400000
39.27612305,-107.33840000
39.30664063,-113.60460000
39.33715820,-106.33470000
39.36767578,-99.52221000
39.39819336,-94.53454000
39.42871094,-92.38170000
39.45922852,-92.12587000
39.48974609,-94.04454000
39.52026367,-100.94880000
39.55078125,-95.51838000
39.58129883,-88.12540000
39.61181641,-84.70287000
39.64233398,-83.55733000
39.67285156,-84.44879000
39.70336914,-87.91810000
39.73388672,-94.39375000
39.76440430,-93.87391000
39.79492188,-93.16985000
39.82543945,-98.55804000
39.85595703,-98.27316000
39.88647461,-94.78087000
39.91699219,-97.18925000
39.94750977,-100.03880000
39.97802734,-94.82961000
40.00854492,-91.93121000
40.03906250,-90.83992000
40.06958008,-91.35587000
40.10009766,-93.56530000
40.13061523,-95.92342000
40.16113281,-98.53123000
40.19165039,-101.30700000
40.22216797,-104.97540000
40.25268555,-101.59810000
40.28320313,-94.94791000
40.31372070,-92.81451000
40.34423828,-91.53179000
40.37475586,-91.07246000
40.40527344,-93.48926000
40.43579102,-98.64267000
40.46630859,-94.62878000
40.49682617,-94.83543000
40.52734375,-118.02890000
40.55786133,-91.20021000
40.58837891,-86.16616000
40.61889648,-84.96426000
40.64941406,-85.25216000
40.67993164,-85.24277000
40.71044922,-85.02911000
40.74096680,-85.78102000
40.77148438,-88.98536000
40.80200195,-95.14202000
40.83251953,-87.19772000
40.86303711,-83.05106000
40.89355469,-82.53345000
40.92407227,-84.76099000
40.95458984,-88.67326000
40.98510742,-89.65962000
41.01562500,-88.97781000
41.04614258,-90.64477000
41.07666016,-95.30938000
41.10717773,-100.66890000
41.13769531,-96.99240000
41.16821289,-95.45121000
41.19873047,-98.15716000
41.22924805,-100.90890000
41.25976563,-96.63306000
41.29028320,-92.46037000
41.32080078,-92.18472000
41.35131836,-94.00143000
41.38183594,-91.96560000
41.41235352,-89.23964000
41.44287109,-87.31976000
41.47338867,-86.53850000
41.50390625,-86.22153000
41.53442383,-85.86440000
41.56494141,-86.44377000
41.59545898,-89.08089000
41.62597656,-93.59267000
41.65649414,-92.56389000
41.68701172,-89.12360000
41.71752930,-86.92702000
41.74804688,-85.42423000
41.77856445,-84.38332000
41.80908203,-83.86591000
41.83959961,-84.41542000
41.87011719,-87.00342000
41.90063477,-92.77683000
41.93115234,-100.44940000
41.96166992,-100.76180000
41.99218750,-95.98389000
42.02270508,-90.40964000
42.05322266,-86.95512000
42.08374023,-85.52299000
42.11425781,-86.22405000
42.14477539,-90.02794000
42.17529297,-103.68430000
42.20581055,-93.69801000
42.23632813,-86.88350000
42.26684570,-84.44726000
42.29736328,-84.86064000
42.32788086,-87.85011000
42.35839844,-93.73298000
42.38891602,-100.38610000
42.41943359,-95.88792000
42.44995117,-94.69331000
42.48046875,-95.05569000
42.51098633,-90.33654000
42.54150391,-87.90471000
42.57202148,-87.91564000
42.60253906,-87.98604000
42.63305664,-87.61352000
42.66357422,-86.85784000
42.69409180,-86.14218000
42.72460938,-86.57391000
42.75512695,-87.99554000
42.78564453,-87.56979000
42.81616211,-85.15839000
42.84667969,-84.33092000
42.87719727,-87.63144000
42.90771484,-114.90250000
42.93823242,-86.34957000
42.96875000,-82.61138000
42.99926758,-82.68033000
43.02978516,-84.78616000
43.06030273,-88.70161000
43.09082031,-96.46447000
43.12133789,-109.43060000
43.15185547,-93.71078000
43.18237305,-88.07175000
43.21289063,-86.22253000
43.24340820,-87.25799000
43.27392578,-89.81609000
43.30444336,-89.66686000
43.33496094,-86.82892000
43.36547852,-85.59241000
43.39599609,-86.98468000
43.42651367,-90.22790000
43.45703125,-89.53919000
43.48754883,-85.32833000
43.51806641,-82.38544000
43.54858398,-81.83920000
43.57910156,-84.03809000
43.60961914,-89.50729000
43.64013672,-103.40910000
43.67065430,-95.26725000
43.70117188,-91.26243000
43.73168945,-92.66832000
43.76220703,-98.26160000
43.79272461,-98.36732000
43.82324219,-92.27795000
43.85375977,-88.97179000
43.88427734,-88.61870000
43.91479492,-91.04259000
43.94531250,-96.72321000
43.97583008,-107.76570000
44.00634766,-94.24615000
44.03686523,-90.29607000
44.06738281,-90.40358000
44.09790039,-93.80455000
44.12841797,-105.83480000
44.15893555,-95.64378000
44.18945313,-88.88291000
44.21997070,-87.54829000
44.25048828,-90.32407000
44.28100586,-96.07426000
44.31152344,-92.87614000
44.34204102,-88.69556000
44.37255859,-87.15874000
44.40307617,-88.35629000
44.43359375,-92.16943000
44.46411133,-98.51952000
44.49462891,-95.44299000
44.52514648,-91.34766000
44.55566406,-91.01571000
44.58618164,-92.79597000
44.61669922,-94.57279000
44.64721680,-94.44762000
44.67773438,-93.58166000
44.70825195,-93.98384000
44.73876953,-95.87367000
44.76928711,-98.83663000
44.79980469,-109.82040000
44.83032227,-98.92333000
44.86083984,-91.91899000
44.89135742,-89.55032000
44.92187500,-89.26049000
44.95239258,-90.26051000
44.98291016,-92.08430000
45.01342773,-92.13191000
45.04394531,-92.85678000
45.07446289,-96.00941000
45.10498047,-92.68170000
45.13549805,-90.65936000
45.16601563,-91.83580000
45.19653320,-94.67490000
45.22705078,-97.26243000
45.25756836,-97.54013000
45.28808594,-94.26344000
45.31860352,-90.51871000
45.34912109,-88.95183000
45.37963867,-89.91974000
45.41015625,-93.27953000
45.44067383,-98.60542000
45.47119141,-102.78650000
45.50170898,-99.85427000
45.53222656,-99.09113000
45.56274414,-104.64650000
45.59326172,-99.05132000
45.62377930,-93.43696000
45.65429688,-90.29849000
45.68481445,-88.47627000
45.71533203,-89.30011000
45.74584961,-94.69773000
45.77636719,-97.09611000
45.80688477,-90.72297000
45.83740234,-88.85543000
45.86791992,-89.91943000
45.89843750,-94.94698000
45.92895508,-108.30320000
45.95947266,-91.43032000
45.98999023,-86.16885000
46.02050781,-84.45268000
46.05102539,-85.65196000
46.08154297,-89.66835000
46.11206055,-95.26101000
46.14257813,-99.71971000
46.17309570,-104.48400000
46.20361328,-105.11080000
46.23413086,-100.39630000
46.26464844,-96.94962000
46.29516602,-94.95452000
46.32568359,-91.43195000
46.35620117,-89.15678000
46.38671875,-90.35170000
46.41723633,-96.94603000
46.44775391,-101.45750000
46.47827148,-94.91656000
46.50878906,-94.38531000
46.53930664,-96.50893000
46.56982422,-99.81744000
46.60034180,-103.55170000
46.63085938,-107.78620000
46.66137695,-118.56850000
46.69189453,-101.61850000
46.72241211,-98.57586000
46.75292969,-100.12760000
46.78344727,-100.90180000
46.81396484,-94.84015000
46.84448242,-90.83736000
46.87500000,-89.28863000
46.90551758,-89.30579000
46.93603516,-90.36399000
46.96655273,-92.58041000
46.99707031,-95.38214000
47.02758789,-94.49088000
47.05810547,-91.94678000
47.08862305,-91.41757000
47.11914063,-92.36836000
47.14965820,-92.17319000
47.18017578,-91.95690000
47.21069336,-94.81353000
47.24121094,-100.87730000
47.27172852,-95.02351000
47.30224609,-91.65459000
47.33276367,-91.21120000
47.36328125,-91.85118000
47.39379883,-92.47578000
47.42431641,-93.14938000
47.45483398,-94.69023000
47.48535156,-98.92640000
47.51586914,-107.50780000
47.54638672,-97.90189000
47.57690430,-93.05670000
47.60742188,-90.54358000
47.63793945,-89.27654000
47.66845703,-89.28996000
47.69897461,-90.80833000
47.72949219,-93.79459000
47.76000977,-96.73093000
47.79052734,-98.24329000
47.82104492,-104.34720000
47.85156250,-103.85580000
47.88208008,-94.37401000
47.91259766,-92.22501000
47.94311523,-93.90110000
47.97363281,-98.77967000
48.00415039,-103.07690000
48.03466797,-108.20440000
48.06518555,-103.34380000
48.09570313,-96.27853000
48.12622070,-94.71330000
48.15673828,-95.66033000
48.18725586,-97.57600000
48.21777344,-97.22093000
48.24829102,-93.84433000
48.27880859,-92.13161000
48.30932617,-93.02406000
48.33984375,-96.02812000
48.37036133,-100.20450000
48.40087891,-107.13110000
48.43139648,-106.49190000
48.46191406,-107.74850000
48.49243164,-105.41510000
48.52294922,-99.06570000
48.55346680,-96.17065000
48.58398438,-96.54005000
48.61450195,-100.09830000
48.64501953,-96.71990000
48.67553711,-92.45450000
48.70605469,-90.58010000
48.73657227,-91.85696000
48.76708984,-99.94194000
48.79760742,-102.08120000
48.82812500,-94.79709000
48.85864258,-92.94337000
48.88916016,-91.18951000
48.91967773,-90.75848000
48.95019531,-92.71471000
48.98071289,-96.40160000
49.01123047,-98.63079000
49.04174805,-99.19305000
49.07226563,-98.30988000
49.10278320,-95.78072000
49.13330078,-94.75031000
49.16381836,-95.43194000
49.19433594,-94.19666000
49.22485352,-93.68984000
49.25537109,-97.53706000
49.28588867,-107.89050000
49.31640625,-96.61755000
49.34692383,-93.40828000
49.37744141,-95.25847000
49.40795898,-105.89070000
49.43847656,-103.34960000
49.46899414,-100.75700000
49.49951172,-117.06070000
49.53002930,-97.65420000
49.56054688,-91.47655000
49.59106445,-89.33763000
49.62158203,-89.57632000
49.65209961,-91.07327000
49.68261719,-92.66837000
49.71313477,-94.12128000
49.74365234,-95.12946000
49.77416992,-95.84853000
49.80468750,-95.50681000
49.83520508,-94.63464000
49.86572266,-96.47063000
49.89624023,-102.97550000
49.92675781,-107.71980000
49.95727539,-99.07726000
49.98779297,-91.93105000
50.01831055,-88.77644000
