Frequency,Channel A
(MHz),(dBu)

0.00000000,-39.05650000
0.03051758,-39.32444000
0.06103516,-44.10959000
0.09155273,-51.11202000
0.12207031,-53.73975000
0.15258789,-56.08871000
0.18310547,-59.41933000
0.21362305,-61.36906000
0.24414063,-65.76552000
0.27465820,-82.96378000
0.30517578,-65.63527000
0.33569336,-62.07646000
0.36621094,-62.16449000
0.39672852,-65.12362000
0.42724609,-77.29098000
0.45776367,-68.71925000
0.48828125,-63.29391000
0.51879883,-62.63987000
0.54931641,-64.14438000
0.57983398,-69.68147000
0.61035156,-76.77896000
0.64086914,-70.83162000
0.67138672,-75.28368000
0.70190430,-69.86214000
0.73242188,-67.80845000
0.76293945,-71.25388000
0.79345703,-78.90287000
0.82397461,-91.15508000
0.85449219,-73.90611000
0.88500977,-66.47136000
0.91552734,-62.79014000
0.94604492,-62.49343000
0.97656250,-66.57273000
1.00708008,-88.78995000
1.03759766,-69.09158000
1.06811523,-65.04154000
1.09863281,-65.10194000
1.12915039,-69.81202000
1.15966797,-82.18088000
1.19018555,-70.64622000
1.22070313,-68.31731000
1.25122070,-68.72329000
1.28173828,-72.53844000
1.31225586,-79.64387000
1.34277344,-71.68835000
1.37329102,-70.89957000
1.40380859,-77.38657000
1.43432617,-70.86433000
1.46484375,-66.26393000
1.49536133,-65.91711000
1.52587891,-65.88546000
1.55639648,-64.91566000
1.58691406,-66.65002000
1.61743164,-74.52422000
1.64794922,-74.77521000
1.67846680,-69.82577000
1.70898438,-69.90163000
1.73950195,-71.39070000
1.77001953,-70.82149000
1.80053711,-70.11816000
1.83105469,-72.39468000
1.86157227,-75.57944000
1.89208984,-71.80667000
1.92260742,-70.16479000
1.95312500,-69.07170000
1.98364258,-66.44550000
2.01416016,-65.59333000
2.04467773,-68.01028000
2.07519531,-74.22760000
2.10571289,-72.66458000
2.13623047,-69.96814000
2.16674805,-72.86514000
2.19726563,-81.89423000
2.22778320,-72.53639000
2.25830078,-71.47702000
2.28881836,-72.10592000
2.31933594,-68.50340000
2.34985352,-67.86317000
2.38037109,-73.84541000
2.41088867,-77.17783000
2.44140625,-67.67680000
2.47192383,-66.60560000
2.50244141,-69.44839000
2.53295898,-71.20100000
2.56347656,-69.98467000
2.59399414,-71.61284000
2.62451172,-71.37475000
2.65502930,-67.66847000
2.68554688,-66.89355000
2.71606445,-68.77923000
2.74658203,-69.92193000
2.77709961,-68.91389000
2.80761719,-69.69171000
2.83813477,-75.85020000
2.86865234,-75.15450000
2.89916992,-67.07571000
2.92968750,-65.17268000
2.96020508,-67.03535000
2.99072266,-71.38909000
3.02124023,-70.99970000
3.05175781,-68.61246000
3.08227539,-67.65254000
3.11279297,-67.86987000
3.14331055,-69.46722000
3.17382813,-71.23048000
3.20434570,-70.09791000
3.23486328,-68.92623000
3.26538086,-69.02197000
3.29589844,-69.51341000
3.32641602,-71.38688000
3.35693359,-75.52896000
3.38745117,-73.24210000
3.41796875,-69.51318000
3.44848633,-68.47505000
3.47900391,-69.47578000
3.50952148,-71.68164000
3.54003906,-72.05318000
3.57055664,-70.08105000
3.60107422,-70.40063000
3.63159180,-76.84670000
3.66210938,-76.69099000
3.69262695,-69.33696000
3.72314453,-67.39894000
3.75366211,-67.18419000
3.78417969,-67.71574000
3.81469727,-68.91169000
3.84521484,-69.51180000
3.87573242,-69.65962000
3.90625000,-70.78027000
3.93676758,-72.00844000
3.96728516,-71.78477000
3.99780273,-71.27090000
4.02832031,-71.28538000
4.05883789,-71.27190000
4.08935547,-71.27638000
4.11987305,-72.14013000
4.15039063,-74.15035000
4.18090820,-73.51299000
4.21142578,-69.43028000
4.24194336,-67.46474000
4.27246094,-68.46142000
4.30297852,-73.03999000
4.33349609,-74.56544000
4.36401367,-69.01067000
4.39453125,-67.10631000
4.42504883,-68.09746000
4.45556641,-71.12029000
4.48608398,-73.90917000
4.51660156,-72.77085000
4.54711914,-70.47209000
4.57763672,-69.31971000
4.60815430,-69.47585000
4.63867188,-71.63304000
4.66918945,-77.12510000
4.69970703,-77.21091000
4.73022461,-73.41197000
4.76074219,-72.78722000
4.79125977,-73.60351000
4.82177734,-75.03957000
4.85229492,-75.81962000
4.88281250,-74.78774000
4.91333008,-73.89761000
4.94384766,-74.51765000
4.97436523,-77.38911000
5.00488281,-81.54266000
5.03540039,-77.69942000
5.06591797,-75.04552000
5.09643555,-77.18697000
5.12695313,-84.70355000
5.15747070,-76.59288000
5.18798828,-72.81444000
5.21850586,-72.68110000
5.24902344,-75.51041000
5.27954102,-78.32938000
5.31005859,-75.47733000
5.34057617,-73.28183000
5.37109375,-72.03141000
5.40161133,-70.51723000
5.43212891,-68.98308000
5.46264648,-68.23169000
5.49316406,-67.05461000
5.52368164,-64.97585000
5.55419922,-64.01781000
5.58471680,-64.66850000
5.61523438,-65.78751000
5.64575195,-66.02866000
5.67626953,-65.47263000
5.70678711,-64.71314000
5.73730469,-64.60123000
5.76782227,-65.34595000
5.79833984,-66.01981000
5.82885742,-66.34734000
5.85937500,-67.17664000
5.88989258,-68.21605000
5.92041016,-69.07749000
5.95092773,-70.62604000
5.98144531,-70.69391000
6.01196289,-68.87267000
6.04248047,-68.78983000
6.07299805,-69.96117000
6.10351563,-70.29874000
6.13403320,-70.56506000
6.16455078,-72.36162000
6.19506836,-76.09395000
6.22558594,-75.34195000
6.25610352,-71.03606000
6.28662109,-69.55827000
6.31713867,-71.12189000
6.34765625,-74.70647000
6.37817383,-72.66391000
6.40869141,-69.51736000
6.43920898,-69.04704000
6.46972656,-70.85123000
6.50024414,-72.71391000
6.53076172,-72.70833000
6.56127930,-74.05307000
6.59179688,-75.47353000
6.62231445,-73.03186000
6.65283203,-72.21548000
6.68334961,-74.90207000
6.71386719,-82.13115000
6.74438477,-80.55805000
6.77490234,-76.14297000
6.80541992,-75.57949000
6.83593750,-76.81788000
6.86645508,-75.62507000
6.89697266,-74.14672000
6.92749023,-73.86741000
6.95800781,-72.98705000
6.98852539,-73.08730000
7.01904297,-76.43040000
7.04956055,-87.49073000
7.08007813,-87.39888000
7.11059570,-83.69713000
7.14111328,-85.98090000
7.17163086,-85.89479000
7.20214844,-88.21397000
7.23266602,-93.09052000
7.26318359,-82.72517000
7.29370117,-77.75473000
7.32421875,-76.41206000
7.35473633,-78.71664000
7.38525391,-87.76684000
7.41577148,-88.13986000
7.44628906,-82.51295000
7.47680664,-84.42577000
7.50732422,-94.72545000
7.53784180,-92.75719000
7.56835938,-89.74658000
7.59887695,-88.21423000
7.62939453,-87.09406000
7.65991211,-88.35214000
7.69042969,-89.70253000
7.72094727,-87.63492000
7.75146484,-84.35501000
7.78198242,-83.32523000
7.81250000,-86.90717000
7.84301758,-98.18208000
7.87353516,-86.42024000
7.90405273,-84.85655000
7.93457031,-87.76434000
7.96508789,-91.46277000
7.99560547,-91.77811000
8.02612305,-92.97997000
8.05664063,-90.91941000
8.08715820,-86.57187000
8.11767578,-84.22107000
8.14819336,-82.48859000
8.17871094,-80.30432000
8.20922852,-79.31798000
8.23974609,-81.50984000
8.27026367,-89.61959000
8.30078125,-104.69530000
8.33129883,-100.44730000
8.36181641,-95.79438000
8.39233398,-92.16590000
8.42285156,-99.91183000
8.45336914,-96.85661000
8.48388672,-91.36140000
8.51440430,-93.16680000
8.54492188,-102.84430000
8.57543945,-89.99561000
8.60595703,-81.27571000
8.63647461,-77.03246000
8.66699219,-76.45112000
8.69750977,-79.95299000
8.72802734,-90.28718000
8.75854492,-91.53023000
8.78906250,-88.79727000
8.81958008,-90.17484000
8.85009766,-95.18544000
8.88061523,-103.07620000
8.91113281,-90.02807000
8.94165039,-86.09648000
8.97216797,-86.39488000
9.00268555,-90.77485000
9.03320313,-85.32439000
9.06372070,-78.57077000
9.09423828,-75.67405000
9.12475586,-76.06452000
9.15527344,-79.94722000
9.18579102,-88.67587000
9.21630859,-105.43270000
9.24682617,-91.19788000
9.27734375,-84.47948000
9.30786133,-82.58873000
9.33837891,-85.31377000
9.36889648,-98.93005000
9.39941406,-90.45540000
9.42993164,-85.43250000
9.46044922,-86.11102000
9.49096680,-98.51340000
9.52148438,-86.20450000
9.55200195,-80.61935000
9.58251953,-80.65776000
9.61303711,-85.70372000
9.64355469,-94.07467000
9.67407227,-92.10293000
9.70458984,-99.19669000
9.73510742,-89.62109000
9.76562500,-86.51890000
9.79614258,-88.47901000
9.82666016,-96.52230000
9.85717773,-99.01611000
9.88769531,-88.55466000
9.91821289,-83.69365000
9.94873047,-80.68984000
9.97924805,-79.06827000
10.00976563,-79.04977000
10.04028320,-81.35334000
10.07080078,-86.50336000
10.10131836,-93.87680000
10.13183594,-101.15900000
10.16235352,-87.97327000
10.19287109,-84.02756000
10.22338867,-82.43202000
10.25390625,-81.80470000
10.28442383,-82.31685000
10.31494141,-84.21387000
10.34545898,-88.55821000
10.37597656,-88.69458000
10.40649414,-81.05193000
10.43701172,-78.01347000
10.46752930,-79.00377000
10.49804688,-84.74684000
10.52856445,-85.94398000
10.55908203,-80.87479000
10.58959961,-79.40456000
10.62011719,-79.91677000
10.65063477,-81.82881000
10.68115234,-84.78302000
10.71166992,-88.50896000
10.74218750,-90.87058000
10.77270508,-85.57522000
10.80322266,-82.90100000
10.83374023,-84.51825000
10.86425781,-79.65911000
10.89477539,-75.09938000
10.92529297,-74.29059000
10.95581055,-76.23199000
10.98632813,-80.75054000
11.01684570,-91.48284000
11.04736328,-85.92917000
11.07788086,-79.73699000
11.10839844,-78.58255000
11.13891602,-81.33102000
11.16943359,-89.44901000
11.19995117,-95.47550000
11.23046875,-93.41534000
11.26098633,-85.94725000
11.29150391,-78.44431000
11.32202148,-74.83901000
11.35253906,-74.06819000
11.38305664,-75.31150000
11.41357422,-76.93587000
11.44409180,-77.70104000
11.47460938,-79.21639000
11.50512695,-79.71056000
11.53564453,-78.54890000
11.56616211,-80.32662000
11.59667969,-88.94527000
11.62719727,-82.30951000
11.65771484,-77.62544000
11.68823242,-76.84832000
11.71875000,-77.67394000
11.74926758,-78.45704000
11.77978516,-79.56947000
11.81030273,-81.22987000
11.84082031,-80.56334000
11.87133789,-80.26569000
11.90185547,-82.89223000
11.93237305,-85.34034000
11.96289063,-83.10783000
11.99340820,-82.72332000
12.02392578,-87.12342000
12.05444336,-106.05630000
12.08496094,-87.65207000
12.11547852,-85.61462000
12.14599609,-83.62927000
12.17651367,-79.10869000
12.20703125,-75.07815000
12.23754883,-73.86475000
12.26806641,-75.65145000
12.29858398,-80.24202000
12.32910156,-90.29541000
12.35961914,-89.33521000
12.39013672,-81.96899000
12.42065430,-80.36132000
12.45117188,-81.91599000
12.48168945,-86.20983000
12.51220703,-90.67532000
12.54272461,-91.60219000
12.57324219,-86.21503000
12.60375977,-87.27895000
12.63427734,-89.56946000
12.66479492,-81.00174000
12.69531250,-79.95004000
12.72583008,-86.29469000
12.75634766,-87.17033000
12.78686523,-79.01340000
12.81738281,-77.13999000
12.84790039,-75.53894000
12.87841797,-73.62180000
12.90893555,-74.17517000
12.93945313,-77.90958000
12.96997070,-84.18489000
13.00048828,-92.11266000
13.03100586,-89.98506000
13.06152344,-78.86644000
13.09204102,-74.10251000
13.12255859,-72.50798000
13.15307617,-73.09920000
13.18359375,-75.68621000
13.21411133,-80.96803000
13.24462891,-93.72208000
13.27514648,-88.21971000
13.30566406,-81.74493000
13.33618164,-80.88062000
13.36669922,-83.70885000
13.39721680,-85.38022000
13.42773438,-83.43644000
13.45825195,-87.42225000
13.48876953,-78.33886000
13.51928711,-69.82623000
13.54980469,-66.56927000
13.58032227,-66.90916000
13.61083984,-70.19538000
13.64135742,-74.49347000
13.67187500,-76.21953000
13.70239258,-73.21282000
13.73291016,-70.09978000
13.76342773,-69.68167000
13.79394531,-72.21644000
13.82446289,-77.48683000
13.85498047,-82.30347000
13.88549805,-85.09483000
13.91601563,-84.15668000
13.94653320,-80.61256000
13.97705078,-77.20953000
14.00756836,-75.56199000
14.03808594,-76.56790000
14.06860352,-80.14674000
14.09912109,-84.15803000
14.12963867,-85.79116000
14.16015625,-87.68848000
14.19067383,-84.80347000
14.22119141,-80.20424000
14.25170898,-78.90003000
14.28222656,-81.35014000
14.31274414,-89.11157000
14.34326172,-92.08426000
14.37377930,-89.60982000
14.40429688,-83.50972000
14.43481445,-78.08473000
14.46533203,-76.75945000
14.49584961,-79.04945000
14.52636719,-84.47915000
14.55688477,-90.69899000
14.58740234,-96.74702000
14.61791992,-90.38052000
14.64843750,-81.53502000
14.67895508,-77.72688000
14.70947266,-76.86265000
14.73999023,-77.86280000
14.77050781,-79.55966000
14.80102539,-81.41750000
14.83154297,-85.81862000
14.86206055,-90.25504000
14.89257813,-81.43932000
14.92309570,-77.31778000
14.95361328,-75.22847000
14.98413086,-74.41241000
15.01464844,-75.00708000
15.04516602,-77.20032000
15.07568359,-79.64288000
15.10620117,-79.29880000
15.13671875,-78.31816000
15.16723633,-77.65845000
15.19775391,-75.27284000
15.22827148,-72.86202000
15.25878906,-72.92094000
15.28930664,-76.11795000
15.31982422,-81.35246000
15.35034180,-82.28128000
15.38085938,-80.76474000
15.41137695,-79.40437000
15.44189453,-78.67503000
15.47241211,-79.51814000
15.50292969,-82.25536000
15.53344727,-83.21873000
15.56396484,-80.64716000
15.59448242,-79.19752000
15.62500000,-79.15830000
15.65551758,-79.93962000
15.68603516,-81.57298000
15.71655273,-85.11237000
15.74707031,-92.68829000
15.77758789,-113.24100000
15.80810547,-92.82238000
15.83862305,-84.86018000
15.86914063,-81.31425000
15.89965820,-81.11859000
15.93017578,-84.84705000
15.96069336,-103.61680000
15.99121094,-86.50188000
16.02172852,-82.01151000
16.05224609,-81.40489000
16.08276367,-82.77208000
16.11328125,-85.37488000
16.14379883,-88.65738000
16.17431641,-90.42487000
16.20483398,-87.36250000
16.23535156,-85.99183000
16.26586914,-89.81718000
16.29638672,-103.78540000
16.32690430,-88.33520000
16.35742188,-84.93741000
16.38793945,-85.03219000
16.41845703,-87.60982000
16.44897461,-90.87823000
16.47949219,-91.36254000
16.51000977,-87.78024000
16.54052734,-85.18879000
16.57104492,-84.29568000
16.60156250,-83.63123000
16.63208008,-82.85080000
16.66259766,-82.92812000
16.69311523,-84.92512000
16.72363281,-89.98773000
16.75415039,-102.96100000
16.78466797,-92.39144000
16.81518555,-87.33585000
16.84570313,-84.91449000
16.87622070,-84.09042000
16.90673828,-86.20621000
16.93725586,-94.69021000
16.96777344,-95.15735000
16.99829102,-90.57191000
17.02880859,-91.06163000
17.05932617,-91.79219000
17.08984375,-90.73964000
17.12036133,-89.41794000
17.15087891,-88.80955000
17.18139648,-88.99847000
17.21191406,-88.71011000
17.24243164,-87.75438000
17.27294922,-89.25166000
17.30346680,-95.85777000
17.33398438,-119.24700000
17.36450195,-99.61554000
17.39501953,-90.49783000
17.42553711,-86.94512000
17.45605469,-86.38947000
17.48657227,-87.34795000
17.51708984,-87.25396000
17.54760742,-84.25232000
17.57812500,-82.75261000
17.60864258,-84.46526000
17.63916016,-91.33322000
17.66967773,-92.88229000
17.70019531,-82.21136000
17.73071289,-78.53644000
17.76123047,-78.21251000
17.79174805,-80.22356000
17.82226563,-84.16292000
17.85278320,-91.12547000
17.88330078,-89.88104000
17.91381836,-85.67078000
17.94433594,-85.75150000
17.97485352,-89.15745000
18.00537109,-93.27650000
18.03588867,-94.84977000
18.06640625,-100.64440000
18.09692383,-104.19580000
18.12744141,-95.45979000
18.15795898,-92.82619000
18.18847656,-92.33867000
18.21899414,-90.14968000
18.24951172,-88.40146000
18.28002930,-89.69446000
18.31054688,-94.09690000
18.34106445,-95.43626000
18.37158203,-94.12216000
18.40209961,-98.11363000
18.43261719,-96.58850000
18.46313477,-91.36494000
18.49365234,-90.06522000
18.52416992,-91.12965000
18.55468750,-96.21723000
18.58520508,-96.59484000
18.61572266,-88.49573000
18.64624023,-86.86067000
18.67675781,-90.00858000
18.70727539,-91.82826000
18.73779297,-88.37357000
18.76831055,-89.33677000
18.79882813,-94.73782000
18.82934570,-100.39380000
18.85986328,-97.81726000
18.89038086,-95.25371000
18.92089844,-98.02006000
18.95141602,-100.48850000
18.98193359,-93.86356000
19.01245117,-92.56379000
19.04296875,-94.71595000
19.07348633,-94.92601000
19.10400391,-92.50998000
19.13452148,-92.86599000
19.16503906,-95.63225000
19.19555664,-98.97958000
19.22607422,-105.91030000
19.25659180,-100.30010000
19.28710938,-97.38915000
19.31762695,-94.48972000
19.34814453,-90.55376000
19.37866211,-89.26990000
19.40917969,-89.94773000
19.43969727,-90.81329000
19.47021484,-92.01205000
19.50073242,-95.14886000
19.53125000,-100.26340000
19.56176758,-106.22260000
19.59228516,-104.61190000
19.62280273,-99.72865000
19.65332031,-99.99773000
19.68383789,-105.48680000
19.71435547,-112.35750000
19.74487305,-100.26400000
19.77539063,-95.63682000
19.80590820,-96.03156000
19.83642578,-101.79590000
19.86694336,-100.10690000
19.89746094,-96.51198000
19.92797852,-96.26907000
19.95849609,-95.73676000
19.98901367,-92.11671000
20.01953125,-90.56207000
20.05004883,-93.70970000
20.08056641,-113.22850000
20.11108398,-97.08785000
20.14160156,-92.94678000
20.17211914,-91.68651000
20.20263672,-91.93012000
20.23315430,-92.49434000
20.26367188,-92.73882000
20.29418945,-92.04691000
20.32470703,-87.76573000
20.35522461,-85.39275000
20.38574219,-85.44254000
20.41625977,-84.73792000
20.44677734,-84.48245000
20.47729492,-85.80791000
20.50781250,-83.05937000
20.53833008,-81.67772000
20.56884766,-84.01637000
20.59936523,-88.69805000
20.62988281,-94.78395000
20.66040039,-93.19371000
20.69091797,-87.85562000
20.72143555,-86.41029000
20.75195313,-87.54692000
20.78247070,-91.42289000
20.81298828,-88.79063000
20.84350586,-83.95860000
20.87402344,-82.87865000
20.90454102,-83.93238000
20.93505859,-84.07106000
20.96557617,-84.35509000
20.99609375,-88.41075000
21.02661133,-93.74802000
21.05712891,-87.53673000
21.08764648,-86.76526000
21.11816406,-91.74216000
21.14868164,-100.78400000
21.17919922,-91.91285000
21.20971680,-91.25968000
21.24023438,-90.48053000
21.27075195,-89.75098000
21.30126953,-93.96651000
21.33178711,-96.53614000
21.36230469,-88.85931000
21.39282227,-86.50160000
21.42333984,-88.10867000
21.45385742,-97.63862000
21.48437500,-94.97871000
21.51489258,-89.05486000
21.54541016,-89.67866000
21.57592773,-94.78100000
21.60644531,-102.90830000
21.63696289,-100.82760000
21.66748047,-101.51430000
21.69799805,-105.31410000
21.72851563,-99.16389000
21.75903320,-92.86427000
21.78955078,-92.13502000
21.82006836,-97.71291000
21.85058594,-93.90782000
21.88110352,-88.96735000
21.91162109,-88.20831000
21.94213867,-88.89017000
21.97265625,-89.41456000
22.00317383,-91.15376000
22.03369141,-96.54247000
22.06420898,-104.01720000
22.09472656,-95.71024000
22.12524414,-92.15863000
22.15576172,-92.01080000
22.18627930,-95.89017000
22.21679688,-98.83247000
22.24731445,-93.91888000
22.27783203,-93.20927000
22.30834961,-95.91811000
22.33886719,-95.39074000
22.36938477,-93.04015000
22.39990234,-94.41629000
22.43041992,-96.26359000
22.46093750,-91.63699000
22.49145508,-88.43117000
22.52197266,-86.98083000
22.55249023,-86.79356000
22.58300781,-88.56946000
22.61352539,-94.80421000
22.64404297,-99.76808000
22.67456055,-92.35180000
22.70507813,-93.31070000
22.73559570,-102.12910000
22.76611328,-96.36998000
22.79663086,-93.60249000
22.82714844,-94.40147000
22.85766602,-94.72786000
22.88818359,-94.86499000
22.91870117,-96.72266000
22.94921875,-101.26470000
22.97973633,-107.66060000
23.01025391,-120.33780000
23.04077148,-110.95610000
23.07128906,-108.49870000
23.10180664,-130.24710000
23.13232422,-104.48530000
23.16284180,-98.15564000
23.19335938,-95.82481000
23.22387695,-95.18516000
23.25439453,-93.95361000
23.28491211,-91.79015000
23.31542969,-90.74548000
23.34594727,-92.24594000
23.37646484,-97.03442000
23.40698242,-105.66640000
23.43750000,-100.12480000
23.46801758,-92.99934000
23.49853516,-88.76740000
23.52905273,-87.30016000
23.55957031,-89.03121000
23.59008789,-94.92355000
23.62060547,-96.84436000
23.65112305,-94.82881000
23.68164063,-98.63540000
23.71215820,-110.13970000
23.74267578,-107.23910000
23.77319336,-104.14310000
23.80371094,-96.58878000
23.83422852,-92.00756000
23.86474609,-90.84071000
23.89526367,-93.66294000
23.92578125,-107.32640000
23.95629883,-98.70518000
23.98681641,-94.28828000
24.01733398,-94.94633000
24.04785156,-97.22665000
24.07836914,-97.86819000
24.10888672,-98.89607000
24.13940430,-95.62394000
24.16992188,-91.10275000
24.20043945,-89.56853000
24.23095703,-90.74881000
24.26147461,-94.26361000
24.29199219,-98.51914000
24.32250977,-99.65594000
24.35302734,-99.62231000
24.38354492,-100.08230000
24.41406250,-101.49110000
24.44458008,-103.77090000
24.47509766,-96.02925000
24.50561523,-90.14115000
24.53613281,-87.82697000
24.56665039,-88.20775000
24.59716797,-90.62553000
24.62768555,-94.21197000
24.65820313,-97.88939000
24.68872070,-97.39478000
24.71923828,-94.20220000
24.74975586,-92.54669000
24.78027344,-91.61491000
24.81079102,-91.22560000
24.84130859,-92.30994000
24.87182617,-94.66766000
24.90234375,-95.76251000
24.93286133,-97.94086000
24.96337891,-104.60930000
24.99389648,-94.71101000
25.02441406,-89.04782000
25.05493164,-86.83829000
25.08544922,-87.21073000
25.11596680,-90.62531000
25.14648438,-98.74618000
25.17700195,-98.19054000
25.20751953,-96.05826000
25.23803711,-96.77712000
25.26855469,-95.07999000
25.29907227,-91.88475000
25.32958984,-90.33829000
25.36010742,-91.20652000
25.39062500,-95.37584000
25.42114258,-105.45430000
25.45166016,-98.24548000
25.48217773,-94.40427000
25.51269531,-94.23531000
25.54321289,-96.11603000
25.57373047,-96.36320000
25.60424805,-94.49107000
25.63476563,-96.03874000
25.66528320,-99.92425000
25.69580078,-94.03275000
25.72631836,-91.38547000
25.75683594,-89.85603000
25.78735352,-88.05683000
25.81787109,-88.69693000
25.84838867,-93.79612000
25.87890625,-99.10133000
25.90942383,-92.59837000
25.93994141,-88.93166000
25.97045898,-88.80360000
26.00097656,-94.70966000
26.03149414,-100.92500000
26.06201172,-90.28553000
26.09252930,-87.84842000
26.12304688,-87.52732000
26.15356445,-88.37999000
26.18408203,-91.03608000
26.21459961,-92.27354000
26.24511719,-87.09087000
26.27563477,-84.23798000
26.30615234,-84.50108000
26.33666992,-88.32012000
26.36718750,-101.29780000
26.39770508,-94.79568000
26.42822266,-90.38333000
26.45874023,-91.02298000
26.48925781,-94.31892000
26.51977539,-96.89966000
26.55029297,-95.02689000
26.58081055,-90.63107000
26.61132813,-87.62082000
26.64184570,-87.31942000
26.67236328,-89.42906000
26.70288086,-90.66177000
26.73339844,-89.88196000
26.76391602,-91.95016000
26.79443359,-104.52960000
26.82495117,-93.15540000
26.85546875,-87.37304000
26.88598633,-86.09790000
26.91650391,-87.33853000
26.94702148,-90.20905000
26.97753906,-95.08089000
27.00805664,-106.69340000
27.03857422,-99.85650000
27.06909180,-97.90992000
27.09960938,-101.92280000
27.13012695,-98.70297000
27.16064453,-95.06309000
27.19116211,-94.10356000
27.22167969,-93.97942000
27.25219727,-95.20840000
27.28271484,-96.19878000
27.31323242,-93.53207000
27.34375000,-91.90779000
27.37426758,-93.15660000
27.40478516,-97.66702000
27.43530273,-100.98250000
27.46582031,-101.13060000
27.49633789,-95.45502000
27.52685547,-91.21786000
27.55737305,-91.80667000
27.58789063,-99.41846000
27.61840820,-101.83770000
27.64892578,-94.26631000
27.67944336,-93.31602000
27.70996094,-93.85293000
27.74047852,-92.61036000
27.77099609,-91.53349000
27.80151367,-92.32998000
27.83203125,-92.59306000
27.86254883,-91.25027000
27.89306641,-91.61002000
27.92358398,-95.96435000
27.95410156,-103.85770000
27.98461914,-93.37306000
28.01513672,-90.67498000
28.04565430,-92.54650000
28.07617188,-98.14578000
28.10668945,-98.82533000
28.13720703,-100.21750000
28.16772461,-98.40508000
28.19824219,-93.25779000
28.22875977,-92.50989000
28.25927734,-96.60243000
28.28979492,-105.45150000
28.32031250,-93.30882000
28.35083008,-90.01007000
28.38134766,-90.88490000
28.41186523,-95.57555000
28.44238281,-107.34040000
28.47290039,-103.79140000
28.50341797,-97.49876000
28.53393555,-97.32347000
28.56445313,-104.08500000
28.59497070,-107.16410000
28.62548828,-99.75892000
28.65600586,-103.21170000
28.68652344,-114.24970000
28.71704102,-103.50750000
28.74755859,-104.60010000
28.77807617,-109.28950000
28.80859375,-119.49290000
28.83911133,-103.64960000
28.86962891,-99.30749000
28.90014648,-101.34660000
28.93066406,-114.97980000
28.96118164,-106.04280000
28.99169922,-102.63060000
29.02221680,-98.53006000
29.05273438,-94.80201000
29.08325195,-92.36305000
29.11376953,-91.59000000
29.14428711,-93.43057000
29.17480469,-98.10189000
29.20532227,-100.07930000
29.23583984,-99.65715000
29.26635742,-99.41321000
29.29687500,-97.97438000
29.32739258,-100.66480000
29.35791016,-113.74330000
29.38842773,-97.44501000
29.41894531,-93.38052000
29.44946289,-91.46556000
29.47998047,-89.65041000
29.51049805,-88.51749000
29.54101563,-88.95990000
29.57153320,-91.25657000
29.60205078,-94.00792000
29.63256836,-92.86307000
29.66308594,-91.53204000
29.69360352,-91.85928000
29.72412109,-92.51053000
29.75463867,-93.42835000
29.78515625,-95.15189000
29.81567383,-97.06345000
29.84619141,-99.75574000
29.87670898,-109.00220000
29.90722656,-101.96120000
29.93774414,-93.68016000
29.96826172,-90.31364000
29.99877930,-89.29387000
30.02929688,-89.27750000
30.05981445,-89.18288000
30.09033203,-89.63891000
30.12084961,-91.91743000
30.15136719,-95.71326000
30.18188477,-95.54663000
30.21240234,-93.13796000
30.24291992,-92.80624000
30.27343750,-94.45644000
30.30395508,-97.41885000
30.33447266,-105.10090000
30.36499023,-101.04590000
30.39550781,-91.76973000
30.42602539,-89.21151000
30.45654297,-90.56911000
30.48706055,-94.65910000
30.51757813,-97.41774000
30.54809570,-94.96916000
30.57861328,-92.95732000
30.60913086,-93.40547000
30.63964844,-94.79127000
30.67016602,-95.70702000
30.70068359,-96.37054000
30.73120117,-96.70360000
30.76171875,-97.29205000
30.79223633,-97.33940000
30.82275391,-93.23219000
30.85327148,-90.04398000
30.88378906,-89.62083000
30.91430664,-91.48874000
30.94482422,-94.38653000
30.97534180,-95.61586000
31.00585938,-95.15816000
31.03637695,-96.28725000
31.06689453,-96.99144000
31.09741211,-92.63416000
31.12792969,-89.15849000
31.15844727,-87.79350000
31.18896484,-88.71083000
31.21948242,-92.89838000
31.25000000,-105.72150000
31.28051758,-98.37067000
31.31103516,-96.50871000
31.34155273,-102.92280000
31.37207031,-100.75420000
31.40258789,-98.44635000
31.43310547,-100.20670000
31.46362305,-101.99610000
31.49414063,-116.87680000
31.52465820,-96.54281000
31.55517578,-92.99010000
31.58569336,-93.05472000
31.61621094,-93.09439000
31.64672852,-92.33338000
31.67724609,-92.97467000
31.70776367,-96.38548000
31.73828125,-101.99710000
31.76879883,-104.36600000
31.79931641,-99.50850000
31.82983398,-95.18153000
31.86035156,-93.43994000
31.89086914,-90.85117000
31.92138672,-89.51537000
31.95190430,-90.93918000
31.98242188,-94.10837000
32.01293945,-99.86324000
32.04345703,-107.50050000
32.07397461,-95.79421000
32.10449219,-93.54773000
32.13500977,-94.27631000
32.16552734,-97.77362000
32.19604492,-103.06140000
32.22656250,-97.61240000
32.25708008,-94.48386000
32.28759766,-93.03710000
32.31811523,-92.40326000
32.34863281,-93.23044000
32.37915039,-97.81387000
32.40966797,-100.18280000
32.44018555,-95.90509000
32.47070313,-98.98418000
32.50122070,-111.17030000
32.53173828,-96.02922000
32.56225586,-93.29582000
32.59277344,-93.67078000
32.62329102,-94.82031000
32.65380859,-97.95354000
32.68432617,-111.25150000
32.71484375,-98.85696000
32.74536133,-96.86656000
32.77587891,-100.89110000
32.80639648,-104.03210000
32.83691406,-104.32970000
32.86743164,-107.00900000
32.89794922,-104.47260000
32.92846680,-105.77280000
32.95898438,-104.68740000
32.98950195,-99.26880000
33.02001953,-94.16961000
33.05053711,-90.06718000
33.08105469,-87.85362000
33.11157227,-87.92986000
33.14208984,-90.85023000
33.17260742,-97.47116000
33.20312500,-103.09670000
33.23364258,-102.15150000
33.26416016,-101.78930000
33.29467773,-97.51942000
33.32519531,-92.44826000
33.35571289,-90.55732000
33.38623047,-91.47887000
33.41674805,-93.04024000
33.44726563,-91.83224000
33.47778320,-89.94440000
33.50830078,-88.62756000
33.53881836,-87.39352000
33.56933594,-86.72111000
33.59985352,-86.92110000
33.63037109,-87.80475000
33.66088867,-89.04702000
33.69140625,-89.93504000
33.72192383,-89.43735000
33.75244141,-87.75498000
33.78295898,-86.65666000
33.81347656,-86.89717000
33.84399414,-88.10504000
33.87451172,-89.52000000
33.90502930,-90.90041000
33.93554688,-92.40466000
33.96606445,-93.24192000
33.99658203,-93.41653000
34.02709961,-95.05944000
34.05761719,-98.97002000
34.08813477,-101.75900000
34.11865234,-98.81337000
34.14916992,-95.21804000
34.17968750,-93.05199000
34.21020508,-92.10777000
34.24072266,-91.74165000
34.27124023,-91.54578000
34.30175781,-91.65170000
34.33227539,-92.55459000
34.36279297,-95.23386000
34.39331055,-102.76910000
34.42382813,-98.89897000
34.45434570,-91.57066000
34.48486328,-89.09245000
34.51538086,-89.96510000
34.54589844,-94.30350000
34.57641602,-100.36390000
34.60693359,-96.49932000
34.63745117,-92.70309000
34.66796875,-90.41455000
34.69848633,-89.27604000
34.72900391,-88.95093000
34.75952148,-88.86427000
34.79003906,-89.58805000
34.82055664,-92.49405000
34.85107422,-99.36546000
34.88159180,-105.14850000
34.91210938,-95.79321000
34.94262695,-92.75367000
34.97314453,-92.01514000
35.00366211,-91.27534000
35.03417969,-89.83945000
35.06469727,-88.73569000
35.09521484,-88.37612000
35.12573242,-88.74570000
35.15625000,-90.35789000
35.18676758,-94.16663000
35.21728516,-97.85737000
35.24780273,-97.47178000
35.27832031,-101.37070000
35.30883789,-114.92180000
35.33935547,-100.74030000
35.36987305,-96.64158000
35.40039063,-93.60269000
35.43090820,-92.03665000
35.46142578,-92.40512000
35.49194336,-93.97189000
35.52246094,-96.53592000
35.55297852,-103.57020000
35.58349609,-107.35920000
35.61401367,-97.44670000
35.64453125,-93.22047000
35.67504883,-90.56955000
35.70556641,-89.06184000
35.73608398,-88.85701000
35.76660156,-90.81631000
35.79711914,-97.38864000
35.82763672,-103.46870000
35.85815430,-94.59930000
35.88867188,-92.34691000
35.91918945,-92.03376000
35.94970703,-92.69196000
35.98022461,-93.63905000
36.01074219,-93.88011000
36.04125977,-94.41711000
36.07177734,-96.87720000
36.10229492,-100.74310000
36.13281250,-98.56755000
36.16333008,-94.80183000
36.19384766,-92.64455000
36.22436523,-91.70571000
36.25488281,-92.11313000
36.28540039,-93.98854000
36.31591797,-96.88753000
36.34643555,-99.85066000
36.37695313,-103.95370000
36.40747070,-113.94750000
36.43798828,-99.65630000
36.46850586,-93.86432000
36.49902344,-91.45648000
36.52954102,-91.46262000
36.56005859,-93.33673000
36.59057617,-95.15974000
36.62109375,-94.86859000
36.65161133,-94.47856000
36.68212891,-96.33472000
36.71264648,-97.62727000
36.74316406,-94.30139000
36.77368164,-92.63103000
36.80419922,-93.21087000
36.83471680,-95.38819000
36.86523438,-98.04494000
36.89575195,-101.45480000
36.92626953,-104.82520000
36.95678711,-97.33109000
36.98730469,-92.52412000
37.01782227,-89.77513000
37.04833984,-88.38248000
37.07885742,-88.49495000
37.10937500,-90.68738000
37.13989258,-96.18674000
37.17041016,-109.25310000
37.20092773,-101.23930000
37.23144531,-96.87415000
37.26196289,-94.74034000
37.29248047,-93.34749000
37.32299805,-92.78004000
37.35351563,-93.28625000
37.38403320,-94.19991000
37.41455078,-95.02232000
37.44506836,-97.08386000
37.47558594,-100.64490000
37.50610352,-99.50443000
37.53662109,-94.62243000
37.56713867,-91.77044000
37.59765625,-91.29192000
37.62817383,-93.27910000
37.65869141,-95.60715000
37.68920898,-94.34388000
37.71972656,-93.61884000
37.75024414,-93.40630000
37.78076172,-93.75854000
37.81127930,-96.81161000
37.84179688,-101.79840000
37.87231445,-98.08076000
37.90283203,-96.97443000
37.93334961,-101.02300000
37.96386719,-98.90054000
37.99438477,-94.56394000
38.02490234,-94.07228000
38.05541992,-94.67496000
38.08593750,-94.23196000
38.11645508,-93.73936000
38.14697266,-94.94286000
38.17749023,-98.52037000
38.20800781,-102.90740000
38.23852539,-101.32400000
38.26904297,-100.53470000
38.29956055,-107.71000000
38.33007813,-103.65980000
38.36059570,-96.87202000
38.39111328,-95.90156000
38.42163086,-98.17326000
38.45214844,-102.93890000
38.48266602,-108.48080000
38.51318359,-110.84950000
38.54370117,-109.82030000
38.57421875,-104.68270000
38.60473633,-100.83220000
38.63525391,-99.14706000
38.66577148,-99.77523000
38.69628906,-100.03790000
38.72680664,-97.38289000
38.75732422,-96.96985000
38.78784180,-99.11713000
38.81835938,-101.20850000
38.84887695,-102.59630000
38.87939453,-104.69880000
38.90991211,-96.52406000
38.94042969,-91.68735000
38.97094727,-90.20081000
39.00146484,-90.27302000
39.03198242,-90.58340000
39.06250000,-90.97600000
39.09301758,-93.10036000
39.12353516,-102.89270000
39.15405273,-98.19335000
39.18457031,-91.72714000
39.21508789,-91.10320000
39.24560547,-92.74504000
39.27612305,-93.72528000
39.30664063,-95.53133000
39.33715820,-105.37100000
39.36767578,-99.61613000
39.39819336,-92.49756000
39.42871094,-90.75522000
39.45922852,-91.54483000
39.48974609,-92.61689000
39.52026367,-93.43140000
39.55078125,-96.66821000
39.58129883,-104.19400000
39.61181641,-105.43310000
39.64233398,-101.78190000
39.67285156,-101.48100000
39.70336914,-108.06960000
39.73388672,-98.78517000
39.76440430,-93.41465000
39.79492188,-92.11266000
39.82543945,-92.54012000
39.85595703,-93.34143000
39.88647461,-95.18956000
39.91699219,-95.98199000
39.94750977,-92.79014000
39.97802734,-90.78918000
40.00854492,-90.96747000
40.03906250,-93.49779000
40.06958008,-95.89291000
40.10009766,-92.46526000
40.13061523,-91.41437000
40.16113281,-95.00939000
40.19165039,-104.35790000
40.22216797,-102.58760000
40.25268555,-107.20410000
40.28320313,-99.94681000
40.31372070,-93.19721000
40.34423828,-90.65414000
40.37475586,-90.56412000
40.40527344,-92.00523000
40.43579102,-93.01421000
40.46630859,-92.34557000
40.49682617,-90.50833000
40.52734375,-88.72740000
40.55786133,-87.61641000
40.58837891,-86.81487000
40.61889648,-86.60950000
40.64941406,-87.83176000
40.67993164,-90.59097000
40.71044922,-92.99194000
40.74096680,-92.74904000
40.77148438,-92.72770000
40.80200195,-96.09526000
40.83251953,-91.46964000
40.86303711,-87.70087000
40.89355469,-89.20720000
40.92407227,-95.97028000
40.95458984,-94.57039000
40.98510742,-92.45009000
41.01562500,-95.01579000
41.04614258,-105.56990000
41.07666016,-96.72794000
41.10717773,-92.90544000
41.13769531,-93.02196000
41.16821289,-94.40509000
41.19873047,-95.72081000
41.22924805,-97.32538000
41.25976563,-102.84460000
41.29028320,-101.94700000
41.32080078,-95.49074000
41.35131836,-95.32258000
41.38183594,-99.22311000
41.41235352,-102.25680000
41.44287109,-103.72990000
41.47338867,-112.65120000
41.50390625,-101.89180000
41.53442383,-94.91380000
41.56494141,-92.90581000
41.59545898,-93.34675000
41.62597656,-94.67593000
41.65649414,-95.47432000
41.68701172,-94.67429000
41.71752930,-95.28324000
41.74804688,-96.79845000
41.77856445,-95.57890000
41.80908203,-97.43480000
41.83959961,-98.99880000
41.87011719,-94.35393000
41.90063477,-91.05263000
41.93115234,-87.79037000
41.96166992,-85.38087000
41.99218750,-84.42548000
42.02270508,-85.20918000
42.05322266,-88.33244000
42.08374023,-93.47381000
42.11425781,-92.53198000
42.14477539,-92.87842000
42.17529297,-99.59685000
42.20581055,-101.44640000
42.23632813,-97.07643000
42.26684570,-96.03924000
42.29736328,-95.51663000
42.32788086,-98.39986000
42.35839844,-103.44720000
42.38891602,-90.43809000
42.41943359,-86.94444000
42.44995117,-87.05330000
42.48046875,-88.14544000
42.51098633,-87.39894000
42.54150391,-86.92184000
42.57202148,-88.54359000
42.60253906,-90.32513000
42.63305664,-89.43547000
42.66357422,-88.40071000
42.69409180,-88.16679000
42.72460938,-88.82320000
42.75512695,-90.76651000
42.78564453,-93.42522000
42.81616211,-92.45495000
42.84667969,-88.85068000
42.87719727,-87.28821000
42.90771484,-89.05364000
42.93823242,-96.66907000
42.96875000,-100.73300000
42.99926758,-92.45712000
43.02978516,-89.43338000
43.06030273,-88.69914000
43.09082031,-90.65425000
43.12133789,-93.19391000
43.15185547,-90.30112000
43.18237305,-87.12905000
43.21289063,-86.32683000
43.24340820,-87.81254000
43.27392578,-91.30571000
43.30444336,-95.55863000
43.33496094,-96.56393000
43.36547852,-92.41962000
43.39599609,-88.83229000
43.42651367,-87.45512000
43.45703125,-86.10652000
43.48754883,-83.98734000
43.51806641,-82.74905000
43.54858398,-83.95163000
43.57910156,-88.76145000
43.60961914,-101.38040000
43.64013672,-98.03532000
43.67065430,-91.16894000
43.70117188,-88.28618000
43.73168945,-86.95972000
43.76220703,-87.67525000
43.79272461,-91.63554000
43.82324219,-94.43082000
43.85375977,-91.20354000
43.88427734,-91.29638000
43.91479492,-95.08134000
43.94531250,-107.33900000
43.97583008,-98.32442000
44.00634766,-91.67943000
44.03686523,-88.95084000
44.06738281,-88.35619000
44.09790039,-89.46582000
44.12841797,-90.03375000
44.15893555,-88.31845000
44.18945313,-87.68482000
44.21997070,-90.74394000
44.25048828,-102.67960000
44.28100586,-92.20576000
44.31152344,-87.45483000
44.34204102,-85.82275000
44.37255859,-85.75822000
44.40307617,-87.02625000
44.43359375,-89.03611000
44.46411133,-89.82178000
44.49462891,-88.90755000
44.52514648,-88.43428000
44.55566406,-89.75717000
44.58618164,-94.26743000
44.61669922,-107.56520000
44.64721680,-96.05529000
44.67773438,-92.18401000
44.70825195,-91.58237000
44.73876953,-92.34650000
44.76928711,-93.47290000
44.79980469,-93.41716000
44.83032227,-91.03371000
44.86083984,-89.12363000
44.89135742,-89.54387000
44.92187500,-92.89563000
44.95239258,-97.73022000
44.98291016,-93.91753000
45.01342773,-90.33227000
45.04394531,-89.59775000
45.07446289,-91.58705000
45.10498047,-95.89891000
45.13549805,-101.92440000
45.16601563,-106.80940000
45.19653320,-104.55030000
45.22705078,-105.95650000
45.25756836,-99.17596000
45.28808594,-94.63057000
45.31860352,-92.35520000
45.34912109,-91.44435000
45.37963867,-91.96359000
45.41015625,-94.25171000
45.44067383,-97.04186000
45.47119141,-95.26952000
45.50170898,-92.30084000
45.53222656,-91.83667000
45.56274414,-94.82004000
45.59326172,-98.59719000
45.62377930,-93.04750000
45.65429688,-88.33759000
45.68481445,-85.54239000
45.71533203,-84.92105000
45.74584961,-87.11955000
45.77636719,-93.72502000
45.80688477,-102.02350000
45.83740234,-96.77808000
45.86791992,-99.13940000
45.89843750,-120.98840000
45.92895508,-98.92232000
45.95947266,-92.79230000
45.98999023,-90.10774000
46.02050781,-89.77078000
46.05102539,-91.62479000
46.08154297,-93.69480000
46.11206055,-93.16409000
46.14257813,-93.85699000
46.17309570,-98.48991000
46.20361328,-130.14330000
46.23413086,-98.67019000
46.26464844,-93.99274000
46.29516602,-92.24293000
46.32568359,-90.41808000
46.35620117,-89.54568000
46.38671875,-91.71730000
46.41723633,-98.11932000
46.44775391,-105.39200000
46.47827148,-100.45550000
46.50878906,-94.27533000
46.53930664,-91.59567000
46.56982422,-90.92906000
46.60034180,-91.42517000
46.63085938,-93.83476000
46.66137695,-97.02937000
46.69189453,-94.08955000
46.72241211,-93.45696000
46.75292969,-97.87026000
46.78344727,-108.29290000
46.81396484,-104.46800000
46.84448242,-99.23064000
46.87500000,-96.24350000
46.90551758,-95.79282000
46.93603516,-97.57530000
46.96655273,-99.69059000
46.99707031,-98.13382000
47.02758789,-98.77281000
47.05810547,-104.23770000
47.08862305,-98.97249000
47.11914063,-95.60818000
47.14965820,-95.12564000
47.18017578,-95.43106000
47.21069336,-95.40955000
47.24121094,-94.95892000
47.27172852,-94.78496000
47.30224609,-94.97780000
47.33276367,-94.54872000
47.36328125,-93.71635000
47.39379883,-93.76953000
47.42431641,-94.66803000
47.45483398,-94.95045000
47.48535156,-95.17372000
47.51586914,-98.36281000
47.54638672,-113.24380000
47.57690430,-99.13977000
47.60742188,-94.90462000
47.63793945,-94.27597000
47.66845703,-94.93739000
47.69897461,-96.36664000
47.72949219,-98.03512000
47.76000977,-97.33807000
47.79052734,-95.15100000
47.82104492,-92.84590000
47.85156250,-92.44205000
47.88208008,-96.29301000
47.91259766,-128.00670000
47.94311523,-97.38307000
47.97363281,-93.31020000
48.00415039,-92.53211000
48.03466797,-93.69724000
48.06518555,-96.60925000
48.09570313,-98.48349000
48.12622070,-97.51543000
48.15673828,-98.69012000
48.18725586,-105.23850000
48.21777344,-111.16200000
48.24829102,-100.36900000
48.27880859,-98.57597000
48.30932617,-104.33780000
48.33984375,-103.05940000
48.37036133,-94.32132000
48.40087891,-92.35310000
48.43139648,-93.47975000
48.46191406,-95.97512000
48.49243164,-99.58827000
48.52294922,-107.53180000
48.55346680,-100.09780000
48.58398438,-96.56438000
48.61450195,-96.99480000
48.64501953,-98.42500000
48.67553711,-93.85785000
48.70605469,-90.64053000
48.73657227,-90.32811000
48.76708984,-91.34388000
48.79760742,-91.60275000
48.82812500,-90.68793000
48.85864258,-90.00355000
48.88916016,-90.45915000
48.91967773,-91.64943000
48.95019531,-91.76302000
48.98071289,-89.76016000
49.01123047,-87.55479000
49.04174805,-86.53503000
49.07226563,-86.99508000
49.10278320,-88.77369000
49.13330078,-91.59244000
49.16381836,-95.53362000
49.19433594,-101.43140000
49.22485352,-103.72520000
49.25537109,-98.28447000
49.28588867,-93.84674000
49.31640625,-90.04614000
49.34692383,-87.23266000
49.37744141,-86.13053000
49.40795898,-87.27531000
49.43847656,-91.15100000
49.46899414,-99.05968000
49.49951172,-122.27470000
49.53002930,-102.70290000
49.56054688,-100.08430000
49.59106445,-101.46290000
49.62158203,-101.74990000
49.65209961,-96.70189000
49.68261719,-92.30511000
49.71313477,-89.90945000
49.74365234,-90.00757000
49.77416992,-92.76521000
49.80468750,-98.77304000
49.83520508,-104.95450000
49.86572266,-98.95819000
49.89624023,-96.78844000
49.92675781,-97.17426000
49.95727539,-97.53320000
49.98779297,-95.40210000
50.01831055,-91.92828000
