Frequency,Channel A
(MHz),(dBu)

0.00000000,-23.56928000
0.03051758,-23.97645000
0.06103516,-29.29491000
0.09155273,-39.28894000
0.12207031,-56.46095000
0.15258789,-64.94946000
0.18310547,-66.39358000
0.21362305,-74.58185000
0.24414063,-69.63116000
0.27465820,-70.80133000
0.30517578,-74.50036000
0.33569336,-67.66912000
0.36621094,-63.79610000
0.39672852,-60.89501000
0.42724609,-60.93111000
0.45776367,-63.59974000
0.48828125,-67.35590000
0.51879883,-64.97166000
0.54931641,-61.35162000
0.57983398,-59.92691000
0.61035156,-61.78160000
0.64086914,-67.97444000
0.67138672,-63.85136000
0.70190430,-61.54806000
0.73242188,-63.57023000
0.76293945,-66.59972000
0.79345703,-66.37817000
0.82397461,-66.18865000
0.85449219,-68.41779000
0.88500977,-76.03417000
0.91552734,-79.64419000
0.94604492,-72.73681000
0.97656250,-74.89709000
1.00708008,-81.62216000
1.03759766,-73.88398000
1.06811523,-75.78256000
1.09863281,-93.54117000
1.12915039,-77.08276000
1.15966797,-78.39104000
1.19018555,-78.90076000
1.22070313,-76.06563000
1.25122070,-75.85136000
1.28173828,-73.49671000
1.31225586,-72.57579000
1.34277344,-70.91719000
1.37329102,-68.95731000
1.40380859,-69.71207000
1.43432617,-72.37197000
1.46484375,-73.80509000
1.49536133,-76.64514000
1.52587891,-87.08012000
1.55639648,-75.07443000
1.58691406,-74.60941000
1.61743164,-80.04867000
1.64794922,-78.50122000
1.67846680,-77.57248000
1.70898438,-77.52267000
1.73950195,-79.30760000
1.77001953,-86.41262000
1.80053711,-101.34130000
1.83105469,-83.24596000
1.86157227,-77.21101000
1.89208984,-79.26831000
1.92260742,-83.23245000
1.95312500,-76.44266000
1.98364258,-75.16493000
2.01416016,-72.34435000
2.04467773,-71.07069000
2.07519531,-73.04922000
2.10571289,-78.25099000
2.13623047,-82.27741000
2.16674805,-77.08189000
2.19726563,-78.43305000
2.22778320,-102.67080000
2.25830078,-79.62836000
2.28881836,-76.06419000
2.31933594,-76.16653000
2.34985352,-79.16203000
2.38037109,-82.48229000
2.41088867,-76.78821000
2.44140625,-72.14640000
2.47192383,-72.17444000
2.50244141,-76.99084000
2.53295898,-83.64567000
2.56347656,-86.78680000
2.59399414,-92.23156000
2.62451172,-92.70814000
2.65502930,-97.27431000
2.68554688,-85.03539000
2.71606445,-88.32732000
2.74658203,-85.35175000
2.77709961,-79.19911000
2.80761719,-82.45477000
2.83813477,-77.70413000
2.86865234,-71.87900000
2.89916992,-70.96609000
2.92968750,-73.11906000
2.96020508,-77.42802000
2.99072266,-84.86153000
3.02124023,-72.35974000
3.05175781,-69.58989000
3.08227539,-71.76882000
3.11279297,-78.43885000
3.14331055,-90.16016000
3.17382813,-86.02814000
3.20434570,-83.20077000
3.23486328,-78.17082000
3.26538086,-75.46586000
3.29589844,-76.47676000
3.32641602,-85.47240000
3.35693359,-80.25386000
3.38745117,-73.91714000
3.41796875,-73.58403000
3.44848633,-77.76740000
3.47900391,-83.12292000
3.50952148,-84.41016000
3.54003906,-97.20153000
3.57055664,-82.45167000
3.60107422,-77.14799000
3.63159180,-75.81721000
3.66210938,-77.54781000
3.69262695,-80.26580000
3.72314453,-81.19032000
3.75366211,-82.89168000
3.78417969,-81.31874000
3.81469727,-79.37482000
3.84521484,-78.61808000
3.87573242,-81.28271000
3.90625000,-81.06789000
3.93676758,-75.51663000
3.96728516,-75.73949000
3.99780273,-83.18729000
4.02832031,-78.85034000
4.05883789,-75.59936000
4.08935547,-74.72865000
4.11987305,-72.95221000
4.15039063,-71.99670000
4.18090820,-73.88514000
4.21142578,-80.26691000
4.24194336,-84.28156000
4.27246094,-81.94016000
4.30297852,-80.43071000
4.33349609,-79.62835000
4.36401367,-77.50761000
4.39453125,-75.02834000
4.42504883,-75.03912000
4.45556641,-79.03091000
4.48608398,-81.80795000
4.51660156,-78.58380000
4.54711914,-78.29898000
4.57763672,-79.35759000
4.60815430,-78.25479000
4.63867188,-77.33705000
4.66918945,-81.62175000
4.69970703,-91.11691000
4.73022461,-76.91741000
4.76074219,-73.69846000
4.79125977,-74.61909000
4.82177734,-79.46364000
4.85229492,-88.58128000
4.88281250,-85.89339000
4.91333008,-77.19283000
4.94384766,-75.68205000
4.97436523,-74.56912000
5.00488281,-71.45909000
5.03540039,-71.66877000
5.06591797,-75.76077000
5.09643555,-80.21995000
5.12695313,-79.17841000
5.15747070,-75.69760000
5.18798828,-72.10328000
5.21850586,-70.71727000
5.24902344,-72.14270000
5.27954102,-76.76148000
5.31005859,-80.40428000
5.34057617,-75.91734000
5.37109375,-71.93085000
5.40161133,-70.18727000
5.43212891,-70.82137000
5.46264648,-73.17161000
5.49316406,-75.49706000
5.52368164,-75.16962000
5.55419922,-71.44291000
5.58471680,-68.69463000
5.61523438,-68.34618000
5.64575195,-70.46165000
5.67626953,-75.64616000
5.70678711,-87.43797000
5.73730469,-84.76402000
5.76782227,-79.94539000
5.79833984,-75.11163000
5.82885742,-71.07482000
5.85937500,-71.13377000
5.88989258,-78.61993000
5.92041016,-78.48465000
5.95092773,-72.49911000
5.98144531,-73.05003000
6.01196289,-74.21971000
6.04248047,-73.55249000
6.07299805,-72.06070000
6.10351563,-72.65290000
6.13403320,-77.55906000
6.16455078,-81.27220000
6.19506836,-75.84922000
6.22558594,-73.37049000
6.25610352,-74.06855000
6.28662109,-78.03577000
6.31713867,-86.04797000
6.34765625,-84.14899000
6.37817383,-77.03187000
6.40869141,-74.03105000
6.43920898,-73.88132000
6.46972656,-76.74138000
6.50024414,-81.96679000
6.53076172,-81.58929000
6.56127930,-79.01233000
6.59179688,-77.51009000
6.62231445,-76.75483000
6.65283203,-77.82711000
6.68334961,-83.41862000
6.71386719,-82.14161000
6.74438477,-76.61399000
6.77490234,-76.16996000
6.80541992,-79.26721000
6.83593750,-86.88187000
6.86645508,-88.22716000
6.89697266,-81.24283000
6.92749023,-76.64574000
6.95800781,-72.56979000
6.98852539,-70.95988000
7.01904297,-72.64553000
7.04956055,-78.15614000
7.08007813,-84.93606000
7.11059570,-82.64877000
7.14111328,-79.92773000
7.17163086,-77.91833000
7.20214844,-77.80194000
7.23266602,-81.18446000
7.26318359,-88.54595000
7.29370117,-82.14687000
7.32421875,-77.41781000
7.35473633,-75.32521000
7.38525391,-75.23405000
7.41577148,-76.81123000
7.44628906,-79.80437000
7.47680664,-82.92296000
7.50732422,-82.24809000
7.53784180,-82.77893000
7.56835938,-90.11890000
7.59887695,-96.04877000
7.62939453,-90.89114000
7.65991211,-92.73586000
7.69042969,-90.21209000
7.72094727,-89.40636000
7.75146484,-89.43813000
7.78198242,-85.66528000
7.81250000,-80.93158000
7.84301758,-79.54922000
7.87353516,-83.51970000
7.90405273,-102.21210000
7.93457031,-85.54920000
7.96508789,-85.73470000
7.99560547,-85.34721000
8.02612305,-80.59959000
8.05664063,-78.31728000
8.08715820,-78.80840000
8.11767578,-81.78699000
8.14819336,-84.54854000
8.17871094,-82.73293000
8.20922852,-79.01407000
8.23974609,-77.73750000
8.27026367,-80.05235000
8.30078125,-88.10197000
8.33129883,-96.58759000
8.36181641,-88.10403000
8.39233398,-85.22706000
8.42285156,-81.05298000
8.45336914,-78.43120000
8.48388672,-77.94615000
8.51440430,-79.29372000
8.54492188,-82.09573000
8.57543945,-84.64558000
8.60595703,-85.15187000
8.63647461,-86.41407000
8.66699219,-90.52896000
8.69750977,-92.85407000
8.72802734,-87.59327000
8.75854492,-84.41948000
8.78906250,-83.60524000
8.81958008,-83.61268000
8.85009766,-82.58417000
8.88061523,-81.19701000
8.91113281,-82.07665000
8.94165039,-89.14295000
8.97216797,-87.33156000
9.00268555,-81.22815000
9.03320313,-80.82460000
9.06372070,-80.90756000
9.09423828,-78.39153000
9.12475586,-77.50134000
9.15527344,-79.70650000
9.18579102,-83.70571000
9.21630859,-83.65192000
9.24682617,-84.56680000
9.27734375,-91.05430000
9.30786133,-100.29950000
9.33837891,-92.19146000
9.36889648,-91.87769000
9.39941406,-93.66257000
9.42993164,-92.83677000
9.46044922,-89.63306000
9.49096680,-89.61727000
9.52148438,-94.79221000
9.55200195,-90.72684000
9.58251953,-86.88302000
9.61303711,-87.64082000
9.64355469,-86.17815000
9.67407227,-82.53533000
9.70458984,-81.45631000
9.73510742,-83.26860000
9.76562500,-86.73720000
9.79614258,-83.61993000
9.82666016,-81.28493000
9.85717773,-82.84507000
9.88769531,-88.98350000
9.91821289,-87.19914000
9.94873047,-83.50912000
9.97924805,-84.30376000
10.00976563,-89.55376000
10.04028320,-106.26400000
10.07080078,-90.17921000
10.10131836,-87.73521000
10.13183594,-86.20351000
10.16235352,-84.53728000
10.19287109,-83.49702000
10.22338867,-82.54432000
10.25390625,-81.88011000
10.28442383,-81.79510000
10.31494141,-82.50451000
10.34545898,-84.77431000
10.37597656,-87.59525000
10.40649414,-81.79657000
10.43701172,-77.65533000
10.46752930,-76.79697000
10.49804688,-78.45786000
10.52856445,-82.07137000
10.55908203,-87.55012000
10.58959961,-94.23038000
10.62011719,-92.09229000
10.65063477,-90.15285000
10.68115234,-90.04503000
10.71166992,-86.42716000
10.74218750,-83.52988000
10.77270508,-83.63245000
10.80322266,-86.87320000
10.83374023,-94.62816000
10.86425781,-93.06843000
10.89477539,-89.59103000
10.92529297,-90.34373000
10.95581055,-88.37749000
10.98632813,-84.03481000
11.01684570,-81.57648000
11.04736328,-81.12298000
11.07788086,-82.48003000
11.10839844,-85.35317000
11.13891602,-91.75752000
11.16943359,-90.94860000
11.19995117,-84.71991000
11.23046875,-86.65717000
11.26098633,-92.07967000
11.29150391,-84.29680000
11.32202148,-81.74731000
11.35253906,-81.24693000
11.38305664,-80.24306000
11.41357422,-79.03790000
11.44409180,-79.76699000
11.47460938,-83.08514000
11.50512695,-86.32286000
11.53564453,-85.03918000
11.56616211,-85.50227000
11.59667969,-88.95209000
11.62719727,-97.46319000
11.65771484,-94.44940000
11.68823242,-84.54163000
11.71875000,-81.74648000
11.74926758,-82.53862000
11.77978516,-81.29825000
11.81030273,-78.39787000
11.84082031,-77.07450000
11.87133789,-76.90952000
11.90185547,-78.12383000
11.93237305,-81.56966000
11.96289063,-86.46988000
11.99340820,-86.30507000
12.02392578,-87.40089000
12.05444336,-95.54642000
12.08496094,-101.98320000
12.11547852,-92.15361000
12.14599609,-86.80795000
12.17651367,-88.03012000
12.20703125,-89.78648000
12.23754883,-83.60895000
12.26806641,-82.15629000
12.29858398,-80.79451000
12.32910156,-79.74718000
12.35961914,-80.45104000
12.39013672,-81.74335000
12.42065430,-84.33895000
12.45117188,-87.18700000
12.48168945,-82.70856000
12.51220703,-80.52432000
12.54272461,-81.29238000
12.57324219,-82.55611000
12.60375977,-82.34138000
12.63427734,-81.45553000
12.66479492,-80.95252000
12.69531250,-83.79050000
12.72583008,-89.71040000
12.75634766,-80.39809000
12.78686523,-78.36002000
12.81738281,-82.84130000
12.84790039,-90.82169000
12.87841797,-79.84222000
12.90893555,-78.60306000
12.93945313,-82.64468000
12.96997070,-93.43221000
13.00048828,-83.31027000
13.03100586,-79.82456000
13.06152344,-80.49117000
13.09204102,-85.56226000
13.12255859,-94.64424000
13.15307617,-93.30170000
13.18359375,-85.66987000
13.21411133,-84.56479000
13.24462891,-87.67625000
13.27514648,-91.50386000
13.30566406,-115.80890000
13.33618164,-88.23935000
13.36669922,-80.74548000
13.39721680,-77.23571000
13.42773438,-76.67232000
13.45825195,-76.08089000
13.48876953,-71.88355000
13.51928711,-67.38656000
13.54980469,-65.26514000
13.58032227,-66.00791000
13.61083984,-69.43658000
13.64135742,-74.82441000
13.67187500,-78.87846000
13.70239258,-71.20576000
13.73291016,-67.21256000
13.76342773,-67.05849000
13.79394531,-70.52213000
13.82446289,-79.16307000
13.85498047,-86.56467000
13.88549805,-79.46003000
13.91601563,-78.35162000
13.94653320,-81.16202000
13.97705078,-89.97407000
14.00756836,-86.29345000
14.03808594,-84.61403000
14.06860352,-86.39699000
14.09912109,-90.90059000
14.12963867,-93.78467000
14.16015625,-83.67675000
14.19067383,-82.37934000
14.22119141,-86.86029000
14.25170898,-92.75398000
14.28222656,-84.05420000
14.31274414,-82.55730000
14.34326172,-84.39259000
14.37377930,-86.39874000
14.40429688,-86.01694000
14.43481445,-82.21814000
14.46533203,-80.25156000
14.49584961,-80.08064000
14.52636719,-79.62302000
14.55688477,-78.33525000
14.58740234,-77.89890000
14.61791992,-79.60767000
14.64843750,-83.76680000
14.67895508,-88.39272000
14.70947266,-90.21815000
14.73999023,-83.85459000
14.77050781,-80.27084000
14.80102539,-79.85249000
14.83154297,-80.91631000
14.86206055,-82.17858000
14.89257813,-83.70437000
14.92309570,-84.72522000
14.95361328,-84.29475000
14.98413086,-85.51756000
15.01464844,-85.72109000
15.04516602,-83.08430000
15.07568359,-83.91235000
15.10620117,-89.99548000
15.13671875,-101.35640000
15.16723633,-90.74408000
15.19775391,-83.59277000
15.22827148,-79.86391000
15.25878906,-79.23587000
15.28930664,-81.38594000
15.31982422,-83.03403000
15.35034180,-83.31808000
15.38085938,-86.25020000
15.41137695,-89.77820000
15.44189453,-90.28864000
15.47241211,-89.37122000
15.50292969,-87.76710000
15.53344727,-85.62457000
15.56396484,-82.70665000
15.59448242,-81.63007000
15.62500000,-83.05975000
15.65551758,-86.69377000
15.68603516,-89.71253000
15.71655273,-88.29124000
15.74707031,-85.92114000
15.77758789,-83.83399000
15.80810547,-83.06183000
15.83862305,-83.36414000
15.86914063,-84.67273000
15.89965820,-89.15100000
15.93017578,-105.29120000
15.96069336,-89.83716000
15.99121094,-88.09609000
16.02172852,-92.41630000
16.05224609,-101.59520000
16.08276367,-97.53584000
16.11328125,-93.28143000
16.14379883,-89.03922000
16.17431641,-86.59989000
16.20483398,-87.00085000
16.23535156,-95.76414000
16.26586914,-91.73712000
16.29638672,-86.33667000
16.32690430,-88.11782000
16.35742188,-90.97055000
16.38793945,-88.28156000
16.41845703,-87.20203000
16.44897461,-87.98845000
16.47949219,-88.24113000
16.51000977,-86.48195000
16.54052734,-86.33389000
16.57104492,-88.01096000
16.60156250,-86.46240000
16.63208008,-83.66871000
16.66259766,-83.37203000
16.69311523,-86.28887000
16.72363281,-94.37570000
16.75415039,-103.04950000
16.78466797,-94.95795000
16.81518555,-94.09824000
16.84570313,-93.34160000
16.87622070,-91.01993000
16.90673828,-90.19106000
16.93725586,-92.00405000
16.96777344,-94.01447000
16.99829102,-93.43116000
17.02880859,-91.33042000
17.05932617,-88.64320000
17.08984375,-87.53366000
17.12036133,-88.78101000
17.15087891,-91.77600000
17.18139648,-94.03381000
17.21191406,-91.96468000
17.24243164,-89.85610000
17.27294922,-92.45026000
17.30346680,-106.75420000
17.33398438,-93.74542000
17.36450195,-90.47192000
17.39501953,-90.85613000
17.42553711,-92.29967000
17.45605469,-93.28728000
17.48657227,-95.18497000
17.51708984,-91.60129000
17.54760742,-86.01363000
17.57812500,-83.88710000
17.60864258,-84.58748000
17.63916016,-86.83052000
17.66967773,-87.55955000
17.70019531,-86.10628000
17.73071289,-85.37589000
17.76123047,-88.26186000
17.79174805,-97.05547000
17.82226563,-94.99686000
17.85278320,-95.00661000
17.88330078,-97.30383000
17.91381836,-97.10316000
17.94433594,-93.89091000
17.97485352,-90.69646000
18.00537109,-90.56144000
18.03588867,-94.76842000
18.06640625,-101.55710000
18.09692383,-103.01550000
18.12744141,-99.76440000
18.15795898,-97.75430000
18.18847656,-98.17644000
18.21899414,-96.86220000
18.24951172,-95.14352000
18.28002930,-93.35844000
18.31054688,-92.96536000
18.34106445,-93.58048000
18.37158203,-92.84440000
18.40209961,-89.92801000
18.43261719,-87.91867000
18.46313477,-88.99208000
18.49365234,-94.16174000
18.52416992,-104.90350000
18.55468750,-107.03380000
18.58520508,-98.60422000
18.61572266,-96.07711000
18.64624023,-98.80951000
18.67675781,-108.60400000
18.70727539,-108.97530000
18.73779297,-103.35690000
18.76831055,-104.40270000
18.79882813,-111.63540000
18.82934570,-106.67230000
18.85986328,-97.18425000
18.89038086,-93.19383000
18.92089844,-92.99416000
18.95141602,-96.13272000
18.98193359,-101.75040000
19.01245117,-98.30556000
19.04296875,-93.86214000
19.07348633,-92.68223000
19.10400391,-94.62415000
19.13452148,-98.61502000
19.16503906,-101.47590000
19.19555664,-105.35520000
19.22607422,-110.54240000
19.25659180,-111.65530000
19.28710938,-104.43510000
19.31762695,-99.27254000
19.34814453,-97.79960000
19.37866211,-96.72600000
19.40917969,-95.45521000
19.43969727,-96.08582000
19.47021484,-100.49270000
19.50073242,-100.95420000
19.53125000,-96.67114000
19.56176758,-98.62991000
19.59228516,-102.08040000
19.62280273,-95.61805000
19.65332031,-94.53526000
19.68383789,-96.69267000
19.71435547,-97.72063000
19.74487305,-97.91043000
19.77539063,-98.44116000
19.80590820,-100.12920000
19.83642578,-102.18590000
19.86694336,-98.00270000
19.89746094,-96.27438000
19.92797852,-96.94408000
19.95849609,-96.71059000
19.98901367,-95.23881000
20.01953125,-95.78853000
20.05004883,-99.37690000
20.08056641,-98.53932000
20.11108398,-95.50116000
20.14160156,-97.82080000
20.17211914,-97.42664000
20.20263672,-92.85210000
20.23315430,-94.18702000
20.26367188,-99.55014000
20.29418945,-96.73067000
20.32470703,-92.43638000
20.35522461,-88.64503000
20.38574219,-86.18679000
20.41625977,-85.59637000
20.44677734,-87.02757000
20.47729492,-89.11910000
20.50781250,-88.76968000
20.53833008,-89.23554000
20.56884766,-98.55669000
20.59936523,-90.52112000
20.62988281,-83.15417000
20.66040039,-81.00941000
20.69091797,-80.84581000
20.72143555,-81.16859000
20.75195313,-82.01167000
20.78247070,-84.17380000
20.81298828,-87.64748000
20.84350586,-90.94810000
20.87402344,-91.60423000
20.90454102,-90.76965000
20.93505859,-90.16219000
20.96557617,-89.96941000
20.99609375,-91.52589000
21.02661133,-92.59319000
21.05712891,-90.71147000
21.08764648,-90.14658000
21.11816406,-93.40950000
21.14868164,-102.17240000
21.17919922,-98.37747000
21.20971680,-91.61728000
21.24023438,-89.34915000
21.27075195,-91.25004000
21.30126953,-96.53514000
21.33178711,-110.48530000
21.36230469,-98.33701000
21.39282227,-91.14043000
21.42333984,-87.72274000
21.45385742,-87.57415000
21.48437500,-93.21086000
21.51489258,-103.00420000
21.54541016,-93.16350000
21.57592773,-93.56215000
21.60644531,-94.18338000
21.63696289,-93.13046000
21.66748047,-94.89404000
21.69799805,-97.96616000
21.72851563,-94.25961000
21.75903320,-89.38589000
21.78955078,-88.44331000
21.82006836,-90.98964000
21.85058594,-92.21459000
21.88110352,-94.68086000
21.91162109,-104.25570000
21.94213867,-96.98945000
21.97265625,-98.05215000
22.00317383,-97.42574000
22.03369141,-95.02300000
22.06420898,-96.01472000
22.09472656,-98.25318000
22.12524414,-92.59736000
22.15576172,-86.80755000
22.18627930,-86.53558000
22.21679688,-91.89625000
22.24731445,-103.46960000
22.27783203,-111.49600000
22.30834961,-105.33440000
22.33886719,-106.19170000
22.36938477,-94.64711000
22.39990234,-89.15951000
22.43041992,-88.48808000
22.46093750,-88.04917000
22.49145508,-86.13670000
22.52197266,-85.92168000
22.55249023,-87.86414000
22.58300781,-90.44872000
22.61352539,-91.53175000
22.64404297,-91.50821000
22.67456055,-91.41343000
22.70507813,-91.98402000
22.73559570,-92.61230000
22.76611328,-91.42207000
22.79663086,-88.62021000
22.82714844,-86.62378000
22.85766602,-86.18921000
22.88818359,-87.08640000
22.91870117,-88.99731000
22.94921875,-91.85609000
22.97973633,-96.54057000
23.01025391,-100.36760000
23.04077148,-95.62883000
23.07128906,-92.85338000
23.10180664,-90.97733000
23.13232422,-93.17650000
23.16284180,-101.18460000
23.19335938,-94.52248000
23.22387695,-96.40260000
23.25439453,-101.27260000
23.28491211,-95.45531000
23.31542969,-98.47370000
23.34594727,-100.44400000
23.37646484,-102.18800000
23.40698242,-103.01830000
23.43750000,-95.22858000
23.46801758,-96.33148000
23.49853516,-95.28754000
23.52905273,-92.61920000
23.55957031,-92.55730000
23.59008789,-92.95551000
23.62060547,-92.94930000
23.65112305,-95.88049000
23.68164063,-94.82932000
23.71215820,-89.03366000
23.74267578,-87.26508000
23.77319336,-88.24878000
23.80371094,-88.54076000
23.83422852,-86.81424000
23.86474609,-87.11585000
23.89526367,-89.79041000
23.92578125,-92.08626000
23.95629883,-91.08556000
23.98681641,-90.43015000
24.01733398,-94.52912000
24.04785156,-100.53830000
24.07836914,-91.57063000
24.10888672,-90.89590000
24.13940430,-91.55735000
24.16992188,-89.41754000
24.20043945,-88.66721000
24.23095703,-89.64349000
24.26147461,-92.42748000
24.29199219,-99.84345000
24.32250977,-115.50330000
24.35302734,-103.96720000
24.38354492,-97.40286000
24.41406250,-94.09920000
24.44458008,-92.94804000
24.47509766,-90.85709000
24.50561523,-90.30349000
24.53613281,-92.61119000
24.56665039,-98.30623000
24.59716797,-102.46310000
24.62768555,-95.59230000
24.65820313,-91.50196000
24.68872070,-89.37924000
24.71923828,-89.68314000
24.74975586,-93.65349000
24.78027344,-101.04960000
24.81079102,-93.90775000
24.84130859,-91.00761000
24.87182617,-91.53088000
24.90234375,-94.55685000
24.93286133,-97.69870000
24.96337891,-94.16396000
24.99389648,-89.43427000
25.02441406,-86.70951000
25.05493164,-86.60637000
25.08544922,-89.97617000
25.11596680,-95.49277000
25.14648438,-92.05978000
25.17700195,-91.21154000
25.20751953,-93.13663000
25.23803711,-93.19008000
25.26855469,-91.13374000
25.29907227,-90.59650000
25.32958984,-94.05845000
25.36010742,-107.49950000
25.39062500,-97.39956000
25.42114258,-95.47993000
25.45166016,-94.84818000
25.48217773,-91.73538000
25.51269531,-90.49849000
25.54321289,-91.06236000
25.57373047,-91.80533000
25.60424805,-91.67126000
25.63476563,-90.99615000
25.66528320,-90.30276000
25.69580078,-91.08868000
25.72631836,-92.98866000
25.75683594,-89.48647000
25.78735352,-85.90779000
25.81787109,-84.50263000
25.84838867,-84.50723000
25.87890625,-85.36630000
25.90942383,-87.58831000
25.93994141,-93.33817000
25.97045898,-111.42510000
26.00097656,-95.50843000
26.03149414,-93.24723000
26.06201172,-93.22438000
26.09252930,-94.09257000
26.12304688,-96.11066000
26.15356445,-99.21548000
26.18408203,-101.86260000
26.21459961,-102.76450000
26.24511719,-102.43640000
26.27563477,-97.16938000
26.30615234,-90.65567000
26.33666992,-87.17361000
26.36718750,-86.41742000
26.39770508,-87.96654000
26.42822266,-91.40623000
26.45874023,-94.35905000
26.48925781,-92.65030000
26.51977539,-92.30516000
26.55029297,-95.24291000
26.58081055,-94.38100000
26.61132813,-91.54727000
26.64184570,-91.79099000
26.67236328,-93.92902000
26.70288086,-95.82005000
26.73339844,-95.66437000
26.76391602,-94.92141000
26.79443359,-93.73073000
26.82495117,-90.58262000
26.85546875,-88.05527000
26.88598633,-88.29088000
26.91650391,-92.25399000
26.94702148,-94.85473000
26.97753906,-90.68264000
27.00805664,-89.11372000
27.03857422,-89.21710000
27.06909180,-90.00285000
27.09960938,-92.42496000
27.13012695,-96.81161000
27.16064453,-90.99733000
27.19116211,-87.47265000
27.22167969,-87.30692000
27.25219727,-89.40265000
27.28271484,-93.41394000
27.31323242,-95.05013000
27.34375000,-93.21842000
27.37426758,-93.30936000
27.40478516,-94.36282000
27.43530273,-93.78204000
27.46582031,-91.58247000
27.49633789,-90.59720000
27.52685547,-93.06456000
27.55737305,-96.56749000
27.58789063,-94.01009000
27.61840820,-95.02445000
27.64892578,-94.11095000
27.67944336,-91.71422000
27.70996094,-93.33909000
27.74047852,-98.42179000
27.77099609,-93.90674000
27.80151367,-88.08823000
27.83203125,-85.13134000
27.86254883,-84.54178000
27.89306641,-85.95221000
27.92358398,-88.42638000
27.95410156,-90.21220000
27.98461914,-90.48927000
28.01513672,-90.24500000
28.04565430,-90.11232000
28.07617188,-90.28595000
28.10668945,-92.27187000
28.13720703,-98.15583000
28.16772461,-101.58990000
28.19824219,-100.84740000
28.22875977,-104.09790000
28.25927734,-98.83327000
28.28979492,-93.34602000
28.32031250,-89.10614000
28.35083008,-86.91074000
28.38134766,-86.49042000
28.41186523,-87.47643000
28.44238281,-89.83636000
28.47290039,-93.01881000
28.50341797,-94.72188000
28.53393555,-92.97072000
28.56445313,-92.22694000
28.59497070,-92.66647000
28.62548828,-90.04127000
28.65600586,-88.71324000
28.68652344,-90.56599000
28.71704102,-93.40427000
28.74755859,-92.45129000
28.77807617,-91.81191000
28.80859375,-93.78139000
28.83911133,-99.96716000
28.86962891,-109.36160000
28.90014648,-96.77067000
28.93066406,-92.81656000
28.96118164,-91.93619000
28.99169922,-93.18341000
29.02221680,-94.53596000
29.05273438,-93.48424000
29.08325195,-92.67605000
29.11376953,-94.76668000
29.14428711,-95.15076000
29.17480469,-90.10863000
29.20532227,-88.29962000
29.23583984,-89.01757000
29.26635742,-90.57092000
29.29687500,-91.89613000
29.32739258,-92.64644000
29.35791016,-93.02141000
29.38842773,-93.91270000
29.41894531,-95.29582000
29.44946289,-96.80792000
29.47998047,-99.64418000
29.51049805,-105.43480000
29.54101563,-110.69830000
29.57153320,-104.23890000
29.60205078,-100.42770000
29.63256836,-100.61800000
29.66308594,-99.14119000
29.69360352,-95.29708000
29.72412109,-95.05463000
29.75463867,-96.89046000
29.78515625,-95.80875000
29.81567383,-95.12364000
29.84619141,-97.23057000
29.87670898,-105.48560000
29.90722656,-108.10330000
29.93774414,-102.25380000
29.96826172,-100.28750000
29.99877930,-96.01121000
30.02929688,-95.45804000
30.05981445,-98.64655000
30.09033203,-101.45950000
30.12084961,-98.78134000
30.15136719,-97.53889000
30.18188477,-99.70588000
30.21240234,-105.83770000
30.24291992,-111.21930000
30.27343750,-110.70180000
30.30395508,-97.97070000
30.33447266,-93.01265000
30.36499023,-90.69980000
30.39550781,-89.00387000
30.42602539,-88.01614000
30.45654297,-88.50621000
30.48706055,-90.12833000
30.51757813,-90.90646000
30.54809570,-90.66136000
30.57861328,-91.99648000
30.60913086,-97.27249000
30.63964844,-108.30060000
30.67016602,-102.13590000
30.70068359,-98.94650000
30.73120117,-94.56041000
30.76171875,-92.75510000
30.79223633,-93.57586000
30.82275391,-94.85594000
30.85327148,-94.06129000
30.88378906,-93.50404000
30.91430664,-95.90981000
30.94482422,-102.82410000
30.97534180,-98.78384000
31.00585938,-95.64906000
31.03637695,-96.12045000
31.06689453,-99.48785000
31.09741211,-106.77610000
31.12792969,-99.48521000
31.15844727,-95.46098000
31.18896484,-94.73717000
31.21948242,-95.27255000
31.25000000,-95.73280000
31.28051758,-96.20705000
31.31103516,-97.08347000
31.34155273,-97.03979000
31.37207031,-95.78507000
31.40258789,-95.90377000
31.43310547,-99.00323000
31.46362305,-105.48060000
31.49414063,-112.59960000
31.52465820,-113.95370000
31.55517578,-106.25560000
31.58569336,-100.17700000
31.61621094,-99.60855000
31.64672852,-101.95200000
31.67724609,-95.35674000
31.70776367,-91.57665000
31.73828125,-90.24370000
31.76879883,-90.13693000
31.79931641,-91.33904000
31.82983398,-94.44997000
31.86035156,-101.79580000
31.89086914,-105.14320000
31.92138672,-95.25146000
31.95190430,-90.87079000
31.98242188,-89.25918000
32.01293945,-90.84715000
32.04345703,-97.89703000
32.07397461,-103.24170000
32.10449219,-97.40521000
32.13500977,-94.31507000
32.16552734,-89.93231000
32.19604492,-88.33911000
32.22656250,-89.92661000
32.25708008,-95.34846000
32.28759766,-119.32470000
32.31811523,-97.60689000
32.34863281,-92.67249000
32.37915039,-92.41496000
32.40966797,-96.64384000
32.44018555,-103.93260000
32.47070313,-99.24834000
32.50122070,-97.28705000
32.53173828,-96.19974000
32.56225586,-93.98331000
32.59277344,-92.52930000
32.62329102,-92.75731000
32.65380859,-94.54079000
32.68432617,-98.40990000
32.71484375,-106.74340000
32.74536133,-103.44000000
32.77587891,-99.31377000
32.80639648,-99.62981000
32.83691406,-106.28730000
32.86743164,-113.56160000
32.89794922,-109.32160000
32.92846680,-99.76488000
32.95898438,-93.54697000
32.98950195,-92.08324000
33.02001953,-93.94207000
33.05053711,-98.66533000
33.08105469,-99.66904000
33.11157227,-96.06908000
33.14208984,-94.75623000
33.17260742,-95.31338000
33.20312500,-96.42557000
33.23364258,-97.17554000
33.26416016,-99.77335000
33.29467773,-102.44830000
33.32519531,-100.60590000
33.35571289,-104.28580000
33.38623047,-99.74585000
33.41674805,-95.41600000
33.44726563,-95.90016000
33.47778320,-99.92248000
33.50830078,-109.24940000
33.53881836,-100.76450000
33.56933594,-94.69318000
33.59985352,-92.25906000
33.63037109,-92.80940000
33.66088867,-97.44827000
33.69140625,-103.69980000
33.72192383,-97.31773000
33.75244141,-95.94394000
33.78295898,-98.11324000
33.81347656,-103.36370000
33.84399414,-110.56370000
33.87451172,-108.97390000
33.90502930,-101.93630000
33.93554688,-97.23438000
33.96606445,-94.73515000
33.99658203,-93.23341000
34.02709961,-92.90628000
34.05761719,-95.29971000
34.08813477,-101.15640000
34.11865234,-99.37779000
34.14916992,-98.03008000
34.17968750,-99.84092000
34.21020508,-100.49970000
34.24072266,-101.11310000
34.27124023,-106.36710000
34.30175781,-117.34910000
34.33227539,-106.23200000
34.36279297,-110.53290000
34.39331055,-114.65870000
34.42382813,-107.27250000
34.45434570,-106.87280000
34.48486328,-102.25430000
34.51538086,-98.85495000
34.54589844,-97.72373000
34.57641602,-97.94621000
34.60693359,-97.78987000
34.63745117,-95.99017000
34.66796875,-93.52512000
34.69848633,-91.79465000
34.72900391,-91.56236000
34.75952148,-93.18236000
34.79003906,-97.08511000
34.82055664,-103.94020000
34.85107422,-119.13570000
34.88159180,-103.59440000
34.91210938,-96.53419000
34.94262695,-94.18278000
34.97314453,-94.82456000
35.00366211,-98.05019000
35.03417969,-104.11940000
35.06469727,-113.93530000
35.09521484,-122.47730000
35.12573242,-112.09480000
35.15625000,-111.00380000
35.18676758,-106.55230000
35.21728516,-102.93620000
35.24780273,-101.11250000
35.27832031,-98.24849000
35.30883789,-95.81376000
35.33935547,-94.86523000
35.36987305,-95.14771000
35.40039063,-96.31596000
35.43090820,-97.93004000
35.46142578,-100.26760000
35.49194336,-104.82890000
35.52246094,-108.74210000
35.55297852,-106.02100000
35.58349609,-104.09770000
35.61401367,-107.93010000
35.64453125,-106.00930000
35.67504883,-102.02230000
35.70556641,-110.58810000
35.73608398,-102.12830000
35.76660156,-96.68518000
35.79711914,-97.21910000
35.82763672,-99.99493000
35.85815430,-100.09930000
35.88867188,-96.84685000
35.91918945,-93.90740000
35.94970703,-93.23470000
35.98022461,-95.09670000
36.01074219,-99.21843000
36.04125977,-99.31358000
36.07177734,-96.93551000
36.10229492,-96.90114000
36.13281250,-98.06091000
36.16333008,-98.82831000
36.19384766,-99.62570000
36.22436523,-101.92690000
36.25488281,-102.78480000
36.28540039,-105.69170000
36.31591797,-111.86750000
36.34643555,-99.80407000
36.37695313,-98.13440000
36.40747070,-99.10678000
36.43798828,-98.70483000
36.46850586,-97.86958000
36.49902344,-97.84077000
36.52954102,-97.17798000
36.56005859,-96.18661000
36.59057617,-96.11432000
36.62109375,-95.36996000
36.65161133,-95.33218000
36.68212891,-98.03481000
36.71264648,-102.88090000
36.74316406,-99.30043000
36.77368164,-96.28770000
36.80419922,-96.62204000
36.83471680,-98.64534000
36.86523438,-100.16600000
36.89575195,-100.20040000
36.92626953,-98.57629000
36.95678711,-97.87982000
36.98730469,-98.99290000
37.01782227,-98.79279000
37.04833984,-95.23967000
37.07885742,-92.52122000
37.10937500,-92.45485000
37.13989258,-95.94552000
37.17041016,-101.28010000
37.20092773,-99.42493000
37.23144531,-99.79182000
37.26196289,-106.72460000
37.29248047,-104.29700000
37.32299805,-98.48885000
37.35351563,-98.28690000
37.38403320,-98.02746000
37.41455078,-95.91183000
37.44506836,-94.66037000
37.47558594,-93.49361000
37.50610352,-91.94695000
37.53662109,-91.26073000
37.56713867,-92.23340000
37.59765625,-95.37930000
37.62817383,-100.64960000
37.65869141,-103.88020000
37.68920898,-104.21810000
37.71972656,-104.82430000
37.75024414,-102.56100000
37.78076172,-101.29870000
37.81127930,-107.73320000
37.84179688,-98.90054000
37.87231445,-92.62757000
37.90283203,-90.21473000
37.93334961,-89.46129000
37.96386719,-89.53828000
37.99438477,-90.73662000
38.02490234,-93.83404000
38.05541992,-99.52510000
38.08593750,-110.13650000
38.11645508,-97.74202000
38.14697266,-93.40690000
38.17749023,-92.48062000
38.20800781,-92.43343000
38.23852539,-92.22237000
38.26904297,-92.69116000
38.29956055,-94.53221000
38.33007813,-97.35801000
38.36059570,-100.18980000
38.39111328,-102.82450000
38.42163086,-100.37910000
38.45214844,-95.39707000
38.48266602,-93.39333000
38.51318359,-93.46107000
38.54370117,-93.35133000
38.57421875,-92.54863000
38.60473633,-92.60049000
38.63525391,-92.38148000
38.66577148,-90.88772000
38.69628906,-89.86835000
38.72680664,-89.55356000
38.75732422,-89.82346000
38.78784180,-90.76550000
38.81835938,-92.06908000
38.84887695,-94.22721000
38.87939453,-98.51431000
38.90991211,-101.53600000
38.94042969,-100.58970000
38.97094727,-99.31434000
39.00146484,-94.72587000
39.03198242,-92.46209000
39.06250000,-93.70360000
39.09301758,-95.86110000
39.12353516,-92.77924000
39.15405273,-92.14790000
39.18457031,-95.91739000
39.21508789,-101.94200000
39.24560547,-110.32650000
39.27612305,-101.59720000
39.30664063,-93.75607000
39.33715820,-92.47725000
39.36767578,-96.73820000
39.39819336,-104.04200000
39.42871094,-95.16915000
39.45922852,-94.74815000
39.48974609,-101.53040000
39.52026367,-96.61356000
39.55078125,-90.02763000
39.58129883,-86.87218000
39.61181641,-85.65648000
39.64233398,-86.30790000
39.67285156,-89.02123000
39.70336914,-92.55528000
39.73388672,-90.56726000
39.76440430,-87.54165000
39.79492188,-86.85314000
39.82543945,-88.68461000
39.85595703,-93.89880000
39.88647461,-110.28950000
39.91699219,-102.48480000
39.94750977,-101.67760000
39.97802734,-108.96620000
40.00854492,-99.31612000
40.03906250,-92.78408000
40.06958008,-88.50598000
40.10009766,-86.86028000
40.13061523,-87.77202000
40.16113281,-88.58160000
40.19165039,-87.16259000
40.22216797,-86.94282000
40.25268555,-89.31256000
40.28320313,-95.12019000
40.31372070,-95.40228000
40.34423828,-89.16391000
40.37475586,-87.35083000
40.40527344,-89.07053000
40.43579102,-92.99628000
40.46630859,-95.01599000
40.49682617,-92.28355000
40.52734375,-90.21310000
40.55786133,-91.45244000
40.58837891,-92.05379000
40.61889648,-90.01466000
40.64941406,-90.99794000
40.67993164,-94.25906000
40.71044922,-92.92346000
40.74096680,-90.80458000
40.77148438,-88.82187000
40.80200195,-86.36552000
40.83251953,-84.73692000
40.86303711,-84.85267000
40.89355469,-87.11966000
40.92407227,-90.34943000
40.95458984,-90.29131000
40.98510742,-89.87533000
41.01562500,-92.08310000
41.04614258,-95.05685000
41.07666016,-93.97743000
41.10717773,-93.73360000
41.13769531,-97.45545000
41.16821289,-105.97770000
41.19873047,-95.40261000
41.22924805,-95.23413000
41.25976563,-97.99951000
41.29028320,-96.49911000
41.32080078,-98.35843000
41.35131836,-96.57581000
41.38183594,-91.93066000
41.41235352,-91.86738000
41.44287109,-98.81611000
41.47338867,-97.01247000
41.50390625,-92.02997000
41.53442383,-91.65739000
41.56494141,-90.70160000
41.59545898,-87.62574000
41.62597656,-84.67022000
41.65649414,-84.32451000
41.68701172,-88.55244000
41.71752930,-100.84230000
41.74804688,-87.15852000
41.77856445,-82.87311000
41.80908203,-80.99753000
41.83959961,-80.50114000
41.87011719,-81.59455000
41.90063477,-84.40307000
41.93115234,-87.53361000
41.96166992,-87.88192000
41.99218750,-86.20121000
42.02270508,-85.32146000
42.05322266,-85.96249000
42.08374023,-87.92359000
42.11425781,-93.87649000
42.14477539,-95.46386000
42.17529297,-86.35395000
42.20581055,-83.99650000
42.23632813,-84.15363000
42.26684570,-84.93773000
42.29736328,-85.60520000
42.32788086,-86.54186000
42.35839844,-87.63085000
42.38891602,-88.36417000
42.41943359,-89.88830000
42.44995117,-96.68846000
42.48046875,-95.70839000
42.51098633,-87.31932000
42.54150391,-86.25970000
42.57202148,-90.27767000
42.60253906,-98.49428000
42.63305664,-99.76227000
42.66357422,-109.79610000
42.69409180,-93.16822000
42.72460938,-90.57560000
42.75512695,-92.44719000
42.78564453,-89.81425000
42.81616211,-85.15553000
42.84667969,-83.52641000
42.87719727,-84.62943000
42.90771484,-88.09593000
42.93823242,-90.92025000
42.96875000,-90.27099000
42.99926758,-89.22932000
43.02978516,-89.08444000
43.06030273,-90.72363000
43.09082031,-95.32334000
43.12133789,-107.78830000
43.15185547,-97.82635000
43.18237305,-93.81409000
43.21289063,-95.77678000
43.24340820,-107.07080000
43.27392578,-107.03710000
43.30444336,-107.69490000
43.33496094,-94.30826000
43.36547852,-90.74924000
43.39599609,-91.75626000
43.42651367,-95.64205000
43.45703125,-101.21790000
43.48754883,-109.44790000
43.51806641,-98.70408000
43.54858398,-96.21484000
43.57910156,-95.02834000
43.60961914,-92.54612000
43.64013672,-89.86972000
43.67065430,-87.08350000
43.70117188,-85.78148000
43.73168945,-86.19823000
43.76220703,-88.25349000
43.79272461,-92.55000000
43.82324219,-93.67062000
43.85375977,-89.77771000
43.88427734,-89.46658000
43.91479492,-92.69640000
43.94531250,-97.52524000
43.97583008,-95.19856000
44.00634766,-89.51665000
44.03686523,-87.64041000
44.06738281,-89.83112000
44.09790039,-100.05260000
44.12841797,-95.86350000
44.15893555,-89.52366000
44.18945313,-88.64709000
44.21997070,-90.85063000
44.25048828,-94.69275000
44.28100586,-97.38677000
44.31152344,-96.02439000
44.34204102,-90.25612000
44.37255859,-87.62746000
44.40307617,-88.40350000
44.43359375,-93.43190000
44.46411133,-100.46860000
44.49462891,-90.66136000
44.52514648,-87.85368000
44.55566406,-89.15634000
44.58618164,-94.43744000
44.61669922,-102.16700000
44.64721680,-102.60100000
44.67773438,-95.21864000
44.70825195,-91.27122000
44.73876953,-89.68400000
44.76928711,-89.29132000
44.79980469,-89.79065000
44.83032227,-90.59361000
44.86083984,-91.18390000
44.89135742,-91.84525000
44.92187500,-92.63676000
44.95239258,-92.53056000
44.98291016,-90.77000000
45.01342773,-89.05641000
45.04394531,-89.52689000
45.07446289,-93.70253000
45.10498047,-95.38712000
45.13549805,-90.26215000
45.16601563,-88.73608000
45.19653320,-90.12386000
45.22705078,-94.18637000
45.25756836,-100.16540000
45.28808594,-100.22060000
45.31860352,-93.38909000
45.34912109,-89.78764000
45.37963867,-89.67060000
45.41015625,-92.60493000
45.44067383,-97.01051000
45.47119141,-98.20502000
45.50170898,-97.27494000
45.53222656,-95.13699000
45.56274414,-94.01738000
45.59326172,-94.81277000
45.62377930,-97.19870000
45.65429688,-97.07753000
45.68481445,-92.73624000
45.71533203,-90.86288000
45.74584961,-91.34681000
45.77636719,-92.97775000
45.80688477,-93.38493000
45.83740234,-91.25693000
45.86791992,-89.69751000
45.89843750,-90.38960000
45.92895508,-92.37202000
45.95947266,-92.79098000
45.98999023,-94.17712000
46.02050781,-94.68223000
46.05102539,-92.75429000
46.08154297,-94.80141000
46.11206055,-105.80980000
46.14257813,-98.19976000
46.17309570,-94.78288000
46.20361328,-96.68414000
46.23413086,-100.94400000
46.26464844,-99.32367000
46.29516602,-98.92171000
46.32568359,-92.49732000
46.35620117,-87.70068000
46.38671875,-86.48854000
46.41723633,-88.05573000
46.44775391,-92.11488000
46.47827148,-99.26691000
46.50878906,-104.32690000
46.53930664,-101.59740000
46.56982422,-105.31960000
46.60034180,-107.07130000
46.63085938,-97.22449000
46.66137695,-92.65306000
46.69189453,-90.24445000
46.72241211,-90.00064000
46.75292969,-92.35921000
46.78344727,-96.37131000
46.81396484,-95.23134000
46.84448242,-93.51369000
46.87500000,-94.68843000
46.90551758,-97.78225000
46.93603516,-101.20410000
46.96655273,-100.04920000
46.99707031,-93.87341000
47.02758789,-92.07305000
47.05810547,-92.91272000
47.08862305,-93.04936000
47.11914063,-93.62838000
47.14965820,-95.14403000
47.18017578,-94.06761000
47.21069336,-92.29725000
47.24121094,-91.30103000
47.27172852,-90.93537000
47.30224609,-91.53299000
47.33276367,-93.69797000
47.36328125,-97.26994000
47.39379883,-98.09357000
47.42431641,-97.91656000
47.45483398,-100.95570000
47.48535156,-100.98370000
47.51586914,-101.07370000
47.54638672,-114.21110000
47.57690430,-102.73200000
47.60742188,-98.57709000
47.63793945,-98.09544000
47.66845703,-97.48808000
47.69897461,-97.09487000
47.72949219,-96.65784000
47.76000977,-96.64043000
47.79052734,-97.73070000
47.82104492,-99.22195000
47.85156250,-98.29146000
47.88208008,-95.90260000
47.91259766,-94.87428000
47.94311523,-95.39154000
47.97363281,-96.57562000
48.00415039,-97.43115000
48.03466797,-99.25513000
48.06518555,-104.36210000
48.09570313,-98.32611000
48.12622070,-93.03819000
48.15673828,-91.08672000
48.18725586,-90.79352000
48.21777344,-91.21588000
48.24829102,-92.99827000
48.27880859,-97.51927000
48.30932617,-98.22260000
48.33984375,-94.38956000
48.37036133,-93.46983000
48.40087891,-94.78199000
48.43139648,-96.38777000
48.46191406,-97.01675000
48.49243164,-99.31683000
48.52294922,-100.01490000
48.55346680,-93.66397000
48.58398438,-91.01659000
48.61450195,-92.14661000
48.64501953,-93.78210000
48.67553711,-91.40023000
48.70605469,-90.75539000
48.73657227,-93.25692000
48.76708984,-98.90909000
48.79760742,-107.18440000
48.82812500,-113.16000000
48.85864258,-109.16900000
48.88916016,-105.00130000
48.91967773,-102.63190000
48.95019531,-99.10344000
48.98071289,-93.06637000
49.01123047,-88.79364000
49.04174805,-87.43256000
49.07226563,-89.05853000
49.10278320,-93.59237000
49.13330078,-96.38642000
49.16381836,-94.71230000
49.19433594,-95.24448000
49.22485352,-98.10055000
49.25537109,-104.00140000
49.28588867,-100.90330000
49.31640625,-93.19630000
49.34692383,-90.51208000
49.37744141,-91.19730000
49.40795898,-93.92761000
49.43847656,-94.30925000
49.46899414,-93.04470000
49.49951172,-93.14604000
49.53002930,-95.02415000
49.56054688,-98.46375000
49.59106445,-103.93390000
49.62158203,-107.69570000
49.65209961,-94.53164000
49.68261719,-89.67746000
49.71313477,-88.56009000
49.74365234,-89.87164000
49.77416992,-92.14940000
49.80468750,-93.57556000
49.83520508,-93.45376000
49.86572266,-94.17210000
49.89624023,-97.33331000
49.92675781,-101.32390000
49.95727539,-97.21066000
49.98779297,-92.15821000
50.01831055,-90.18607000
