Frequency,Channel A
(MHz),(dBu)

0.00000000,-22.62735000
0.03051758,-23.01542000
0.06103516,-28.24590000
0.09155273,-37.89474000
0.12207031,-53.47900000
0.15258789,-61.76050000
0.18310547,-60.57119000
0.21362305,-59.46854000
0.24414063,-64.42046000
0.27465820,-74.84395000
0.30517578,-66.50748000
0.33569336,-65.23264000
0.36621094,-63.32853000
0.39672852,-60.90050000
0.42724609,-60.12576000
0.45776367,-60.95900000
0.48828125,-62.86028000
0.51879883,-63.40890000
0.54931641,-61.75361000
0.57983398,-60.26116000
0.61035156,-58.99068000
0.64086914,-57.89449000
0.67138672,-58.23498000
0.70190430,-59.61600000
0.73242188,-60.45347000
0.76293945,-61.62838000
0.79345703,-63.50853000
0.82397461,-65.40710000
0.85449219,-69.33081000
0.88500977,-74.88253000
0.91552734,-73.67558000
0.94604492,-81.36102000
0.97656250,-79.48308000
1.00708008,-70.69974000
1.03759766,-65.46366000
1.06811523,-64.07269000
1.09863281,-65.84851000
1.12915039,-69.27367000
1.15966797,-75.98862000
1.19018555,-82.83741000
1.22070313,-82.00832000
1.25122070,-77.28748000
1.28173828,-73.74432000
1.31225586,-76.81227000
1.34277344,-78.48954000
1.37329102,-71.76080000
1.40380859,-69.55598000
1.43432617,-71.75105000
1.46484375,-74.95258000
1.49536133,-73.68967000
1.52587891,-74.51911000
1.55639648,-73.90195000
1.58691406,-74.28954000
1.61743164,-84.10434000
1.64794922,-78.38666000
1.67846680,-74.02398000
1.70898438,-77.54973000
1.73950195,-84.91738000
1.77001953,-75.98166000
1.80053711,-76.71767000
1.83105469,-84.94102000
1.86157227,-79.40895000
1.89208984,-81.82860000
1.92260742,-83.63018000
1.95312500,-77.43538000
1.98364258,-76.78230000
2.01416016,-72.26206000
2.04467773,-69.09231000
2.07519531,-68.17928000
2.10571289,-67.45496000
2.13623047,-67.06477000
2.16674805,-69.90059000
2.19726563,-81.48041000
2.22778320,-79.02268000
2.25830078,-81.48952000
2.28881836,-82.23125000
2.31933594,-74.86124000
2.34985352,-74.97771000
2.38037109,-77.55554000
2.41088867,-78.73093000
2.44140625,-81.97182000
2.47192383,-77.88287000
2.50244141,-71.22385000
2.53295898,-70.91194000
2.56347656,-77.07280000
2.59399414,-92.72399000
2.62451172,-82.64099000
2.65502930,-90.42583000
2.68554688,-82.85465000
2.71606445,-82.19446000
2.74658203,-81.70502000
2.77709961,-75.89331000
2.80761719,-75.93774000
2.83813477,-81.99442000
2.86865234,-79.33301000
2.89916992,-77.33539000
2.92968750,-81.29463000
2.96020508,-87.59376000
2.99072266,-81.45930000
3.02124023,-74.19424000
3.05175781,-72.48252000
3.08227539,-77.35417000
3.11279297,-80.32592000
3.14331055,-71.38196000
3.17382813,-70.06689000
3.20434570,-71.09547000
3.23486328,-72.21412000
3.26538086,-76.62302000
3.29589844,-78.40839000
3.32641602,-75.70195000
3.35693359,-86.24412000
3.38745117,-77.30875000
3.41796875,-72.98827000
3.44848633,-74.63469000
3.47900391,-80.66445000
3.50952148,-83.53587000
3.54003906,-82.24547000
3.57055664,-91.88094000
3.60107422,-80.49267000
3.63159180,-81.76704000
3.66210938,-79.71997000
3.69262695,-75.93831000
3.72314453,-75.76855000
3.75366211,-77.76551000
3.78417969,-83.87702000
3.81469727,-100.89540000
3.84521484,-91.16589000
3.87573242,-80.95699000
3.90625000,-78.23755000
3.93676758,-78.03509000
3.96728516,-75.18947000
3.99780273,-76.19308000
4.02832031,-83.36237000
4.05883789,-77.68137000
4.08935547,-77.39325000
4.11987305,-82.73558000
4.15039063,-78.47949000
4.18090820,-74.53810000
4.21142578,-71.76716000
4.24194336,-71.45296000
4.27246094,-75.79398000
4.30297852,-84.72309000
4.33349609,-80.14516000
4.36401367,-83.31639000
4.39453125,-89.35470000
4.42504883,-87.44603000
4.45556641,-79.63111000
4.48608398,-77.25536000
4.51660156,-81.26732000
4.54711914,-85.05759000
4.57763672,-80.76709000
4.60815430,-77.69215000
4.63867188,-78.90565000
4.66918945,-82.18564000
4.69970703,-82.85552000
4.73022461,-77.72290000
4.76074219,-75.37791000
4.79125977,-78.42426000
4.82177734,-81.81444000
4.85229492,-79.08141000
4.88281250,-80.76347000
4.91333008,-85.62859000
4.94384766,-86.07834000
4.97436523,-94.98718000
5.00488281,-82.78748000
5.03540039,-76.33452000
5.06591797,-76.83316000
5.09643555,-82.70318000
5.12695313,-78.96169000
5.15747070,-76.50738000
5.18798828,-77.54223000
5.21850586,-78.30193000
5.24902344,-76.94788000
5.27954102,-77.17618000
5.31005859,-82.69099000
5.34057617,-88.33030000
5.37109375,-78.27924000
5.40161133,-77.20134000
5.43212891,-80.11761000
5.46264648,-81.89969000
5.49316406,-79.45558000
5.52368164,-78.56770000
5.55419922,-79.94032000
5.58471680,-82.99744000
5.61523438,-83.22958000
5.64575195,-78.78745000
5.67626953,-75.44559000
5.70678711,-74.32543000
5.73730469,-75.04532000
5.76782227,-75.07988000
5.79833984,-76.03194000
5.82885742,-80.45314000
5.85937500,-83.94086000
5.88989258,-83.36249000
5.92041016,-76.81603000
5.95092773,-75.02246000
5.98144531,-77.28822000
6.01196289,-74.92698000
6.04248047,-72.38967000
6.07299805,-74.48816000
6.10351563,-80.91407000
6.13403320,-79.24348000
6.16455078,-75.47713000
6.19506836,-72.45584000
6.22558594,-71.41934000
6.25610352,-71.54538000
6.28662109,-71.71266000
6.31713867,-73.47871000
6.34765625,-80.31732000
6.37817383,-83.04890000
6.40869141,-76.67349000
6.43920898,-75.26103000
6.46972656,-75.95951000
6.50024414,-81.56582000
6.53076172,-80.99067000
6.56127930,-75.66488000
6.59179688,-75.88739000
6.62231445,-79.23479000
6.65283203,-81.20421000
6.68334961,-78.87987000
6.71386719,-77.54790000
6.74438477,-78.95697000
6.77490234,-85.53405000
6.80541992,-81.03578000
6.83593750,-75.80982000
6.86645508,-75.44558000
6.89697266,-79.20717000
6.92749023,-84.48197000
6.95800781,-78.59301000
6.98852539,-75.92525000
7.01904297,-77.24747000
7.04956055,-85.83301000
7.08007813,-85.05261000
7.11059570,-78.46567000
7.14111328,-79.64118000
7.17163086,-89.54987000
7.20214844,-82.37071000
7.23266602,-77.39759000
7.26318359,-76.54585000
7.29370117,-77.84942000
7.32421875,-81.07996000
7.35473633,-84.19478000
7.38525391,-83.22829000
7.41577148,-85.40970000
7.44628906,-92.71651000
7.47680664,-83.93463000
7.50732422,-80.62990000
7.53784180,-79.55271000
7.56835938,-79.51552000
7.59887695,-82.22404000
7.62939453,-85.31098000
7.65991211,-81.19381000
7.69042969,-80.89108000
7.72094727,-82.76559000
7.75146484,-79.19058000
7.78198242,-77.34637000
7.81250000,-79.21984000
7.84301758,-84.36993000
7.87353516,-86.37242000
7.90405273,-82.37473000
7.93457031,-80.04539000
7.96508789,-82.30394000
7.99560547,-103.70220000
8.02612305,-83.13209000
8.05664063,-79.95262000
8.08715820,-81.68430000
8.11767578,-86.01585000
8.14819336,-86.58136000
8.17871094,-83.88146000
8.20922852,-82.73251000
8.23974609,-85.70715000
8.27026367,-83.03061000
8.30078125,-77.59885000
8.33129883,-76.75478000
8.36181641,-80.23265000
8.39233398,-92.40806000
8.42285156,-86.24323000
8.45336914,-81.07637000
8.48388672,-80.01772000
8.51440430,-82.22732000
8.54492188,-88.71927000
8.57543945,-85.37303000
8.60595703,-81.83791000
8.63647461,-82.14915000
8.66699219,-85.17136000
8.69750977,-89.97289000
8.72802734,-89.24785000
8.75854492,-87.15092000
8.78906250,-89.13248000
8.81958008,-87.64584000
8.85009766,-82.90353000
8.88061523,-82.26253000
8.91113281,-86.72989000
8.94165039,-99.57869000
8.97216797,-83.60104000
9.00268555,-80.13351000
9.03320313,-80.98251000
9.06372070,-86.95808000
9.09423828,-95.92774000
9.12475586,-88.73020000
9.15527344,-90.02052000
9.18579102,-98.05035000
9.21630859,-99.46724000
9.24682617,-89.99083000
9.27734375,-86.88705000
9.30786133,-88.30066000
9.33837891,-90.19965000
9.36889648,-85.43281000
9.39941406,-84.49058000
9.42993164,-88.32468000
9.46044922,-98.28595000
9.49096680,-96.86154000
9.52148438,-92.59802000
9.55200195,-88.62022000
9.58251953,-86.03282000
9.61303711,-86.07510000
9.64355469,-88.47192000
9.67407227,-88.25746000
9.70458984,-85.32199000
9.73510742,-83.95793000
9.76562500,-84.35410000
9.79614258,-86.35201000
9.82666016,-88.99776000
9.85717773,-89.42426000
9.88769531,-90.98758000
9.91821289,-100.61810000
9.94873047,-93.87511000
9.97924805,-94.19165000
10.00976563,-100.99780000
10.04028320,-91.52576000
10.07080078,-92.83900000
10.10131836,-113.21320000
10.13183594,-95.23997000
10.16235352,-92.44002000
10.19287109,-91.65435000
10.22338867,-91.94916000
10.25390625,-88.64136000
10.28442383,-83.66822000
10.31494141,-82.65916000
10.34545898,-86.17216000
10.37597656,-92.49947000
10.40649414,-85.37965000
10.43701172,-82.40009000
10.46752930,-82.05957000
10.49804688,-83.25944000
10.52856445,-87.85859000
10.55908203,-100.36380000
10.58959961,-90.72373000
10.62011719,-94.46028000
10.65063477,-88.38306000
10.68115234,-82.60121000
10.71166992,-81.04202000
10.74218750,-81.59484000
10.77270508,-83.65527000
10.80322266,-83.61266000
10.83374023,-80.92332000
10.86425781,-81.26057000
10.89477539,-87.58620000
10.92529297,-87.59797000
10.95581055,-80.93594000
10.98632813,-79.97957000
11.01684570,-82.43061000
11.04736328,-86.43466000
11.07788086,-85.04723000
11.10839844,-82.66758000
11.13891602,-81.45913000
11.16943359,-80.98778000
11.19995117,-81.50074000
11.23046875,-82.54230000
11.26098633,-84.93109000
11.29150391,-94.75617000
11.32202148,-84.34163000
11.35253906,-77.62666000
11.38305664,-75.55327000
11.41357422,-76.40604000
11.44409180,-79.24998000
11.47460938,-82.30327000
11.50512695,-82.12465000
11.53564453,-79.32414000
11.56616211,-78.82945000
11.59667969,-83.83812000
11.62719727,-85.07758000
11.65771484,-79.64653000
11.68823242,-81.83246000
11.71875000,-81.73747000
11.74926758,-75.30636000
11.77978516,-72.71296000
11.81030273,-72.47758000
11.84082031,-73.82967000
11.87133789,-74.83379000
11.90185547,-73.28261000
11.93237305,-72.67949000
11.96289063,-75.34377000
11.99340820,-80.39655000
12.02392578,-78.06270000
12.05444336,-77.07450000
12.08496094,-78.50539000
12.11547852,-77.61443000
12.14599609,-75.61177000
12.17651367,-74.63249000
12.20703125,-74.67888000
12.23754883,-76.55170000
12.26806641,-80.85854000
12.29858398,-83.80418000
12.32910156,-85.77470000
12.35961914,-99.74887000
12.39013672,-87.53059000
12.42065430,-81.44782000
12.45117188,-78.69897000
12.48168945,-76.96890000
12.51220703,-76.28218000
12.54272461,-76.29832000
12.57324219,-75.62395000
12.60375977,-74.80768000
12.63427734,-75.83012000
12.66479492,-79.64183000
12.69531250,-81.25363000
12.72583008,-78.38647000
12.75634766,-77.37406000
12.78686523,-78.15439000
12.81738281,-79.81435000
12.84790039,-77.65900000
12.87841797,-75.10781000
12.90893555,-75.22266000
12.93945313,-77.70950000
12.96997070,-80.17236000
13.00048828,-79.73281000
13.03100586,-79.77288000
13.06152344,-80.01540000
13.09204102,-78.04554000
13.12255859,-75.93061000
13.15307617,-74.66509000
13.18359375,-74.87103000
13.21411133,-77.95591000
13.24462891,-80.48443000
13.27514648,-74.90981000
13.30566406,-72.57203000
13.33618164,-73.42905000
13.36669922,-77.53194000
13.39721680,-87.06712000
13.42773438,-82.51260000
13.45825195,-76.53341000
13.48876953,-71.71004000
13.51928711,-67.90775000
13.54980469,-66.39525000
13.58032227,-68.03668000
13.61083984,-73.72977000
13.64135742,-74.23465000
13.67187500,-68.87624000
13.70239258,-66.16914000
13.73291016,-65.53255000
13.76342773,-67.50744000
13.79394531,-73.80486000
13.82446289,-79.48151000
13.85498047,-75.65193000
13.88549805,-78.83347000
13.91601563,-88.22880000
13.94653320,-80.92783000
13.97705078,-78.47405000
14.00756836,-79.03545000
14.03808594,-81.55031000
14.06860352,-85.14151000
14.09912109,-87.88125000
14.12963867,-88.04037000
14.16015625,-85.86567000
14.19067383,-82.55246000
14.22119141,-80.28270000
14.25170898,-80.70057000
14.28222656,-84.85979000
14.31274414,-84.06845000
14.34326172,-78.42921000
14.37377930,-75.74835000
14.40429688,-75.51265000
14.43481445,-78.04658000
14.46533203,-84.13743000
14.49584961,-87.39139000
14.52636719,-84.56206000
14.55688477,-83.18299000
14.58740234,-82.87713000
14.61791992,-87.05125000
14.64843750,-87.23293000
14.67895508,-77.47781000
14.70947266,-74.07054000
14.73999023,-73.64333000
14.77050781,-75.29768000
14.80102539,-78.20292000
14.83154297,-78.25397000
14.86206055,-75.57029000
14.89257813,-74.44923000
14.92309570,-75.31316000
14.95361328,-77.15436000
14.98413086,-77.91084000
15.01464844,-77.52654000
15.04516602,-77.10780000
15.07568359,-76.60046000
15.10620117,-75.96000000
15.13671875,-75.46747000
15.16723633,-75.19900000
15.19775391,-75.10876000
15.22827148,-75.45354000
15.25878906,-76.63535000
15.28930664,-77.88997000
15.31982422,-77.52407000
15.35034180,-76.69125000
15.38085938,-76.75461000
15.41137695,-78.04890000
15.44189453,-80.58824000
15.47241211,-81.31260000
15.50292969,-78.34724000
15.53344727,-77.19557000
15.56396484,-79.34928000
15.59448242,-85.82046000
15.62500000,-91.40825000
15.65551758,-84.64706000
15.68603516,-80.75233000
15.71655273,-79.33701000
15.74707031,-80.99963000
15.77758789,-87.37611000
15.80810547,-96.53350000
15.83862305,-84.46513000
15.86914063,-79.24490000
15.89965820,-77.73582000
15.93017578,-80.20625000
15.96069336,-90.65260000
15.99121094,-87.23504000
16.02172852,-81.57319000
16.05224609,-79.41375000
16.08276367,-78.56589000
16.11328125,-80.31226000
16.14379883,-87.38466000
16.17431641,-91.29062000
16.20483398,-84.73980000
16.23535156,-83.20033000
16.26586914,-81.44134000
16.29638672,-81.04954000
16.32690430,-84.83942000
16.35742188,-91.87271000
16.38793945,-83.47842000
16.41845703,-80.28996000
16.44897461,-79.57622000
16.47949219,-81.05080000
16.51000977,-85.98123000
16.54052734,-84.22408000
16.57104492,-79.54280000
16.60156250,-78.80367000
16.63208008,-81.03516000
16.66259766,-85.37688000
16.69311523,-91.35403000
16.72363281,-93.72533000
16.75415039,-87.42191000
16.78466797,-85.06760000
16.81518555,-83.60312000
16.84570313,-81.87397000
16.87622070,-82.42766000
16.90673828,-86.92088000
16.93725586,-88.20061000
16.96777344,-85.01458000
16.99829102,-84.58824000
17.02880859,-84.15199000
17.05932617,-84.18402000
17.08984375,-85.39315000
17.12036133,-82.97034000
17.15087891,-80.54508000
17.18139648,-81.04326000
17.21191406,-83.89489000
17.24243164,-86.82578000
17.27294922,-89.97588000
17.30346680,-94.11528000
17.33398438,-87.83824000
17.36450195,-85.06143000
17.39501953,-85.22165000
17.42553711,-86.62041000
17.45605469,-88.26204000
17.48657227,-85.95451000
17.51708984,-82.94322000
17.54760742,-82.90294000
17.57812500,-85.29194000
17.60864258,-85.28571000
17.63916016,-84.58309000
17.66967773,-87.02850000
17.70019531,-85.02061000
17.73071289,-81.75452000
17.76123047,-81.66991000
17.79174805,-82.34213000
17.82226563,-82.87053000
17.85278320,-85.65441000
17.88330078,-87.29951000
17.91381836,-84.89814000
17.94433594,-86.11930000
17.97485352,-90.67780000
18.00537109,-87.22961000
18.03588867,-85.62039000
18.06640625,-85.90405000
18.09692383,-84.89860000
18.12744141,-85.26405000
18.15795898,-87.83004000
18.18847656,-87.67709000
18.21899414,-87.57417000
18.24951172,-91.85225000
18.28002930,-89.60590000
18.31054688,-86.19485000
18.34106445,-86.97540000
18.37158203,-88.73726000
18.40209961,-89.24158000
18.43261719,-92.04887000
18.46313477,-91.84486000
18.49365234,-89.04540000
18.52416992,-89.73568000
18.55468750,-91.06552000
18.58520508,-90.37575000
18.61572266,-92.91103000
18.64624023,-98.09821000
18.67675781,-92.26563000
18.70727539,-90.62335000
18.73779297,-90.59409000
18.76831055,-90.49533000
18.79882813,-93.56519000
18.82934570,-96.01704000
18.85986328,-90.99358000
18.89038086,-89.93707000
18.92089844,-91.45484000
18.95141602,-92.68169000
18.98193359,-93.33435000
19.01245117,-93.32177000
19.04296875,-90.75538000
19.07348633,-89.55918000
19.10400391,-91.00584000
19.13452148,-93.92068000
19.16503906,-96.57409000
19.19555664,-100.98080000
19.22607422,-101.08730000
19.25659180,-98.50692000
19.28710938,-101.17960000
19.31762695,-102.00310000
19.34814453,-100.05630000
19.37866211,-108.06760000
19.40917969,-98.22942000
19.43969727,-92.92789000
19.47021484,-92.86212000
19.50073242,-95.82353000
19.53125000,-99.09084000
19.56176758,-100.81490000
19.59228516,-99.35889000
19.62280273,-96.71945000
19.65332031,-95.81493000
19.68383789,-95.49371000
19.71435547,-95.94618000
19.74487305,-98.14691000
19.77539063,-98.30025000
19.80590820,-95.75286000
19.83642578,-95.43488000
19.86694336,-98.76748000
19.89746094,-107.87750000
19.92797852,-105.96360000
19.95849609,-100.45140000
19.98901367,-97.03464000
20.01953125,-93.32604000
20.05004883,-90.35971000
20.08056641,-90.55564000
20.11108398,-96.14917000
20.14160156,-99.12284000
20.17211914,-94.20567000
20.20263672,-95.61102000
20.23315430,-94.54314000
20.26367188,-90.10791000
20.29418945,-88.19171000
20.32470703,-87.56752000
20.35522461,-88.56400000
20.38574219,-93.05573000
20.41625977,-93.83435000
20.44677734,-88.54633000
20.47729492,-86.55762000
20.50781250,-84.31924000
20.53833008,-82.59657000
20.56884766,-83.80420000
20.59936523,-90.42323000
20.62988281,-96.08678000
20.66040039,-87.49037000
20.69091797,-86.84389000
20.72143555,-88.48077000
20.75195313,-89.75745000
20.78247070,-93.60627000
20.81298828,-91.47688000
20.84350586,-88.33748000
20.87402344,-90.44203000
20.90454102,-94.78398000
20.93505859,-94.31179000
20.96557617,-94.76320000
20.99609375,-89.28855000
21.02661133,-86.23531000
21.05712891,-88.09721000
21.08764648,-96.98230000
21.11816406,-91.20821000
21.14868164,-89.56380000
21.17919922,-91.62073000
21.20971680,-89.93194000
21.24023438,-90.40707000
21.27075195,-96.88217000
21.30126953,-97.16801000
21.33178711,-91.76343000
21.36230469,-87.46700000
21.39282227,-84.10959000
21.42333984,-83.87299000
21.45385742,-87.00522000
21.48437500,-90.83453000
21.51489258,-91.63889000
21.54541016,-98.45406000
21.57592773,-97.53135000
21.60644531,-90.26247000
21.63696289,-91.04416000
21.66748047,-96.15987000
21.69799805,-94.50364000
21.72851563,-92.42229000
21.75903320,-90.22994000
21.78955078,-89.95952000
21.82006836,-96.26280000
21.85058594,-90.77048000
21.88110352,-85.58658000
21.91162109,-85.73491000
21.94213867,-88.25245000
21.97265625,-86.68613000
22.00317383,-86.63876000
22.03369141,-92.97516000
22.06420898,-93.63961000
22.09472656,-89.52923000
22.12524414,-90.76934000
22.15576172,-89.99795000
22.18627930,-89.44041000
22.21679688,-93.97544000
22.24731445,-94.36221000
22.27783203,-92.33921000
22.30834961,-92.64536000
22.33886719,-90.13488000
22.36938477,-92.23957000
22.39990234,-94.00923000
22.43041992,-88.12321000
22.46093750,-87.17262000
22.49145508,-90.38807000
22.52197266,-99.39068000
22.55249023,-97.59873000
22.58300781,-94.74947000
22.61352539,-96.52599000
22.64404297,-99.33350000
22.67456055,-95.60769000
22.70507813,-89.14906000
22.73559570,-87.39280000
22.76611328,-90.94498000
22.79663086,-94.52241000
22.82714844,-87.79728000
22.85766602,-86.41599000
22.88818359,-88.85287000
22.91870117,-95.80100000
22.94921875,-97.33276000
22.97973633,-89.73639000
23.01025391,-87.23631000
23.04077148,-88.37486000
23.07128906,-93.28012000
23.10180664,-100.45300000
23.13232422,-96.20473000
23.16284180,-89.88022000
23.19335938,-86.94424000
23.22387695,-86.62585000
23.25439453,-88.29807000
23.28491211,-91.60622000
23.31542969,-95.73624000
23.34594727,-97.96577000
23.37646484,-97.52946000
23.40698242,-98.37753000
23.43750000,-96.75558000
23.46801758,-94.30811000
23.49853516,-92.89803000
23.52905273,-92.86391000
23.55957031,-95.96083000
23.59008789,-102.87750000
23.62060547,-103.00380000
23.65112305,-100.68850000
23.68164063,-101.35760000
23.71215820,-107.97000000
23.74267578,-94.66646000
23.77319336,-88.62762000
23.80371094,-86.29961000
23.83422852,-85.89311000
23.86474609,-86.69651000
23.89526367,-89.31957000
23.92578125,-94.65971000
23.95629883,-95.21808000
23.98681641,-91.64183000
24.01733398,-90.41680000
24.04785156,-91.00731000
24.07836914,-92.99030000
24.10888672,-93.41323000
24.13940430,-92.37870000
24.16992188,-93.85643000
24.20043945,-97.58790000
24.23095703,-99.81281000
24.26147461,-100.43930000
24.29199219,-106.75220000
24.32250977,-103.62970000
24.35302734,-95.84817000
24.38354492,-96.00893000
24.41406250,-102.47580000
24.44458008,-93.03049000
24.47509766,-86.91124000
24.50561523,-85.43706000
24.53613281,-88.18886000
24.56665039,-96.63051000
24.59716797,-108.39230000
24.62768555,-100.11840000
24.65820313,-100.28200000
24.68872070,-99.83150000
24.71923828,-93.15202000
24.74975586,-92.47628000
24.78027344,-97.34299000
24.81079102,-97.31203000
24.84130859,-91.60085000
24.87182617,-91.30225000
24.90234375,-95.87758000
24.93286133,-107.86920000
24.96337891,-104.05430000
24.99389648,-96.35414000
25.02441406,-94.40205000
25.05493164,-96.50385000
25.08544922,-97.91484000
25.11596680,-95.29370000
25.14648438,-92.41875000
25.17700195,-90.39333000
25.20751953,-91.08061000
25.23803711,-95.53580000
25.26855469,-105.53240000
25.29907227,-99.73444000
25.32958984,-92.04810000
25.36010742,-89.99401000
25.39062500,-91.03596000
25.42114258,-94.46842000
25.45166016,-104.78400000
25.48217773,-101.32900000
25.51269531,-94.72973000
25.54321289,-93.60955000
25.57373047,-94.51730000
25.60424805,-96.47347000
25.63476563,-97.96004000
25.66528320,-93.72539000
25.69580078,-91.62024000
25.72631836,-93.62611000
25.75683594,-101.51490000
25.78735352,-97.94496000
25.81787109,-93.06474000
25.84838867,-91.91880000
25.87890625,-92.06660000
25.90942383,-92.26221000
25.93994141,-93.78833000
25.97045898,-97.63000000
26.00097656,-98.90731000
26.03149414,-94.84413000
26.06201172,-90.49550000
26.09252930,-88.11146000
26.12304688,-88.36701000
26.15356445,-90.95850000
26.18408203,-94.73804000
26.21459961,-98.25730000
26.24511719,-97.00119000
26.27563477,-91.94559000
26.30615234,-89.34741000
26.33666992,-90.38591000
26.36718750,-95.36119000
26.39770508,-101.59400000
26.42822266,-98.80172000
26.45874023,-98.32768000
26.48925781,-93.74962000
26.51977539,-90.91106000
26.55029297,-91.61121000
26.58081055,-93.29980000
26.61132813,-92.25195000
26.64184570,-90.19787000
26.67236328,-90.71808000
26.70288086,-95.87808000
26.73339844,-107.88850000
26.76391602,-99.41312000
26.79443359,-94.67331000
26.82495117,-91.18142000
26.85546875,-90.12585000
26.88598633,-93.71418000
26.91650391,-104.48390000
26.94702148,-94.42834000
26.97753906,-93.26900000
27.00805664,-95.08102000
27.03857422,-94.95141000
27.06909180,-95.48299000
27.09960938,-100.20970000
27.13012695,-99.71786000
27.16064453,-92.47221000
27.19116211,-89.06213000
27.22167969,-88.67260000
27.25219727,-90.52086000
27.28271484,-94.07240000
27.31323242,-101.51130000
27.34375000,-102.57990000
27.37426758,-96.90411000
27.40478516,-96.45955000
27.43530273,-99.10743000
27.46582031,-102.89740000
27.49633789,-97.25697000
27.52685547,-94.41864000
27.55737305,-96.10587000
27.58789063,-102.54230000
27.61840820,-104.01730000
27.64892578,-110.40300000
27.67944336,-106.65650000
27.70996094,-101.05890000
27.74047852,-97.36362000
27.77099609,-94.08005000
27.80151367,-95.03191000
27.83203125,-98.00970000
27.86254883,-90.85365000
27.89306641,-87.34074000
27.92358398,-87.66537000
27.95410156,-92.07224000
27.98461914,-102.26940000
28.01513672,-96.19543000
28.04565430,-94.26613000
28.07617188,-96.17102000
28.10668945,-102.27860000
28.13720703,-109.25960000
28.16772461,-99.03020000
28.19824219,-96.43443000
28.22875977,-94.00958000
28.25927734,-91.36417000
28.28979492,-90.60955000
28.32031250,-91.28963000
28.35083008,-91.84570000
28.38134766,-91.34842000
28.41186523,-90.51474000
28.44238281,-90.98888000
28.47290039,-95.14415000
28.50341797,-102.00140000
28.53393555,-93.25424000
28.56445313,-90.99077000
28.59497070,-90.08577000
28.62548828,-87.70532000
28.65600586,-86.66930000
28.68652344,-88.42870000
28.71704102,-93.61780000
28.74755859,-100.66340000
28.77807617,-102.22300000
28.80859375,-101.95690000
28.83911133,-96.81139000
28.86962891,-96.61386000
28.90014648,-102.79170000
28.93066406,-109.99350000
28.96118164,-98.58771000
28.99169922,-93.05866000
29.02221680,-90.43301000
29.05273438,-91.60386000
29.08325195,-97.85911000
29.11376953,-96.10045000
29.14428711,-92.22952000
29.17480469,-91.61397000
29.20532227,-91.81181000
29.23583984,-92.31351000
29.26635742,-93.32845000
29.29687500,-93.12129000
29.32739258,-91.89082000
29.35791016,-92.37174000
29.38842773,-96.12210000
29.41894531,-107.25750000
29.44946289,-106.96420000
29.47998047,-100.91470000
29.51049805,-100.39670000
29.54101563,-102.65620000
29.57153320,-101.30560000
29.60205078,-96.99065000
29.63256836,-94.93683000
29.66308594,-94.14935000
29.69360352,-93.39484000
29.72412109,-93.74496000
29.75463867,-96.84159000
29.78515625,-102.70090000
29.81567383,-99.91157000
29.84619141,-95.29451000
29.87670898,-92.58266000
29.90722656,-91.84497000
29.93774414,-93.53013000
29.96826172,-96.45638000
29.99877930,-96.22057000
30.02929688,-96.17066000
30.05981445,-98.73602000
30.09033203,-104.49760000
30.12084961,-101.16020000
30.15136719,-95.59844000
30.18188477,-92.26861000
30.21240234,-90.13879000
30.24291992,-90.01390000
30.27343750,-94.37061000
30.30395508,-106.35250000
30.33447266,-90.67839000
30.36499023,-87.44783000
30.39550781,-87.96126000
30.42602539,-91.76101000
30.45654297,-101.82310000
30.48706055,-105.80240000
30.51757813,-101.72590000
30.54809570,-106.22360000
30.57861328,-100.18890000
30.60913086,-96.64586000
30.63964844,-94.26271000
30.67016602,-92.18730000
30.70068359,-92.51785000
30.73120117,-95.84695000
30.76171875,-100.50340000
30.79223633,-105.72220000
30.82275391,-104.60160000
30.85327148,-98.76380000
30.88378906,-100.25520000
30.91430664,-117.64300000
30.94482422,-101.77450000
30.97534180,-97.54558000
31.00585938,-97.23896000
31.03637695,-99.88656000
31.06689453,-100.52430000
31.09741211,-96.17509000
31.12792969,-94.94437000
31.15844727,-96.98993000
31.18896484,-99.70775000
31.21948242,-94.37458000
31.25000000,-89.75201000
31.28051758,-87.21477000
31.31103516,-86.33170000
31.34155273,-87.19974000
31.37207031,-89.67036000
31.40258789,-90.04955000
31.43310547,-87.63148000
31.46362305,-86.86365000
31.49414063,-88.08328000
31.52465820,-90.76759000
31.55517578,-93.76262000
31.58569336,-94.45960000
31.61621094,-95.37034000
31.64672852,-97.33199000
31.67724609,-97.09326000
31.70776367,-99.70787000
31.73828125,-113.82290000
31.76879883,-95.77415000
31.79931641,-91.65778000
31.82983398,-91.14953000
31.86035156,-92.29944000
31.89086914,-93.32640000
31.92138672,-93.37730000
31.95190430,-92.94208000
31.98242188,-92.86469000
32.01293945,-94.21917000
32.04345703,-98.34774000
32.07397461,-104.75360000
32.10449219,-102.57340000
32.13500977,-102.27480000
32.16552734,-103.44100000
32.19604492,-102.38590000
32.22656250,-101.09660000
32.25708008,-102.27710000
32.28759766,-103.80980000
32.31811523,-100.85370000
32.34863281,-96.34437000
32.37915039,-93.71628000
32.40966797,-93.64674000
32.44018555,-96.34636000
32.47070313,-96.86491000
32.50122070,-92.09389000
32.53173828,-89.96855000
32.56225586,-90.01540000
32.59277344,-91.28571000
32.62329102,-93.78330000
32.65380859,-97.69318000
32.68432617,-98.44074000
32.71484375,-96.45200000
32.74536133,-94.70168000
32.77587891,-93.34626000
32.80639648,-93.43225000
32.83691406,-94.24994000
32.86743164,-94.02060000
32.89794922,-93.23076000
32.92846680,-93.80486000
32.95898438,-96.18835000
32.98950195,-98.08898000
33.02001953,-98.50822000
33.05053711,-98.79900000
33.08105469,-96.45791000
33.11157227,-93.57829000
33.14208984,-92.01617000
33.17260742,-91.79047000
33.20312500,-92.91894000
33.23364258,-95.14944000
33.26416016,-95.91214000
33.29467773,-94.21134000
33.32519531,-93.38020000
33.35571289,-94.15337000
33.38623047,-95.66391000
33.41674805,-95.61906000
33.44726563,-93.04961000
33.47778320,-90.38772000
33.50830078,-89.19269000
33.53881836,-89.93912000
33.56933594,-92.75453000
33.59985352,-97.56133000
33.63037109,-103.06660000
33.66088867,-102.18980000
33.69140625,-98.51936000
33.72192383,-95.19235000
33.75244141,-93.93330000
33.78295898,-95.39836000
33.81347656,-96.47470000
33.84399414,-95.12082000
33.87451172,-95.38647000
33.90502930,-97.12283000
33.93554688,-99.61540000
33.96606445,-100.23290000
33.99658203,-94.94312000
34.02709961,-91.94363000
34.05761719,-92.09749000
34.08813477,-95.15800000
34.11865234,-100.28370000
34.14916992,-102.03070000
34.17968750,-99.54975000
34.21020508,-98.57438000
34.24072266,-101.02820000
34.27124023,-104.74380000
34.30175781,-96.42204000
34.33227539,-91.80370000
34.36279297,-90.11658000
34.39331055,-89.82833000
34.42382813,-89.48602000
34.45434570,-88.94700000
34.48486328,-88.83089000
34.51538086,-89.33675000
34.54589844,-90.27986000
34.57641602,-90.88702000
34.60693359,-90.97943000
34.63745117,-91.53793000
34.66796875,-92.59247000
34.69848633,-93.26706000
34.72900391,-93.16019000
34.75952148,-92.40642000
34.79003906,-91.80147000
34.82055664,-92.66237000
34.85107422,-95.75787000
34.88159180,-99.48193000
34.91210938,-99.87688000
34.94262695,-99.59320000
34.97314453,-100.94870000
35.00366211,-101.40790000
35.03417969,-95.66700000
35.06469727,-92.97591000
35.09521484,-93.07770000
35.12573242,-94.12595000
35.15625000,-94.55109000
35.18676758,-94.87332000
35.21728516,-96.86660000
35.24780273,-99.39197000
35.27832031,-95.65530000
35.30883789,-93.36456000
35.33935547,-94.25836000
35.36987305,-96.90504000
35.40039063,-96.46554000
35.43090820,-94.52077000
35.46142578,-94.92595000
35.49194336,-98.23303000
35.52246094,-104.76720000
35.55297852,-115.03750000
35.58349609,-103.80650000
35.61401367,-100.55180000
35.64453125,-99.28041000
35.67504883,-96.35982000
35.70556641,-93.62047000
35.73608398,-91.91560000
35.76660156,-91.30058000
35.79711914,-92.43265000
35.82763672,-96.11546000
35.85815430,-99.25810000
35.88867188,-97.46888000
35.91918945,-97.37571000
35.94970703,-99.38194000
35.98022461,-104.17110000
36.01074219,-105.63390000
36.04125977,-96.64951000
36.07177734,-92.82315000
36.10229492,-91.85356000
36.13281250,-92.23486000
36.16333008,-93.31573000
36.19384766,-96.43651000
36.22436523,-108.30050000
36.25488281,-100.95430000
36.28540039,-94.89610000
36.31591797,-94.03118000
36.34643555,-95.91658000
36.37695313,-98.28387000
36.40747070,-98.41050000
36.43798828,-98.47469000
36.46850586,-99.57340000
36.49902344,-101.07920000
36.52954102,-103.03740000
36.56005859,-107.26190000
36.59057617,-103.81390000
36.62109375,-96.80915000
36.65161133,-94.14066000
36.68212891,-95.18798000
36.71264648,-100.32460000
36.74316406,-102.52510000
36.77368164,-98.18408000
36.80419922,-95.54677000
36.83471680,-94.27672000
36.86523438,-94.63272000
36.89575195,-95.76631000
36.92626953,-96.33888000
36.95678711,-97.10838000
36.98730469,-97.34729000
37.01782227,-96.33226000
37.04833984,-96.30092000
37.07885742,-96.53801000
37.10937500,-95.75806000
37.13989258,-95.54752000
37.17041016,-97.29639000
37.20092773,-96.04476000
37.23144531,-94.49815000
37.26196289,-97.44045000
37.29248047,-104.57870000
37.32299805,-105.82000000
37.35351563,-107.28480000
37.38403320,-102.14470000
37.41455078,-95.40801000
37.44506836,-91.57083000
37.47558594,-90.49068000
37.50610352,-91.55956000
37.53662109,-94.74779000
37.56713867,-101.82830000
37.59765625,-106.90490000
37.62817383,-100.83620000
37.65869141,-100.43600000
37.68920898,-100.20100000
37.71972656,-101.37780000
37.75024414,-103.48670000
37.78076172,-96.06670000
37.81127930,-93.87040000
37.84179688,-97.34592000
37.87231445,-106.60520000
37.90283203,-95.57786000
37.93334961,-92.75593000
37.96386719,-93.51520000
37.99438477,-96.32141000
38.02490234,-98.65521000
38.05541992,-99.43127000
38.08593750,-100.70510000
38.11645508,-98.24873000
38.14697266,-93.72266000
38.17749023,-91.19045000
38.20800781,-91.12807000
38.23852539,-93.29109000
38.26904297,-95.49308000
38.29956055,-94.03156000
38.33007813,-92.44129000
38.36059570,-93.90834000
38.39111328,-96.11975000
38.42163086,-96.11828000
38.45214844,-100.57420000
38.48266602,-106.84450000
38.51318359,-100.26660000
38.54370117,-97.44338000
38.57421875,-95.64742000
38.60473633,-96.38832000
38.63525391,-95.98344000
38.66577148,-92.82457000
38.69628906,-91.96550000
38.72680664,-94.19595000
38.75732422,-99.70992000
38.78784180,-106.20350000
38.81835938,-99.36706000
38.84887695,-93.30555000
38.87939453,-91.14978000
38.90991211,-92.29088000
38.94042969,-97.58469000
38.97094727,-108.85520000
39.00146484,-96.68590000
39.03198242,-93.61306000
39.06250000,-92.51838000
39.09301758,-91.77606000
39.12353516,-92.28120000
39.15405273,-94.24055000
39.18457031,-96.60451000
39.21508789,-97.63956000
39.24560547,-97.01385000
39.27612305,-96.04496000
39.30664063,-95.35132000
39.33715820,-94.64294000
39.36767578,-93.40472000
39.39819336,-92.20770000
39.42871094,-92.21325000
39.45922852,-93.55658000
39.48974609,-94.74952000
39.52026367,-94.78816000
39.55078125,-93.21967000
39.58129883,-89.84750000
39.61181641,-86.81090000
39.64233398,-85.91302000
39.67285156,-88.01947000
39.70336914,-95.07900000
39.73388672,-107.53110000
39.76440430,-97.27832000
39.79492188,-101.91900000
39.82543945,-99.14547000
39.85595703,-91.71530000
39.88647461,-90.75847000
39.91699219,-89.96828000
39.94750977,-87.84753000
39.97802734,-88.83983000
40.00854492,-95.38763000
40.03906250,-103.68070000
40.06958008,-94.80880000
40.10009766,-93.77855000
40.13061523,-95.26633000
40.16113281,-96.73874000
40.19165039,-95.91557000
40.22216797,-92.42303000
40.25268555,-88.82201000
40.28320313,-86.38531000
40.31372070,-85.74586000
40.34423828,-87.47511000
40.37475586,-91.87065000
40.40527344,-95.50554000
40.43579102,-91.88617000
40.46630859,-89.36472000
40.49682617,-89.83179000
40.52734375,-94.83310000
40.55786133,-108.86120000
40.58837891,-94.64822000
40.61889648,-92.31571000
40.64941406,-92.09595000
40.67993164,-90.13466000
40.71044922,-87.61751000
40.74096680,-87.75633000
40.77148438,-92.35704000
40.80200195,-92.84180000
40.83251953,-88.81347000
40.86303711,-89.58057000
40.89355469,-92.87518000
40.92407227,-92.63625000
40.95458984,-91.71155000
40.98510742,-91.13658000
41.01562500,-90.20338000
41.04614258,-92.05539000
41.07666016,-98.17417000
41.10717773,-98.52621000
41.13769531,-100.08910000
41.16821289,-108.49750000
41.19873047,-93.45105000
41.22924805,-88.48075000
41.25976563,-87.03093000
41.29028320,-87.83701000
41.32080078,-87.80959000
41.35131836,-86.64717000
41.38183594,-87.32483000
41.41235352,-89.50761000
41.44287109,-88.96622000
41.47338867,-85.07259000
41.50390625,-82.05880000
41.53442383,-81.28780000
41.56494141,-83.10344000
41.59545898,-87.20573000
41.62597656,-91.64107000
41.65649414,-92.67411000
41.68701172,-90.42868000
41.71752930,-90.02145000
41.74804688,-93.19831000
41.77856445,-103.38030000
41.80908203,-96.69743000
41.83959961,-92.00812000
41.87011719,-92.53625000
41.90063477,-100.44300000
41.93115234,-97.68413000
41.96166992,-91.04442000
41.99218750,-89.84218000
42.02270508,-91.54567000
42.05322266,-96.95419000
42.08374023,-102.91540000
42.11425781,-93.59673000
42.14477539,-89.67427000
42.17529297,-86.93763000
42.20581055,-85.57687000
42.23632813,-86.86154000
42.26684570,-89.63380000
42.29736328,-88.75990000
42.32788086,-87.68607000
42.35839844,-87.39307000
42.38891602,-86.73573000
42.41943359,-87.73190000
42.44995117,-92.97392000
42.48046875,-97.94522000
42.51098633,-92.45052000
42.54150391,-94.32890000
42.57202148,-95.40833000
42.60253906,-90.62804000
42.63305664,-91.35498000
42.66357422,-99.61208000
42.69409180,-97.66066000
42.72460938,-92.16393000
42.75512695,-92.86198000
42.78564453,-95.54762000
42.81616211,-88.80182000
42.84667969,-84.67602000
42.87719727,-83.47722000
42.90771484,-83.73460000
42.93823242,-83.97807000
42.96875000,-84.14238000
42.99926758,-84.87915000
43.02978516,-86.64992000
43.06030273,-90.08980000
43.09082031,-95.83472000
43.12133789,-96.80664000
43.15185547,-89.90442000
43.18237305,-86.11655000
43.21289063,-85.65826000
43.24340820,-88.68313000
43.27392578,-93.02926000
43.30444336,-94.97761000
43.33496094,-98.02489000
43.36547852,-92.95592000
43.39599609,-91.18633000
43.42651367,-92.89796000
43.45703125,-92.71021000
43.48754883,-89.07951000
43.51806641,-87.39340000
43.54858398,-88.34282000
43.57910156,-91.19426000
43.60961914,-91.76424000
43.64013672,-86.96017000
43.67065430,-83.57848000
43.70117188,-83.33938000
43.73168945,-86.72719000
43.76220703,-98.47686000
43.79272461,-93.14187000
43.82324219,-86.12103000
43.85375977,-83.80073000
43.88427734,-84.22260000
43.91479492,-87.23273000
43.94531250,-91.70857000
43.97583008,-93.11946000
44.00634766,-90.86002000
44.03686523,-89.26923000
44.06738281,-90.30074000
44.09790039,-94.30680000
44.12841797,-96.88045000
44.15893555,-91.25743000
44.18945313,-88.04111000
44.21997070,-87.61230000
44.25048828,-89.04469000
44.28100586,-91.05602000
44.31152344,-91.78883000
44.34204102,-90.17767000
44.37255859,-88.94886000
44.40307617,-89.52972000
44.43359375,-92.61109000
44.46411133,-103.45550000
44.49462891,-97.01952000
44.52514648,-90.78007000
44.55566406,-90.55884000
44.58618164,-93.22420000
44.61669922,-94.20908000
44.64721680,-90.70690000
44.67773438,-87.47687000
44.70825195,-87.34927000
44.73876953,-90.81923000
44.76928711,-97.72580000
44.79980469,-96.11981000
44.83032227,-91.78840000
44.86083984,-89.63953000
44.89135742,-89.58607000
44.92187500,-91.77068000
44.95239258,-94.54929000
44.98291016,-92.90540000
45.01342773,-90.12892000
45.04394531,-89.76844000
45.07446289,-92.71957000
45.10498047,-100.33690000
45.13549805,-102.96900000
45.16601563,-99.67125000
45.19653320,-100.00500000
45.22705078,-100.55620000
45.25756836,-99.34834000
45.28808594,-96.65686000
45.31860352,-92.58551000
45.34912109,-89.45111000
45.37963867,-88.79305000
45.41015625,-91.22138000
45.44067383,-97.01820000
45.47119141,-96.43295000
45.50170898,-92.49599000
45.53222656,-91.37228000
45.56274414,-92.08856000
45.59326172,-92.43610000
45.62377930,-89.75388000
45.65429688,-86.22392000
45.68481445,-84.31731000
45.71533203,-84.51413000
45.74584961,-86.67033000
45.77636719,-89.99236000
45.80688477,-92.65931000
45.83740234,-95.10243000
45.86791992,-98.88398000
45.89843750,-101.58550000
45.92895508,-103.50480000
45.95947266,-106.75860000
45.98999023,-92.97217000
46.02050781,-87.70261000
46.05102539,-86.68156000
46.08154297,-89.19394000
46.11206055,-94.49844000
46.14257813,-96.71700000
46.17309570,-98.95346000
46.20361328,-105.31380000
46.23413086,-105.39630000
46.26464844,-111.71080000
46.29516602,-102.93860000
46.32568359,-94.65662000
46.35620117,-91.36985000
46.38671875,-91.66263000
46.41723633,-96.80793000
46.44775391,-103.03200000
46.47827148,-93.70213000
46.50878906,-90.62160000
46.53930664,-89.84771000
46.56982422,-90.30206000
46.60034180,-91.21689000
46.63085938,-91.11469000
46.66137695,-89.68335000
46.69189453,-88.81494000
46.72241211,-90.76878000
46.75292969,-99.78767000
46.78344727,-101.10660000
46.81396484,-95.12444000
46.84448242,-95.24891000
46.87500000,-96.63471000
46.90551758,-98.43932000
46.93603516,-102.40170000
46.96655273,-108.92810000
46.99707031,-103.69650000
47.02758789,-98.07196000
47.05810547,-94.88329000
47.08862305,-92.83206000
47.11914063,-91.38515000
47.14965820,-91.51768000
47.18017578,-94.46590000
47.21069336,-100.23840000
47.24121094,-95.79242000
47.27172852,-92.75753000
47.30224609,-93.40232000
47.33276367,-96.76781000
47.36328125,-100.72120000
47.39379883,-97.07683000
47.42431641,-93.42648000
47.45483398,-92.13334000
47.48535156,-92.02531000
47.51586914,-92.43762000
47.54638672,-93.73359000
47.57690430,-96.60431000
47.60742188,-101.90280000
47.63793945,-111.48820000
47.66845703,-112.03230000
47.69897461,-101.85170000
47.72949219,-95.13033000
47.76000977,-91.54855000
47.79052734,-90.40328000
47.82104492,-91.23354000
47.85156250,-92.22752000
47.88208008,-92.43737000
47.91259766,-93.18282000
47.94311523,-93.77466000
47.97363281,-94.09573000
48.00415039,-94.46234000
48.03466797,-94.71028000
48.06518555,-95.39925000
48.09570313,-96.42450000
48.12622070,-97.44115000
48.15673828,-99.22185000
48.18725586,-100.60140000
48.21777344,-98.05785000
48.24829102,-95.35584000
48.27880859,-95.34374000
48.30932617,-102.08950000
48.33984375,-99.59484000
48.37036133,-93.32938000
48.40087891,-94.31355000
48.43139648,-99.00644000
48.46191406,-96.93796000
48.49243164,-96.09605000
48.52294922,-96.37227000
48.55346680,-96.15814000
48.58398438,-98.55706000
48.61450195,-101.26580000
48.64501953,-94.38428000
48.67553711,-90.06815000
48.70605469,-88.57240000
48.73657227,-89.38431000
48.76708984,-92.03412000
48.79760742,-95.63564000
48.82812500,-99.02271000
48.85864258,-99.14270000
48.88916016,-94.84120000
48.91967773,-91.38809000
48.95019531,-90.09908000
48.98071289,-89.82330000
49.01123047,-88.37682000
49.04174805,-87.60396000
49.07226563,-89.39302000
49.10278320,-92.90801000
49.13330078,-94.55724000
49.16381836,-95.37619000
49.19433594,-97.96165000
49.22485352,-100.83140000
49.25537109,-94.09846000
49.28588867,-89.16206000
49.31640625,-86.27110000
49.34692383,-85.13923000
49.37744141,-86.15535000
49.40795898,-89.52841000
49.43847656,-95.66615000
49.46899414,-110.14460000
49.49951172,-92.34933000
49.53002930,-88.75070000
49.56054688,-89.24767000
49.59106445,-93.18005000
49.62158203,-104.98470000
49.65209961,-98.39044000
49.68261719,-92.96826000
49.71313477,-92.94017000
49.74365234,-98.58574000
49.77416992,-110.42150000
49.80468750,-104.11200000
49.83520508,-114.58100000
49.86572266,-101.36690000
49.89624023,-95.31030000
49.92675781,-93.10928000
49.95727539,-94.54392000
49.98779297,-99.23810000
50.01831055,-95.05717000
