Frequency,Channel A
(MHz),(dBu)

0.00000000,-27.27609000
0.03051758,-27.54923000
0.06103516,-32.33938000
0.09155273,-40.77472000
0.12207031,-53.28674000
0.15258789,-71.38293000
0.18310547,-61.64802000
0.21362305,-58.13462000
0.24414063,-60.96479000
0.27465820,-71.44346000
0.30517578,-69.29770000
0.33569336,-62.33493000
0.36621094,-59.67305000
0.39672852,-59.89076000
0.42724609,-61.11046000
0.45776367,-62.17930000
0.48828125,-62.66768000
0.51879883,-57.63742000
0.54931641,-54.13183000
0.57983398,-51.59362000
0.61035156,-47.17354000
0.64086914,-42.97429000
0.67138672,-40.37731000
0.70190430,-40.11545000
0.73242188,-42.80714000
0.76293945,-49.09623000
0.79345703,-58.08708000
0.82397461,-61.49611000
0.85449219,-69.08832000
0.88500977,-68.89861000
0.91552734,-60.88383000
0.94604492,-59.94118000
0.97656250,-63.56096000
1.00708008,-74.22827000
1.03759766,-67.70906000
1.06811523,-64.31921000
1.09863281,-64.13180000
1.12915039,-65.83772000
1.15966797,-67.67184000
1.19018555,-64.70542000
1.22070313,-62.14795000
1.25122070,-62.85210000
1.28173828,-68.38246000
1.31225586,-70.69673000
1.34277344,-66.20007000
1.37329102,-67.49211000
1.40380859,-71.90239000
1.43432617,-71.45455000
1.46484375,-71.70374000
1.49536133,-72.61639000
1.52587891,-70.69476000
1.55639648,-71.69554000
1.58691406,-72.96729000
1.61743164,-69.17532000
1.64794922,-68.25439000
1.67846680,-70.85245000
1.70898438,-78.20741000
1.73950195,-86.95080000
1.77001953,-72.91363000
1.80053711,-67.43007000
1.83105469,-65.22168000
1.86157227,-65.48375000
1.89208984,-68.22667000
1.92260742,-77.06488000
1.95312500,-79.98785000
1.98364258,-74.61842000
2.01416016,-71.10312000
2.04467773,-67.14346000
2.07519531,-66.82104000
2.10571289,-70.60856000
2.13623047,-77.57962000
2.16674805,-73.43375000
2.19726563,-71.19540000
2.22778320,-70.29633000
2.25830078,-69.77486000
2.28881836,-70.54021000
2.31933594,-71.31305000
2.34985352,-70.48505000
2.38037109,-70.84790000
2.41088867,-75.73856000
2.44140625,-88.92071000
2.47192383,-73.26404000
2.50244141,-69.79543000
2.53295898,-68.69678000
2.56347656,-68.88496000
2.59399414,-70.34173000
2.62451172,-71.90964000
2.65502930,-73.46982000
2.68554688,-78.58242000
2.71606445,-80.03288000
2.74658203,-70.51501000
2.77709961,-66.55563000
2.80761719,-66.04810000
2.83813477,-69.13643000
2.86865234,-72.47042000
2.89916992,-69.34726000
2.92968750,-69.31413000
2.96020508,-71.80550000
2.99072266,-72.62472000
3.02124023,-72.57461000
3.05175781,-72.11326000
3.08227539,-70.04867000
3.11279297,-68.09828000
3.14331055,-67.07848000
3.17382813,-66.53977000
3.20434570,-66.70836000
3.23486328,-68.92422000
3.26538086,-73.15158000
3.29589844,-71.32168000
3.32641602,-68.44829000
3.35693359,-67.11020000
3.38745117,-66.04417000
3.41796875,-65.28310000
3.44848633,-65.03512000
3.47900391,-65.34699000
3.50952148,-66.21083000
3.54003906,-67.29160000
3.57055664,-67.62682000
3.60107422,-66.63638000
3.63159180,-66.55989000
3.66210938,-69.52347000
3.69262695,-72.50898000
3.72314453,-67.60751000
3.75366211,-65.52547000
3.78417969,-66.65819000
3.81469727,-69.55407000
3.84521484,-70.73563000
3.87573242,-71.31062000
3.90625000,-71.29498000
3.93676758,-69.38351000
3.96728516,-68.31974000
3.99780273,-67.54716000
4.02832031,-66.29384000
4.05883789,-66.07983000
4.08935547,-68.05685000
4.11987305,-72.41221000
4.15039063,-76.05509000
4.18090820,-74.06985000
4.21142578,-70.54598000
4.24194336,-68.01700000
4.27246094,-66.92704000
4.30297852,-67.05721000
4.33349609,-68.19958000
4.36401367,-70.67625000
4.39453125,-75.70103000
4.42504883,-80.26166000
4.45556641,-74.91565000
4.48608398,-71.79485000
4.51660156,-70.48598000
4.54711914,-70.81488000
4.57763672,-73.69798000
4.60815430,-81.84502000
4.63867188,-79.65055000
4.66918945,-75.65492000
4.69970703,-79.07179000
4.73022461,-80.61336000
4.76074219,-72.50729000
4.79125977,-70.38761000
4.82177734,-70.88379000
4.85229492,-71.86103000
4.88281250,-73.37321000
4.91333008,-77.32477000
4.94384766,-86.41614000
4.97436523,-85.46365000
5.00488281,-78.58481000
5.03540039,-74.75438000
5.06591797,-72.45615000
5.09643555,-71.62926000
5.12695313,-72.13621000
5.15747070,-73.55237000
5.18798828,-75.96993000
5.21850586,-80.93311000
5.24902344,-89.12410000
5.27954102,-82.21967000
5.31005859,-78.06956000
5.34057617,-76.02226000
5.37109375,-74.96057000
5.40161133,-74.22559000
5.43212891,-73.43797000
5.46264648,-72.46428000
5.49316406,-71.31924000
5.52368164,-70.66951000
5.55419922,-71.78049000
5.58471680,-76.40018000
5.61523438,-85.82798000
5.64575195,-76.99049000
5.67626953,-71.91586000
5.70678711,-67.98751000
5.73730469,-65.66884000
5.76782227,-65.16490000
5.79833984,-65.69246000
5.82885742,-66.76578000
5.85937500,-69.30476000
5.88989258,-74.29980000
5.92041016,-74.05130000
5.95092773,-69.16322000
5.98144531,-66.28909000
6.01196289,-64.93700000
6.04248047,-64.87471000
6.07299805,-65.76450000
6.10351563,-67.17571000
6.13403320,-69.80818000
6.16455078,-76.27267000
6.19506836,-82.30457000
6.22558594,-73.49005000
6.25610352,-70.44822000
6.28662109,-69.35725000
6.31713867,-68.86028000
6.34765625,-68.67563000
6.37817383,-69.51630000
6.40869141,-71.89803000
6.43920898,-75.90783000
6.46972656,-79.42220000
6.50024414,-76.40771000
6.53076172,-73.66849000
6.56127930,-73.10672000
6.59179688,-74.28893000
6.62231445,-76.88052000
6.65283203,-80.17027000
6.68334961,-83.69267000
6.71386719,-86.61597000
6.74438477,-82.45497000
6.77490234,-79.47005000
6.80541992,-79.05389000
6.83593750,-79.16624000
6.86645508,-78.25286000
6.89697266,-77.39008000
6.92749023,-76.90226000
6.95800781,-76.43665000
6.98852539,-76.01431000
7.01904297,-75.89516000
7.04956055,-76.34528000
7.08007813,-77.00613000
7.11059570,-76.69114000
7.14111328,-76.12704000
7.17163086,-77.10687000
7.20214844,-80.14717000
7.23266602,-85.61176000
7.26318359,-107.65930000
7.29370117,-86.76685000
7.32421875,-82.58540000
7.35473633,-84.48906000
7.38525391,-101.30770000
7.41577148,-86.10234000
7.44628906,-81.62030000
7.47680664,-80.93948000
7.50732422,-82.14690000
7.53784180,-85.94702000
7.56835938,-94.31062000
7.59887695,-92.04820000
7.62939453,-88.02423000
7.65991211,-84.31334000
7.69042969,-82.39211000
7.72094727,-82.86089000
7.75146484,-84.11881000
7.78198242,-84.96265000
7.81250000,-85.33517000
7.84301758,-83.51222000
7.87353516,-81.68216000
7.90405273,-81.67998000
7.93457031,-83.54018000
7.96508789,-86.70059000
7.99560547,-89.55809000
8.02612305,-89.20445000
8.05664063,-86.87599000
8.08715820,-84.42091000
8.11767578,-82.44431000
8.14819336,-81.70320000
8.17871094,-82.19827000
8.20922852,-83.05589000
8.23974609,-83.24713000
8.27026367,-83.24416000
8.30078125,-84.30718000
8.33129883,-87.01508000
8.36181641,-90.19937000
8.39233398,-89.81953000
8.42285156,-88.60778000
8.45336914,-88.51514000
8.48388672,-88.72511000
8.51440430,-89.21834000
8.54492188,-89.47501000
8.57543945,-89.43916000
8.60595703,-89.09180000
8.63647461,-89.09598000
8.66699219,-89.46213000
8.69750977,-88.94462000
8.72802734,-88.40022000
8.75854492,-87.40623000
8.78906250,-85.89206000
8.81958008,-85.19248000
8.85009766,-85.44424000
8.88061523,-85.55045000
8.91113281,-84.79597000
8.94165039,-84.05545000
8.97216797,-84.32311000
9.00268555,-86.18245000
9.03320313,-88.63464000
9.06372070,-88.85286000
9.09423828,-88.90926000
9.12475586,-87.42526000
9.15527344,-84.88120000
9.18579102,-83.88896000
9.21630859,-84.04457000
9.24682617,-84.82494000
9.27734375,-86.94124000
9.30786133,-90.55705000
9.33837891,-88.85819000
9.36889648,-85.05362000
9.39941406,-83.15049000
9.42993164,-83.06863000
9.46044922,-83.73198000
9.49096680,-82.25426000
9.52148438,-80.55099000
9.55200195,-80.80173000
9.58251953,-82.66285000
9.61303711,-84.78557000
9.64355469,-85.75429000
9.67407227,-85.20405000
9.70458984,-83.66917000
9.73510742,-80.94176000
9.76562500,-78.91428000
9.79614258,-78.55073000
9.82666016,-79.57101000
9.85717773,-81.36536000
9.88769531,-83.12645000
9.91821289,-84.08593000
9.94873047,-84.14588000
9.97924805,-82.98005000
10.00976563,-80.98273000
10.04028320,-79.16077000
10.07080078,-77.99269000
10.10131836,-78.02141000
10.13183594,-79.98099000
10.16235352,-84.97281000
10.19287109,-98.01017000
10.22338867,-97.05771000
10.25390625,-96.84007000
10.28442383,-89.90030000
10.31494141,-81.26379000
10.34545898,-77.46154000
10.37597656,-76.73821000
10.40649414,-78.80006000
10.43701172,-83.42399000
10.46752930,-85.92958000
10.49804688,-85.08054000
10.52856445,-84.09766000
10.55908203,-82.07961000
10.58959961,-80.64445000
10.62011719,-80.26928000
10.65063477,-80.71638000
10.68115234,-81.48116000
10.71166992,-82.05571000
10.74218750,-82.51157000
10.77270508,-82.60475000
10.80322266,-82.99477000
10.83374023,-85.42487000
10.86425781,-90.73162000
10.89477539,-93.61805000
10.92529297,-92.71094000
10.95581055,-90.41209000
10.98632813,-87.24771000
11.01684570,-86.04183000
11.04736328,-83.69449000
11.07788086,-79.57513000
11.10839844,-77.42562000
11.13891602,-77.82076000
11.16943359,-80.46451000
11.19995117,-82.51538000
11.23046875,-80.24983000
11.26098633,-78.27168000
11.29150391,-78.10981000
11.32202148,-79.89877000
11.35253906,-81.75375000
11.38305664,-80.31864000
11.41357422,-80.79781000
11.44409180,-85.17294000
11.47460938,-82.61819000
11.50512695,-79.17047000
11.53564453,-79.65079000
11.56616211,-83.83156000
11.59667969,-90.81866000
11.62719727,-99.30798000
11.65771484,-95.28667000
11.68823242,-84.61709000
11.71875000,-78.46923000
11.74926758,-75.34757000
11.77978516,-74.71008000
11.81030273,-75.67300000
11.84082031,-77.02944000
11.87133789,-78.88460000
11.90185547,-82.50885000
11.93237305,-85.87462000
11.96289063,-82.41682000
11.99340820,-79.35836000
12.02392578,-78.48603000
12.05444336,-77.80762000
12.08496094,-75.43876000
12.11547852,-73.75486000
12.14599609,-73.88084000
12.17651367,-75.51153000
12.20703125,-78.22616000
12.23754883,-82.33405000
12.26806641,-86.79010000
12.29858398,-86.19406000
12.32910156,-83.44354000
12.35961914,-80.85468000
12.39013672,-80.98057000
12.42065430,-85.66722000
12.45117188,-91.59377000
12.48168945,-86.50967000
12.51220703,-86.25558000
12.54272461,-87.77393000
12.57324219,-85.21356000
12.60375977,-83.29716000
12.63427734,-84.58853000
12.66479492,-87.97280000
12.69531250,-89.43668000
12.72583008,-92.79881000
12.75634766,-95.13958000
12.78686523,-82.50084000
12.81738281,-78.79929000
12.84790039,-78.88993000
12.87841797,-81.32843000
12.90893555,-84.23705000
12.93945313,-88.50922000
12.96997070,-90.37350000
13.00048828,-83.38293000
13.03100586,-81.28438000
13.06152344,-82.28305000
13.09204102,-86.34879000
13.12255859,-94.95212000
13.15307617,-91.37410000
13.18359375,-92.70143000
13.21411133,-99.64598000
13.24462891,-86.88485000
13.27514648,-83.61034000
13.30566406,-87.04914000
13.33618164,-84.55463000
13.36669922,-75.91418000
13.39721680,-72.96452000
13.42773438,-73.38824000
13.45825195,-78.30405000
13.48876953,-81.12186000
13.51928711,-70.27932000
13.54980469,-66.66531000
13.58032227,-66.81728000
13.61083984,-69.99867000
13.64135742,-74.26624000
13.67187500,-75.00707000
13.70239258,-71.17476000
13.73291016,-67.62103000
13.76342773,-66.74252000
13.79394531,-68.63977000
13.82446289,-72.94061000
13.85498047,-77.30393000
13.88549805,-78.70606000
13.91601563,-79.06899000
13.94653320,-78.54775000
13.97705078,-76.82005000
14.00756836,-75.31406000
14.03808594,-75.22881000
14.06860352,-76.54408000
14.09912109,-78.28854000
14.12963867,-79.73413000
14.16015625,-80.85509000
14.19067383,-80.98953000
14.22119141,-80.94558000
14.25170898,-82.92044000
14.28222656,-86.45721000
14.31274414,-84.64542000
14.34326172,-81.39117000
14.37377930,-80.00481000
14.40429688,-80.80066000
14.43481445,-83.45910000
14.46533203,-87.37836000
14.49584961,-92.06860000
14.52636719,-94.61391000
14.55688477,-92.38407000
14.58740234,-88.90369000
14.61791992,-86.33734000
14.64843750,-83.99652000
14.67895508,-81.54338000
14.70947266,-79.98082000
14.73999023,-79.61174000
14.77050781,-80.04848000
14.80102539,-81.02273000
14.83154297,-83.13946000
14.86206055,-87.41265000
14.89257813,-87.88484000
14.92309570,-85.38612000
14.95361328,-87.17400000
14.98413086,-97.97206000
15.01464844,-90.70329000
15.04516602,-83.05679000
15.07568359,-80.06880000
15.10620117,-80.16682000
15.13671875,-83.67728000
15.16723633,-86.09124000
15.19775391,-82.85521000
15.22827148,-83.18542000
15.25878906,-87.46072000
15.28930664,-88.41591000
15.31982422,-83.34613000
15.35034180,-80.66115000
15.38085938,-79.64618000
15.41137695,-79.73730000
15.44189453,-81.71088000
15.47241211,-86.55167000
15.50292969,-92.63447000
15.53344727,-90.25344000
15.56396484,-86.44904000
15.59448242,-83.52676000
15.62500000,-81.47966000
15.65551758,-80.93459000
15.68603516,-81.73077000
15.71655273,-82.28397000
15.74707031,-81.40598000
15.77758789,-80.35030000
15.80810547,-80.80743000
15.83862305,-83.90814000
15.86914063,-87.60265000
15.89965820,-86.09971000
15.93017578,-84.42941000
15.96069336,-83.46355000
15.99121094,-85.77355000
16.02172852,-92.49464000
16.05224609,-84.06517000
16.08276367,-80.44621000
16.11328125,-79.49929000
16.14379883,-79.72527000
16.17431641,-80.94193000
16.20483398,-82.64995000
16.23535156,-84.26103000
16.26586914,-85.75286000
16.29638672,-85.08395000
16.32690430,-83.22205000
16.35742188,-81.76405000
16.38793945,-81.05358000
16.41845703,-81.90721000
16.44897461,-84.54630000
16.47949219,-88.21645000
16.51000977,-91.68449000
16.54052734,-93.24696000
16.57104492,-93.00061000
16.60156250,-93.16118000
16.63208008,-94.71290000
16.66259766,-98.83693000
16.69311523,-103.31330000
16.72363281,-97.11703000
16.75415039,-91.80253000
16.78466797,-89.42827000
16.81518555,-89.28404000
16.84570313,-90.26620000
16.87622070,-90.80575000
16.90673828,-89.87343000
16.93725586,-88.44398000
16.96777344,-88.04847000
16.99829102,-88.95664000
17.02880859,-89.98169000
17.05932617,-90.80498000
17.08984375,-88.54057000
17.12036133,-84.89661000
17.15087891,-83.88634000
17.18139648,-86.00906000
17.21191406,-91.85436000
17.24243164,-94.75682000
17.27294922,-90.78455000
17.30346680,-91.37646000
17.33398438,-100.70870000
17.36450195,-95.38063000
17.39501953,-88.23421000
17.42553711,-86.22800000
17.45605469,-86.08367000
17.48657227,-87.25604000
17.51708984,-91.64899000
17.54760742,-98.84262000
17.57812500,-89.08197000
17.60864258,-85.21695000
17.63916016,-83.90435000
17.66967773,-84.13019000
17.70019531,-86.05730000
17.73071289,-89.23329000
17.76123047,-88.13106000
17.79174805,-85.63159000
17.82226563,-86.21342000
17.85278320,-90.13058000
17.88330078,-89.25072000
17.91381836,-86.67258000
17.94433594,-87.66541000
17.97485352,-91.65764000
18.00537109,-95.94514000
18.03588867,-97.66384000
18.06640625,-103.67450000
18.09692383,-95.35771000
18.12744141,-88.58704000
18.15795898,-85.82172000
18.18847656,-85.95737000
18.21899414,-89.57191000
18.24951172,-102.26290000
18.28002930,-97.63548000
18.31054688,-93.48839000
18.34106445,-94.19635000
18.37158203,-96.10451000
18.40209961,-99.31534000
18.43261719,-98.71890000
18.46313477,-92.29817000
18.49365234,-88.75186000
18.52416992,-87.36041000
18.55468750,-87.45158000
18.58520508,-88.77731000
18.61572266,-90.75176000
18.64624023,-91.83740000
18.67675781,-91.83167000
18.70727539,-91.76230000
18.73779297,-91.63497000
18.76831055,-91.62996000
18.79882813,-92.95635000
18.82934570,-95.17834000
18.85986328,-94.72745000
18.89038086,-93.32420000
18.92089844,-93.29037000
18.95141602,-95.15184000
18.98193359,-100.10080000
19.01245117,-102.19400000
19.04296875,-95.71698000
19.07348633,-94.31911000
19.10400391,-97.85263000
19.13452148,-104.82360000
19.16503906,-96.83967000
19.19555664,-93.39076000
19.22607422,-92.33654000
19.25659180,-92.70367000
19.28710938,-93.96645000
19.31762695,-92.86415000
19.34814453,-91.24030000
19.37866211,-92.85309000
19.40917969,-97.92138000
19.43969727,-94.15391000
19.47021484,-90.92582000
19.50073242,-91.00846000
19.53125000,-93.03860000
19.56176758,-95.72745000
19.59228516,-97.85521000
19.62280273,-96.88443000
19.65332031,-94.75140000
19.68383789,-95.29865000
19.71435547,-99.85478000
19.74487305,-103.98680000
19.77539063,-96.45825000
19.80590820,-92.50469000
19.83642578,-91.62827000
19.86694336,-92.34453000
19.89746094,-91.08459000
19.92797852,-88.88604000
19.95849609,-88.11245000
19.98901367,-88.49728000
20.01953125,-89.04890000
20.05004883,-89.30151000
20.08056641,-88.77010000
20.11108398,-87.02969000
20.14160156,-85.54222000
20.17211914,-85.83339000
20.20263672,-88.00621000
20.23315430,-87.53909000
20.26367188,-84.70890000
20.29418945,-83.94772000
20.32470703,-85.95864000
20.35522461,-92.98984000
20.38574219,-96.85889000
20.41625977,-85.60180000
20.44677734,-81.03744000
20.47729492,-78.75420000
20.50781250,-78.19357000
20.53833008,-79.23727000
20.56884766,-81.28340000
20.59936523,-81.93571000
20.62988281,-80.85544000
20.66040039,-80.59917000
20.69091797,-81.65598000
20.72143555,-82.88678000
20.75195313,-83.05652000
20.78247070,-82.86037000
20.81298828,-83.11279000
20.84350586,-84.10043000
20.87402344,-85.22737000
20.90454102,-83.81413000
20.93505859,-81.10023000
20.96557617,-79.76031000
20.99609375,-80.14217000
21.02661133,-81.67511000
21.05712891,-82.99545000
21.08764648,-83.50800000
21.11816406,-84.40323000
21.14868164,-85.71870000
21.17919922,-86.11061000
21.20971680,-86.27438000
21.24023438,-87.64179000
21.27075195,-90.25695000
21.30126953,-90.43186000
21.33178711,-86.98579000
21.36230469,-84.54771000
21.39282227,-83.54285000
21.42333984,-83.03323000
21.45385742,-82.58693000
21.48437500,-82.78708000
21.51489258,-83.93653000
21.54541016,-85.68429000
21.57592773,-87.33756000
21.60644531,-88.42709000
21.63696289,-89.39111000
21.66748047,-90.51174000
21.69799805,-90.53442000
21.72851563,-89.94376000
21.75903320,-90.21672000
21.78955078,-90.22832000
21.82006836,-89.03281000
21.85058594,-88.12025000
21.88110352,-87.53442000
21.91162109,-86.97813000
21.94213867,-87.56580000
21.97265625,-89.68208000
22.00317383,-90.43903000
22.03369141,-89.08014000
22.06420898,-88.55683000
22.09472656,-88.80939000
22.12524414,-89.34124000
22.15576172,-90.94822000
22.18627930,-93.95413000
22.21679688,-92.74993000
22.24731445,-89.50807000
22.27783203,-88.43938000
22.30834961,-88.63539000
22.33886719,-87.40565000
22.36938477,-84.53177000
22.39990234,-82.45068000
22.43041992,-82.05687000
22.46093750,-83.37364000
22.49145508,-85.57249000
22.52197266,-87.14438000
22.55249023,-88.81858000
22.58300781,-91.95670000
22.61352539,-93.00709000
22.64404297,-91.21541000
22.67456055,-91.15437000
22.70507813,-92.93587000
22.73559570,-96.11809000
22.76611328,-100.27200000
22.79663086,-97.51130000
22.82714844,-92.68938000
22.85766602,-90.31715000
22.88818359,-89.26688000
22.91870117,-88.37378000
22.94921875,-87.64589000
22.97973633,-86.98816000
23.01025391,-86.01434000
23.04077148,-85.35928000
23.07128906,-86.00706000
23.10180664,-88.94028000
23.13232422,-95.75706000
23.16284180,-94.61169000
23.19335938,-90.08599000
23.22387695,-89.22337000
23.25439453,-90.16174000
23.28491211,-90.91767000
23.31542969,-90.07764000
23.34594727,-89.15938000
23.37646484,-89.61983000
23.40698242,-91.72292000
23.43750000,-95.00610000
23.46801758,-98.56947000
23.49853516,-102.14850000
23.52905273,-105.21460000
23.55957031,-107.82070000
23.59008789,-110.62780000
23.62060547,-99.97815000
23.65112305,-94.34655000
23.68164063,-93.54379000
23.71215820,-99.82980000
23.74267578,-97.13533000
23.77319336,-88.82043000
23.80371094,-85.98775000
23.83422852,-85.60594000
23.86474609,-86.67387000
23.89526367,-88.84538000
23.92578125,-92.48831000
23.95629883,-95.47980000
23.98681641,-92.15255000
24.01733398,-89.77197000
24.04785156,-89.38160000
24.07836914,-89.30619000
24.10888672,-88.22949000
24.13940430,-87.23278000
24.16992188,-87.51552000
24.20043945,-89.75053000
24.23095703,-95.08384000
24.26147461,-99.02110000
24.29199219,-94.23173000
24.32250977,-91.65496000
24.35302734,-89.93165000
24.38354492,-89.11919000
24.41406250,-90.02158000
24.44458008,-92.79283000
24.47509766,-93.05541000
24.50561523,-90.35214000
24.53613281,-90.52541000
24.56665039,-95.51767000
24.59716797,-100.91000000
24.62768555,-94.48045000
24.65820313,-94.20515000
24.68872070,-97.54539000
24.71923828,-95.47364000
24.74975586,-91.30042000
24.78027344,-89.54307000
24.81079102,-89.75557000
24.84130859,-91.93864000
24.87182617,-96.43657000
24.90234375,-101.17090000
24.93286133,-101.21300000
24.96337891,-102.72860000
24.99389648,-106.88650000
25.02441406,-105.86880000
25.05493164,-103.54020000
25.08544922,-99.74081000
25.11596680,-92.60797000
25.14648438,-88.42377000
25.17700195,-87.50056000
25.20751953,-89.39391000
25.23803711,-91.40255000
25.26855469,-90.49065000
25.29907227,-90.28767000
25.32958984,-91.55788000
25.36010742,-94.01845000
25.39062500,-97.13509000
25.42114258,-95.51040000
25.45166016,-91.45145000
25.48217773,-88.33058000
25.51269531,-86.98327000
25.54321289,-88.37473000
25.57373047,-94.26431000
25.60424805,-105.47990000
25.63476563,-93.36954000
25.66528320,-90.50518000
25.69580078,-91.69591000
25.72631836,-99.25110000
25.75683594,-103.94320000
25.78735352,-96.91387000
25.81787109,-98.82115000
25.84838867,-99.41319000
25.87890625,-94.73608000
25.90942383,-92.18761000
25.93994141,-91.51375000
25.97045898,-92.99911000
26.00097656,-99.33331000
26.03149414,-103.74650000
26.06201172,-94.20483000
26.09252930,-92.48860000
26.12304688,-93.06815000
26.15356445,-92.87872000
26.18408203,-91.77965000
26.21459961,-91.17567000
26.24511719,-91.27649000
26.27563477,-91.13106000
26.30615234,-91.04775000
26.33666992,-92.22914000
26.36718750,-95.11426000
26.39770508,-97.99213000
26.42822266,-94.53700000
26.45874023,-90.56533000
26.48925781,-89.15869000
26.51977539,-90.38214000
26.55029297,-93.16176000
26.58081055,-94.81538000
26.61132813,-96.98025000
26.64184570,-102.83020000
26.67236328,-94.48717000
26.70288086,-89.70485000
26.73339844,-88.89390000
26.76391602,-91.03214000
26.79443359,-95.13113000
26.82495117,-98.04813000
26.85546875,-100.85810000
26.88598633,-98.78310000
26.91650391,-95.51062000
26.94702148,-95.18661000
26.97753906,-97.74967000
27.00805664,-104.73550000
27.03857422,-105.04080000
27.06909180,-99.86816000
27.09960938,-96.54047000
27.13012695,-95.34835000
27.16064453,-95.01093000
27.19116211,-92.97269000
27.22167969,-91.95193000
27.25219727,-94.61510000
27.28271484,-107.23960000
27.31323242,-94.31439000
27.34375000,-89.70515000
27.37426758,-90.00533000
27.40478516,-95.49416000
27.43530273,-113.14330000
27.46582031,-98.85820000
27.49633789,-96.38999000
27.52685547,-91.93230000
27.55737305,-89.17808000
27.58789063,-89.51521000
27.61840820,-92.82445000
27.64892578,-97.43942000
27.67944336,-99.15478000
27.70996094,-99.63222000
27.74047852,-98.08468000
27.77099609,-96.22137000
27.80151367,-96.01974000
27.83203125,-98.54611000
27.86254883,-107.56970000
27.89306641,-105.85570000
27.92358398,-98.37807000
27.95410156,-95.40947000
27.98461914,-93.57101000
28.01513672,-92.50688000
28.04565430,-93.01067000
28.07617188,-95.94768000
28.10668945,-101.94240000
28.13720703,-105.79220000
28.16772461,-96.55003000
28.19824219,-92.29311000
28.22875977,-92.32292000
28.25927734,-95.78151000
28.28979492,-95.25123000
28.32031250,-92.27917000
28.35083008,-92.20303000
28.38134766,-94.34342000
28.41186523,-96.52707000
28.44238281,-96.79363000
28.47290039,-96.25864000
28.50341797,-95.07805000
28.53393555,-93.19133000
28.56445313,-91.57773000
28.59497070,-90.89207000
28.62548828,-90.54300000
28.65600586,-90.22214000
28.68652344,-91.26548000
28.71704102,-94.43481000
28.74755859,-98.33032000
28.77807617,-100.30970000
28.80859375,-97.82101000
28.83911133,-93.43050000
28.86962891,-90.81683000
28.90014648,-90.76942000
28.93066406,-93.62972000
28.96118164,-96.00455000
28.99169922,-93.09796000
29.02221680,-91.60416000
29.05273438,-91.66769000
29.08325195,-91.75156000
29.11376953,-91.07161000
29.14428711,-90.21781000
29.17480469,-90.00665000
29.20532227,-90.97430000
29.23583984,-94.26556000
29.26635742,-104.12780000
29.29687500,-101.88180000
29.32739258,-98.31087000
29.35791016,-101.19770000
29.38842773,-100.69090000
29.41894531,-96.05489000
29.44946289,-94.90672000
29.47998047,-99.06628000
29.51049805,-109.94520000
29.54101563,-95.67120000
29.57153320,-93.38589000
29.60205078,-94.08074000
29.63256836,-94.62739000
29.66308594,-95.98575000
29.69360352,-103.56540000
29.72412109,-99.92419000
29.75463867,-92.84322000
29.78515625,-91.41841000
29.81567383,-93.27050000
29.84619141,-96.60667000
29.87670898,-97.74794000
29.90722656,-100.22090000
29.93774414,-103.28790000
29.96826172,-96.25504000
29.99877930,-92.75455000
30.02929688,-91.29916000
30.05981445,-90.53329000
30.09033203,-90.46879000
30.12084961,-92.06613000
30.15136719,-95.77856000
30.18188477,-96.05975000
30.21240234,-94.34788000
30.24291992,-96.16521000
30.27343750,-100.35420000
30.30395508,-99.71428000
30.33447266,-100.65850000
30.36499023,-106.23660000
30.39550781,-103.11830000
30.42602539,-97.41780000
30.45654297,-93.49901000
30.48706055,-91.96824000
30.51757813,-94.14627000
30.54809570,-105.67080000
30.57861328,-99.21455000
30.60913086,-93.86214000
30.63964844,-92.87327000
30.67016602,-93.35925000
30.70068359,-94.42381000
30.73120117,-95.88624000
30.76171875,-97.85580000
30.79223633,-98.51897000
30.82275391,-95.01889000
30.85327148,-92.12521000
30.88378906,-91.94115000
30.91430664,-94.45027000
30.94482422,-95.67281000
30.97534180,-94.08665000
31.00585938,-96.37456000
31.03637695,-108.48170000
31.06689453,-96.55708000
31.09741211,-93.94746000
31.12792969,-94.66602000
31.15844727,-95.71889000
31.18896484,-100.18300000
31.21948242,-112.22820000
31.25000000,-104.63920000
31.28051758,-105.45020000
31.31103516,-105.38780000
31.34155273,-101.72280000
31.37207031,-100.12860000
31.40258789,-104.67470000
31.43310547,-97.88203000
31.46362305,-92.50453000
31.49414063,-91.37447000
31.52465820,-92.92039000
31.55517578,-99.58307000
31.58569336,-100.45540000
31.61621094,-91.52670000
31.64672852,-89.87438000
31.67724609,-92.02622000
31.70776367,-98.65398000
31.73828125,-116.33560000
31.76879883,-99.91714000
31.79931641,-95.12163000
31.82983398,-91.58370000
31.86035156,-90.59537000
31.89086914,-92.29044000
31.92138672,-94.17293000
31.95190430,-94.04764000
31.98242188,-95.59403000
32.01293945,-98.99629000
32.04345703,-97.51860000
32.07397461,-95.84621000
32.10449219,-96.36661000
32.13500977,-97.12907000
32.16552734,-96.42422000
32.19604492,-96.31973000
32.22656250,-99.90221000
32.25708008,-119.69200000
32.28759766,-96.11962000
32.31811523,-90.57784000
32.34863281,-88.48763000
32.37915039,-88.81615000
32.40966797,-91.40509000
32.44018555,-96.44851000
32.47070313,-105.96350000
32.50122070,-107.37960000
32.53173828,-104.69580000
32.56225586,-100.99770000
32.59277344,-95.37555000
32.62329102,-95.49895000
32.65380859,-105.35800000
32.68432617,-99.73611000
32.71484375,-92.81457000
32.74536133,-90.97090000
32.77587891,-92.43471000
32.80639648,-98.20792000
32.83691406,-108.09770000
32.86743164,-101.77420000
32.89794922,-99.04851000
32.92846680,-96.98821000
32.95898438,-95.57156000
32.98950195,-96.32768000
33.02001953,-102.33480000
33.05053711,-100.96840000
33.08105469,-94.65736000
33.11157227,-93.33451000
33.14208984,-94.75444000
33.17260742,-98.05753000
33.20312500,-98.41633000
33.23364258,-94.72374000
33.26416016,-93.34022000
33.29467773,-94.17278000
33.32519531,-93.85057000
33.35571289,-92.68486000
33.38623047,-93.08568000
33.41674805,-92.92556000
33.44726563,-92.94556000
33.47778320,-97.04353000
33.50830078,-109.46060000
33.53881836,-97.17349000
33.56933594,-93.89949000
33.59985352,-95.06818000
33.63037109,-104.75090000
33.66088867,-99.44814000
33.69140625,-92.72583000
33.72192383,-90.73004000
33.75244141,-90.82887000
33.78295898,-92.28523000
33.81347656,-94.03539000
33.84399414,-96.36308000
33.87451172,-100.97400000
33.90502930,-102.53480000
33.93554688,-100.10280000
33.96606445,-103.08340000
33.99658203,-110.27670000
34.02709961,-95.78261000
34.05761719,-92.09472000
34.08813477,-92.41032000
34.11865234,-96.38991000
34.14916992,-104.46000000
34.17968750,-100.08580000
34.21020508,-98.70983000
34.24072266,-102.21830000
34.27124023,-105.02610000
34.30175781,-103.92850000
34.33227539,-103.06130000
34.36279297,-103.67190000
34.39331055,-100.25980000
34.42382813,-95.15633000
34.45434570,-93.53657000
34.48486328,-94.29962000
34.51538086,-95.34052000
34.54589844,-96.55566000
34.57641602,-98.10569000
34.60693359,-95.14865000
34.63745117,-92.11478000
34.66796875,-91.40063000
34.69848633,-92.56819000
34.72900391,-93.18511000
34.75952148,-90.75367000
34.79003906,-88.88300000
34.82055664,-89.50749000
34.85107422,-93.55760000
34.88159180,-100.12630000
34.91210938,-96.06594000
34.94262695,-94.64591000
34.97314453,-97.15878000
35.00366211,-104.11840000
35.03417969,-109.64950000
35.06469727,-100.61870000
35.09521484,-97.77938000
35.12573242,-99.52766000
35.15625000,-113.65180000
35.18676758,-98.98215000
35.21728516,-94.05148000
35.24780273,-93.73448000
35.27832031,-95.56378000
35.30883789,-96.81102000
35.33935547,-93.88409000
35.36987305,-91.03629000
35.40039063,-90.39394000
35.43090820,-90.66609000
35.46142578,-90.83405000
35.49194336,-91.15836000
35.52246094,-92.01435000
35.55297852,-94.51458000
35.58349609,-100.10490000
35.61401367,-104.82990000
35.64453125,-106.34880000
35.67504883,-104.06320000
35.70556641,-95.42278000
35.73608398,-92.56598000
35.76660156,-92.80837000
35.79711914,-92.84393000
35.82763672,-92.25552000
35.85815430,-94.81105000
35.88867188,-107.13850000
35.91918945,-97.66013000
35.94970703,-93.65973000
35.98022461,-94.83952000
36.01074219,-100.03200000
36.04125977,-107.76100000
36.07177734,-105.68400000
36.10229492,-104.45400000
36.13281250,-102.05030000
36.16333008,-100.40070000
36.19384766,-102.07460000
36.22436523,-107.11490000
36.25488281,-121.82160000
36.28540039,-103.09340000
36.31591797,-96.87303000
36.34643555,-95.27698000
36.37695313,-97.53087000
36.40747070,-104.69610000
36.43798828,-108.87720000
36.46850586,-98.27786000
36.49902344,-92.51877000
36.52954102,-90.01590000
36.56005859,-89.89244000
36.59057617,-91.38284000
36.62109375,-93.55739000
36.65161133,-96.45935000
36.68212891,-103.06700000
36.71264648,-111.69410000
36.74316406,-103.43770000
36.77368164,-102.61700000
36.80419922,-103.94060000
36.83471680,-106.52710000
36.86523438,-108.07150000
36.89575195,-112.01840000
36.92626953,-118.01530000
36.95678711,-117.86260000
36.98730469,-108.43490000
37.01782227,-98.61000000
37.04833984,-95.39902000
37.07885742,-96.13800000
37.10937500,-99.66927000
37.13989258,-102.72580000
37.17041016,-101.20790000
37.20092773,-98.52820000
37.23144531,-97.71147000
37.26196289,-98.13251000
37.29248047,-97.76889000
37.32299805,-98.17667000
37.35351563,-101.44420000
37.38403320,-105.98030000
37.41455078,-105.08750000
37.44506836,-102.38300000
37.47558594,-100.07790000
37.50610352,-96.90835000
37.53662109,-97.11539000
37.56713867,-107.31050000
37.59765625,-99.84622000
37.62817383,-93.37181000
37.65869141,-91.63898000
37.68920898,-91.71616000
37.71972656,-92.67899000
37.75024414,-94.40355000
37.78076172,-96.60545000
37.81127930,-96.97692000
37.84179688,-95.45724000
37.87231445,-95.21679000
37.90283203,-97.06165000
37.93334961,-98.75912000
37.96386719,-98.65282000
37.99438477,-98.21802000
38.02490234,-95.63403000
38.05541992,-93.26338000
38.08593750,-92.97588000
38.11645508,-95.12463000
38.14697266,-96.18466000
38.17749023,-93.58844000
38.20800781,-93.32390000
38.23852539,-95.49805000
38.26904297,-97.61781000
38.29956055,-97.55402000
38.33007813,-95.77086000
38.36059570,-93.33950000
38.39111328,-91.18442000
38.42163086,-89.99538000
38.45214844,-90.69114000
38.48266602,-94.23156000
38.51318359,-101.43410000
38.54370117,-111.21190000
38.57421875,-106.01410000
38.60473633,-101.32450000
38.63525391,-100.72710000
38.66577148,-99.09477000
38.69628906,-96.76400000
38.72680664,-99.13446000
38.75732422,-117.24800000
38.78784180,-98.10706000
38.81835938,-94.06898000
38.84887695,-92.53182000
38.87939453,-91.26956000
38.90991211,-90.68678000
38.94042969,-91.92623000
38.97094727,-95.69795000
39.00146484,-100.98580000
39.03198242,-99.63516000
39.06250000,-96.45499000
39.09301758,-96.15199000
39.12353516,-99.81767000
39.15405273,-110.60640000
39.18457031,-101.52520000
39.21508789,-96.00395000
39.24560547,-92.85237000
39.27612305,-90.97911000
39.30664063,-90.23918000
39.33715820,-90.14629000
39.36767578,-90.16552000
39.39819336,-91.04888000
39.42871094,-95.29585000
39.45922852,-103.71350000
39.48974609,-94.10089000
39.52026367,-91.95180000
39.55078125,-93.01237000
39.58129883,-93.50205000
39.61181641,-91.98013000
39.64233398,-91.18049000
39.67285156,-92.10931000
39.70336914,-93.19238000
39.73388672,-90.64507000
39.76440430,-87.27725000
39.79492188,-85.60741000
39.82543945,-85.96358000
39.85595703,-88.57548000
39.88647461,-95.11471000
39.91699219,-105.50540000
39.94750977,-93.60528000
39.97802734,-91.70036000
40.00854492,-94.42639000
40.03906250,-98.78724000
40.06958008,-95.27360000
40.10009766,-94.10794000
40.13061523,-95.74031000
40.16113281,-101.56040000
40.19165039,-101.91380000
40.22216797,-91.86478000
40.25268555,-88.53468000
40.28320313,-88.26794000
40.31372070,-90.58563000
40.34423828,-95.33290000
40.37475586,-94.16165000
40.40527344,-91.19063000
40.43579102,-91.95309000
40.46630859,-94.47575000
40.49682617,-90.82818000
40.52734375,-87.99935000
40.55786133,-88.25365000
40.58837891,-91.51771000
40.61889648,-100.60170000
40.64941406,-96.92776000
40.67993164,-90.54971000
40.71044922,-89.29765000
40.74096680,-91.19606000
40.77148438,-96.46534000
40.80200195,-99.88776000
40.83251953,-90.93171000
40.86303711,-87.52621000
40.89355469,-88.20164000
40.92407227,-93.09999000
40.95458984,-101.14610000
40.98510742,-101.89630000
41.01562500,-100.41350000
41.04614258,-94.53899000
41.07666016,-91.89497000
41.10717773,-91.83755000
41.13769531,-93.25815000
41.16821289,-94.73129000
41.19873047,-94.60228000
41.22924805,-95.84733000
41.25976563,-97.92618000
41.29028320,-99.58319000
41.32080078,-116.08100000
41.35131836,-100.49710000
41.38183594,-98.79109000
41.41235352,-110.33690000
41.44287109,-98.18835000
41.47338867,-93.71959000
41.50390625,-94.18354000
41.53442383,-100.49670000
41.56494141,-102.23080000
41.59545898,-92.87881000
41.62597656,-90.10932000
41.65649414,-89.65932000
41.68701172,-89.53292000
41.71752930,-88.22547000
41.74804688,-86.81245000
41.77856445,-87.30134000
41.80908203,-88.68621000
41.83959961,-87.41014000
41.87011719,-86.97328000
41.90063477,-89.24951000
41.93115234,-91.70486000
41.96166992,-91.47713000
41.99218750,-92.46083000
42.02270508,-96.41226000
42.05322266,-95.27924000
42.08374023,-90.80825000
42.11425781,-89.83720000
42.14477539,-91.97594000
42.17529297,-90.36488000
42.20581055,-88.26213000
42.23632813,-89.89809000
42.26684570,-95.99146000
42.29736328,-106.91950000
42.32788086,-94.25809000
42.35839844,-90.67340000
42.38891602,-89.98485000
42.41943359,-89.74552000
42.44995117,-88.37523000
42.48046875,-85.65529000
42.51098633,-83.24711000
42.54150391,-82.69055000
42.57202148,-84.32748000
42.60253906,-87.68505000
42.63305664,-90.61591000
42.66357422,-91.33453000
42.69409180,-92.18639000
42.72460938,-94.89407000
42.75512695,-100.15240000
42.78564453,-100.92800000
42.81616211,-88.56490000
42.84667969,-83.44331000
42.87719727,-82.18469000
42.90771484,-84.01287000
42.93823242,-89.26779000
42.96875000,-97.33842000
42.99926758,-92.87737000
43.02978516,-91.63817000
43.06030273,-95.88894000
43.09082031,-108.07220000
43.12133789,-102.78810000
43.15185547,-91.08604000
43.18237305,-86.47554000
43.21289063,-86.37211000
43.24340820,-90.42270000
43.27392578,-104.15220000
43.30444336,-95.29189000
43.33496094,-89.34236000
43.36547852,-88.87189000
43.39599609,-93.32999000
43.42651367,-96.20380000
43.45703125,-92.17152000
43.48754883,-91.58683000
43.51806641,-91.70219000
43.54858398,-92.80228000
43.57910156,-96.99375000
43.60961914,-102.08240000
43.64013672,-93.83598000
43.67065430,-88.65857000
43.70117188,-86.41305000
43.73168945,-86.66801000
43.76220703,-89.02756000
43.79272461,-90.76278000
43.82324219,-89.33017000
43.85375977,-88.78439000
43.88427734,-90.82992000
43.91479492,-95.07887000
43.94531250,-97.79646000
43.97583008,-97.48997000
44.00634766,-96.93154000
44.03686523,-96.51638000
44.06738281,-97.77973000
44.09790039,-96.86204000
44.12841797,-90.82838000
44.15893555,-86.01006000
44.18945313,-84.63932000
44.21997070,-87.42488000
44.25048828,-99.59753000
44.28100586,-91.97011000
44.31152344,-85.79835000
44.34204102,-83.75284000
44.37255859,-84.11629000
44.40307617,-86.51466000
44.43359375,-89.86784000
44.46411133,-92.60280000
44.49462891,-93.58329000
44.52514648,-92.60499000
44.55566406,-93.34312000
44.58618164,-97.54108000
44.61669922,-94.45290000
44.64721680,-88.59201000
44.67773438,-86.28082000
44.70825195,-86.98317000
44.73876953,-90.97694000
44.76928711,-99.06482000
44.79980469,-107.16420000
44.83032227,-123.80050000
44.86083984,-102.88770000
44.89135742,-100.81770000
44.92187500,-100.20100000
44.95239258,-94.15143000
44.98291016,-90.67612000
45.01342773,-90.15341000
45.04394531,-92.40508000
45.07446289,-97.36037000
45.10498047,-99.53012000
45.13549805,-96.40495000
45.16601563,-94.55843000
45.19653320,-95.22647000
45.22705078,-97.87675000
45.25756836,-97.86816000
45.28808594,-93.43406000
45.31860352,-89.30075000
45.34912109,-87.07358000
45.37963867,-87.33734000
45.41015625,-90.23022000
45.44067383,-94.36105000
45.47119141,-94.92165000
45.50170898,-92.07282000
45.53222656,-90.38072000
45.56274414,-90.76414000
45.59326172,-92.01532000
45.62377930,-91.34256000
45.65429688,-89.49886000
45.68481445,-89.20094000
45.71533203,-91.52824000
45.74584961,-98.16367000
45.77636719,-112.30850000
45.80688477,-106.51560000
45.83740234,-114.04880000
45.86791992,-97.12584000
45.89843750,-92.35261000
45.92895508,-91.14885000
45.95947266,-92.49951000
45.98999023,-92.83965000
46.02050781,-90.47267000
46.05102539,-91.49505000
46.08154297,-98.14252000
46.11206055,-98.55319000
46.14257813,-95.52838000
46.17309570,-94.80698000
46.20361328,-96.16897000
46.23413086,-100.94550000
46.26464844,-107.31350000
46.29516602,-103.83520000
46.32568359,-97.46262000
46.35620117,-94.58801000
46.38671875,-93.82816000
46.41723633,-93.80956000
46.44775391,-93.85165000
46.47827148,-93.53844000
46.50878906,-93.01871000
46.53930664,-93.40598000
46.56982422,-94.22198000
46.60034180,-95.11763000
46.63085938,-99.39371000
46.66137695,-111.67620000
46.69189453,-98.91862000
46.72241211,-98.26851000
46.75292969,-96.18374000
46.78344727,-92.63756000
46.81396484,-93.86799000
46.84448242,-105.27670000
46.87500000,-97.18144000
46.90551758,-91.49659000
46.93603516,-90.23128000
46.96655273,-91.15900000
46.99707031,-94.01867000
47.02758789,-99.92547000
47.05810547,-108.43300000
47.08862305,-101.42340000
47.11914063,-99.02050000
47.14965820,-99.65941000
47.18017578,-102.22800000
47.21069336,-104.03490000
47.24121094,-101.91550000
47.27172852,-99.35699000
47.30224609,-100.27420000
47.33276367,-108.26730000
47.36328125,-101.16880000
47.39379883,-97.79224000
47.42431641,-99.38946000
47.45483398,-97.27657000
47.48535156,-92.94917000
47.51586914,-91.19625000
47.54638672,-91.58025000
47.57690430,-93.79836000
47.60742188,-98.00111000
47.63793945,-103.34410000
47.66845703,-99.28279000
47.69897461,-95.49648000
47.72949219,-94.96505000
47.76000977,-97.41747000
47.79052734,-100.99400000
47.82104492,-100.60240000
47.85156250,-102.80850000
47.88208008,-111.92090000
47.91259766,-101.63570000
47.94311523,-97.63648000
47.97363281,-94.98207000
48.00415039,-92.52423000
48.03466797,-90.87345000
48.06518555,-89.97986000
48.09570313,-89.61475000
48.12622070,-90.06519000
48.15673828,-91.51491000
48.18725586,-92.66408000
48.21777344,-93.87173000
48.24829102,-97.93608000
48.27880859,-99.42326000
48.30932617,-93.02097000
48.33984375,-90.10698000
48.37036133,-90.11298000
48.40087891,-92.48582000
48.43139648,-93.77102000
48.46191406,-90.94049000
48.49243164,-89.11137000
48.52294922,-88.98881000
48.55346680,-89.77060000
48.58398438,-91.40857000
48.61450195,-96.12479000
48.64501953,-99.20421000
48.67553711,-90.58736000
48.70605469,-88.18219000
48.73657227,-89.75945000
48.76708984,-94.58729000
48.79760742,-94.79340000
48.82812500,-92.03975000
48.85864258,-92.37457000
48.88916016,-96.14873000
48.91967773,-104.20110000
48.95019531,-113.51080000
48.98071289,-103.68350000
49.01123047,-94.34608000
49.04174805,-92.31734000
49.07226563,-95.74161000
49.10278320,-104.75750000
49.13330078,-99.28891000
49.16381836,-96.94118000
49.19433594,-95.76019000
49.22485352,-94.76579000
49.25537109,-95.88118000
49.28588867,-98.84073000
49.31640625,-94.68393000
49.34692383,-92.25493000
49.37744141,-94.49989000
49.40795898,-98.94413000
49.43847656,-94.33432000
49.46899414,-91.56326000
49.49951172,-90.73326000
49.53002930,-90.82259000
49.56054688,-91.78787000
49.59106445,-93.85472000
49.62158203,-93.98529000
49.65209961,-89.32478000
49.68261719,-86.37855000
49.71313477,-86.20770000
49.74365234,-88.30151000
49.77416992,-91.48962000
49.80468750,-94.46834000
49.83520508,-97.83817000
49.86572266,-103.11190000
49.89624023,-102.17440000
49.92675781,-96.72815000
49.95727539,-92.62292000
49.98779297,-89.14305000
50.01831055,-86.95423000
