Frequency,Channel A
(MHz),(dBu)

0.00000000,-35.72329000
0.03051758,-36.26810000
0.06103516,-42.20348000
0.09155273,-54.08435000
0.12207031,-60.08125000
0.15258789,-63.44754000
0.18310547,-65.86066000
0.21362305,-63.41846000
0.24414063,-63.45238000
0.27465820,-64.75192000
0.30517578,-66.38383000
0.33569336,-69.16743000
0.36621094,-67.77711000
0.39672852,-67.91952000
0.42724609,-67.66684000
0.45776367,-63.70020000
0.48828125,-61.94711000
0.51879883,-62.42250000
0.54931641,-64.19074000
0.57983398,-66.35005000
0.61035156,-67.29372000
0.64086914,-66.16785000
0.67138672,-65.15968000
0.70190430,-66.63650000
0.73242188,-73.36824000
0.76293945,-88.51685000
0.79345703,-77.08035000
0.82397461,-66.57556000
0.85449219,-63.27730000
0.88500977,-64.40202000
0.91552734,-71.03041000
0.94604492,-81.34741000
0.97656250,-70.19928000
1.00708008,-67.84209000
1.03759766,-67.75748000
1.06811523,-68.98006000
1.09863281,-70.15464000
1.12915039,-70.17951000
1.15966797,-68.49447000
1.19018555,-67.63243000
1.22070313,-68.94391000
1.25122070,-71.89448000
1.28173828,-74.45317000
1.31225586,-72.59442000
1.34277344,-70.36232000
1.37329102,-70.47486000
1.40380859,-74.58147000
1.43432617,-82.58945000
1.46484375,-84.36707000
1.49536133,-80.03471000
1.52587891,-80.42555000
1.55639648,-79.08329000
1.58691406,-72.92096000
1.61743164,-73.04969000
1.64794922,-76.55742000
1.67846680,-74.28003000
1.70898438,-71.69460000
1.73950195,-72.82626000
1.77001953,-77.97559000
1.80053711,-82.68986000
1.83105469,-85.28042000
1.86157227,-72.28767000
1.89208984,-67.43951000
1.92260742,-65.33208000
1.95312500,-64.44978000
1.98364258,-64.39642000
2.01416016,-66.13187000
2.04467773,-71.48711000
2.07519531,-79.57166000
2.10571289,-75.95063000
2.13623047,-75.38638000
2.16674805,-78.77225000
2.19726563,-87.50195000
2.22778320,-94.06299000
2.25830078,-80.40921000
2.28881836,-76.16830000
2.31933594,-77.14011000
2.34985352,-82.62970000
2.38037109,-78.29093000
2.41088867,-71.76244000
2.44140625,-70.04379000
2.47192383,-70.06541000
2.50244141,-69.39188000
2.53295898,-70.27316000
2.56347656,-74.98107000
2.59399414,-82.37131000
2.62451172,-81.28259000
2.65502930,-78.82275000
2.68554688,-74.73469000
2.71606445,-75.77000000
2.74658203,-79.05275000
2.77709961,-77.93558000
2.80761719,-84.85120000
2.83813477,-81.23321000
2.86865234,-77.12495000
2.89916992,-75.87115000
2.92968750,-72.85867000
2.96020508,-71.82186000
2.99072266,-71.01939000
3.02124023,-70.78059000
3.05175781,-74.35478000
3.08227539,-89.59022000
3.11279297,-78.92719000
3.14331055,-76.52126000
3.17382813,-78.74928000
3.20434570,-82.86359000
3.23486328,-80.22627000
3.26538086,-76.10356000
3.29589844,-81.56607000
3.32641602,-76.41784000
3.35693359,-70.67176000
3.38745117,-72.37340000
3.41796875,-81.13072000
3.44848633,-94.73882000
3.47900391,-79.38246000
3.50952148,-73.59419000
3.54003906,-74.97819000
3.57055664,-79.03425000
3.60107422,-79.69385000
3.63159180,-90.63689000
3.66210938,-73.54748000
3.69262695,-71.15871000
3.72314453,-75.14122000
3.75366211,-79.66470000
3.78417969,-74.80563000
3.81469727,-77.70718000
3.84521484,-74.73479000
3.87573242,-70.95976000
3.90625000,-70.54501000
3.93676758,-71.77039000
3.96728516,-73.91125000
3.99780273,-73.58755000
4.02832031,-73.52654000
4.05883789,-78.16441000
4.08935547,-91.78664000
4.11987305,-87.51445000
4.15039063,-76.70683000
4.18090820,-72.05165000
4.21142578,-72.64424000
4.24194336,-77.45044000
4.27246094,-76.55562000
4.30297852,-75.98300000
4.33349609,-79.58349000
4.36401367,-91.57054000
4.39453125,-81.95865000
4.42504883,-80.53036000
4.45556641,-92.23804000
4.48608398,-84.21933000
4.51660156,-84.45176000
4.54711914,-90.98682000
4.57763672,-82.60842000
4.60815430,-78.22762000
4.63867188,-80.52249000
4.66918945,-87.85339000
4.69970703,-76.39108000
4.73022461,-75.70566000
4.76074219,-79.51089000
4.79125977,-84.61301000
4.82177734,-86.74776000
4.85229492,-80.70049000
4.88281250,-77.44032000
4.91333008,-75.59309000
4.94384766,-76.50088000
4.97436523,-83.53020000
5.00488281,-82.49677000
5.03540039,-74.57846000
5.06591797,-73.27973000
5.09643555,-76.71225000
5.12695313,-78.18720000
5.15747070,-76.03147000
5.18798828,-78.72887000
5.21850586,-87.71721000
5.24902344,-98.98922000
5.27954102,-89.17718000
5.31005859,-86.38222000
5.34057617,-93.84471000
5.37109375,-87.36108000
5.40161133,-80.06438000
5.43212891,-80.03560000
5.46264648,-88.45135000
5.49316406,-79.57013000
5.52368164,-75.84740000
5.55419922,-78.70787000
5.58471680,-78.22646000
5.61523438,-73.83054000
5.64575195,-74.63390000
5.67626953,-79.92677000
5.70678711,-82.75817000
5.73730469,-77.54447000
5.76782227,-76.40061000
5.79833984,-77.17290000
5.82885742,-75.78798000
5.85937500,-74.08122000
5.88989258,-74.72367000
5.92041016,-77.67817000
5.95092773,-73.76292000
5.98144531,-73.85867000
6.01196289,-86.38709000
6.04248047,-76.97087000
6.07299805,-75.88377000
6.10351563,-80.48131000
6.13403320,-81.68590000
6.16455078,-81.94962000
6.19506836,-78.62292000
6.22558594,-79.72689000
6.25610352,-81.50008000
6.28662109,-81.86837000
6.31713867,-88.42462000
6.34765625,-81.83385000
6.37817383,-77.03192000
6.40869141,-76.92704000
6.43920898,-83.55875000
6.46972656,-81.73854000
6.50024414,-80.47408000
6.53076172,-90.99966000
6.56127930,-88.61466000
6.59179688,-90.07178000
6.62231445,-85.13893000
6.65283203,-81.77558000
6.68334961,-84.73569000
6.71386719,-91.19008000
6.74438477,-90.58997000
6.77490234,-87.69150000
6.80541992,-82.09595000
6.83593750,-79.24988000
6.86645508,-78.29447000
6.89697266,-77.09334000
6.92749023,-75.46744000
6.95800781,-74.47555000
6.98852539,-74.03964000
7.01904297,-73.95506000
7.04956055,-74.67170000
7.08007813,-76.85747000
7.11059570,-81.01085000
7.14111328,-86.75683000
7.17163086,-89.11872000
7.20214844,-96.37017000
7.23266602,-89.65979000
7.26318359,-81.69673000
7.29370117,-78.03291000
7.32421875,-75.92760000
7.35473633,-76.07114000
7.38525391,-78.30799000
7.41577148,-80.75989000
7.44628906,-81.89111000
7.47680664,-82.21716000
7.50732422,-82.77660000
7.53784180,-83.99715000
7.56835938,-87.04314000
7.59887695,-94.46922000
7.62939453,-94.02591000
7.65991211,-86.55730000
7.69042969,-81.49833000
7.72094727,-78.45228000
7.75146484,-77.85245000
7.78198242,-79.64835000
7.81250000,-82.26164000
7.84301758,-84.01080000
7.87353516,-86.05408000
7.90405273,-87.99858000
7.93457031,-89.65309000
7.96508789,-92.67464000
7.99560547,-91.60157000
8.02612305,-85.64655000
8.05664063,-83.95313000
8.08715820,-84.79933000
8.11767578,-84.14700000
8.14819336,-81.59650000
8.17871094,-80.17828000
8.20922852,-79.84607000
8.23974609,-80.04910000
8.27026367,-81.20430000
8.30078125,-82.86003000
8.33129883,-84.70306000
8.36181641,-88.30753000
8.39233398,-91.66802000
8.42285156,-92.20077000
8.45336914,-92.84623000
8.48388672,-90.53666000
8.51440430,-86.26481000
8.54492188,-82.29025000
8.57543945,-79.44598000
8.60595703,-78.12563000
8.63647461,-78.16496000
8.66699219,-79.16057000
8.69750977,-81.33942000
8.72802734,-83.33924000
8.75854492,-83.08325000
8.78906250,-83.30281000
8.81958008,-84.00781000
8.85009766,-85.87776000
8.88061523,-89.69106000
8.91113281,-93.81622000
8.94165039,-98.14287000
8.97216797,-98.23285000
9.00268555,-97.60867000
9.03320313,-95.75838000
9.06372070,-90.47951000
9.09423828,-86.18069000
9.12475586,-85.25079000
9.15527344,-86.02253000
9.18579102,-86.94829000
9.21630859,-86.47228000
9.24682617,-84.27774000
9.27734375,-83.76388000
9.30786133,-85.98512000
9.33837891,-91.19266000
9.36889648,-94.63680000
9.39941406,-96.45591000
9.42993164,-98.38921000
9.46044922,-92.53078000
9.49096680,-91.40601000
9.52148438,-92.20323000
9.55200195,-86.66500000
9.58251953,-84.03591000
9.61303711,-84.96509000
9.64355469,-86.25517000
9.67407227,-85.30346000
9.70458984,-83.11525000
9.73510742,-82.30605000
9.76562500,-84.95063000
9.79614258,-92.53212000
9.82666016,-101.08830000
9.85717773,-91.21306000
9.88769531,-83.21982000
9.91821289,-78.68311000
9.94873047,-75.75790000
9.97924805,-73.98721000
10.00976563,-73.99665000
10.04028320,-76.07215000
10.07080078,-78.77863000
10.10131836,-79.82731000
10.13183594,-80.82795000
10.16235352,-83.20634000
10.19287109,-87.16774000
10.22338867,-90.93707000
10.25390625,-89.87687000
10.28442383,-86.53309000
10.31494141,-84.46708000
10.34545898,-82.89679000
10.37597656,-80.53287000
10.40649414,-78.87784000
10.43701172,-79.35960000
10.46752930,-79.88985000
10.49804688,-78.33636000
10.52856445,-77.99430000
10.55908203,-79.26146000
10.58959961,-80.63867000
10.62011719,-81.40237000
10.65063477,-83.74673000
10.68115234,-92.50441000
10.71166992,-88.14275000
10.74218750,-86.03855000
10.77270508,-91.38805000
10.80322266,-95.04304000
10.83374023,-85.91796000
10.86425781,-81.28754000
10.89477539,-80.39973000
10.92529297,-81.84472000
10.95581055,-83.28742000
10.98632813,-82.71829000
11.01684570,-81.91179000
11.04736328,-83.25960000
11.07788086,-88.08008000
11.10839844,-100.47160000
11.13891602,-88.91937000
11.16943359,-84.65253000
11.19995117,-84.01738000
11.23046875,-85.61221000
11.26098633,-85.45689000
11.29150391,-82.75638000
11.32202148,-82.38484000
11.35253906,-81.20193000
11.38305664,-78.27242000
11.41357422,-77.13335000
11.44409180,-77.35654000
11.47460938,-77.35278000
11.50512695,-76.89380000
11.53564453,-77.29525000
11.56616211,-79.15591000
11.59667969,-80.95947000
11.62719727,-80.56366000
11.65771484,-78.48679000
11.68823242,-76.73560000
11.71875000,-77.23491000
11.74926758,-81.24188000
11.77978516,-83.95591000
11.81030273,-81.50743000
11.84082031,-79.98775000
11.87133789,-78.85710000
11.90185547,-79.34399000
11.93237305,-80.03799000
11.96289063,-79.52191000
11.99340820,-79.87866000
12.02392578,-81.32195000
12.05444336,-81.59268000
12.08496094,-80.33730000
12.11547852,-80.27486000
12.14599609,-85.05075000
12.17651367,-91.06177000
12.20703125,-79.95036000
12.23754883,-77.09580000
12.26806641,-76.66628000
12.29858398,-78.32932000
12.32910156,-82.80884000
12.35961914,-90.71313000
12.39013672,-92.76428000
12.42065430,-86.55776000
12.45117188,-83.46688000
12.48168945,-82.58304000
12.51220703,-82.64285000
12.54272461,-81.93234000
12.57324219,-80.18582000
12.60375977,-79.10972000
12.63427734,-80.23917000
12.66479492,-83.57563000
12.69531250,-84.01331000
12.72583008,-83.15121000
12.75634766,-83.63216000
12.78686523,-84.72389000
12.81738281,-88.51321000
12.84790039,-80.97873000
12.87841797,-76.68384000
12.90893555,-76.27821000
12.93945313,-78.51335000
12.96997070,-82.49376000
13.00048828,-86.95790000
13.03100586,-88.84762000
13.06152344,-86.65112000
13.09204102,-83.35675000
13.12255859,-80.07480000
13.15307617,-77.76176000
13.18359375,-77.24980000
13.21411133,-78.42085000
13.24462891,-79.97021000
13.27514648,-81.01608000
13.30566406,-82.67876000
13.33618164,-90.23657000
13.36669922,-84.71538000
13.39721680,-77.12283000
13.42773438,-75.29504000
13.45825195,-77.75792000
13.48876953,-79.14864000
13.51928711,-71.31031000
13.54980469,-68.07767000
13.58032227,-69.14910000
13.61083984,-75.29103000
13.64135742,-79.54252000
13.67187500,-81.17368000
13.70239258,-74.30001000
13.73291016,-68.54840000
13.76342773,-67.39709000
13.79394531,-68.87122000
13.82446289,-71.57934000
13.85498047,-74.75131000
13.88549805,-78.66328000
13.91601563,-82.27075000
13.94653320,-80.96529000
13.97705078,-76.37622000
14.00756836,-73.02118000
14.03808594,-71.81792000
14.06860352,-72.84951000
14.09912109,-76.38593000
14.12963867,-81.65785000
14.16015625,-80.29839000
14.19067383,-77.94860000
14.22119141,-78.71568000
14.25170898,-83.52456000
14.28222656,-92.82093000
14.31274414,-86.88826000
14.34326172,-85.14039000
14.37377930,-81.75162000
14.40429688,-78.73120000
14.43481445,-78.10267000
14.46533203,-79.39520000
14.49584961,-80.74530000
14.52636719,-80.03083000
14.55688477,-78.63621000
14.58740234,-78.20445000
14.61791992,-80.15948000
14.64843750,-85.33569000
14.67895508,-87.28761000
14.70947266,-88.99744000
14.73999023,-90.05165000
14.77050781,-81.99203000
14.80102539,-79.06272000
14.83154297,-77.31544000
14.86206055,-75.84682000
14.89257813,-76.42760000
14.92309570,-80.67246000
14.95361328,-97.20584000
14.98413086,-85.23887000
15.01464844,-80.88550000
15.04516602,-81.93306000
15.07568359,-90.80932000
15.10620117,-83.58906000
15.13671875,-79.99688000
15.16723633,-82.70253000
15.19775391,-85.98117000
15.22827148,-81.72962000
15.25878906,-82.05502000
15.28930664,-91.74828000
15.31982422,-84.09441000
15.35034180,-77.88779000
15.38085938,-77.20929000
15.41137695,-80.16692000
15.44189453,-87.73261000
15.47241211,-101.92700000
15.50292969,-88.14983000
15.53344727,-86.86005000
15.56396484,-92.52221000
15.59448242,-91.09895000
15.62500000,-85.09452000
15.65551758,-85.63770000
15.68603516,-88.81552000
15.71655273,-88.80704000
15.74707031,-92.15382000
15.77758789,-88.59146000
15.80810547,-80.77244000
15.83862305,-77.65421000
15.86914063,-78.07623000
15.89965820,-82.67287000
15.93017578,-89.91988000
15.96069336,-83.73698000
15.99121094,-82.78223000
16.02172852,-85.83881000
16.05224609,-88.24063000
16.08276367,-85.83765000
16.11328125,-85.41902000
16.14379883,-84.43370000
16.17431641,-81.95961000
16.20483398,-82.72330000
16.23535156,-89.20379000
16.26586914,-94.33812000
16.29638672,-85.18742000
16.32690430,-82.65319000
16.35742188,-83.21598000
16.38793945,-86.25639000
16.41845703,-90.39331000
16.44897461,-92.49854000
16.47949219,-94.52551000
16.51000977,-98.86125000
16.54052734,-101.87840000
16.57104492,-96.32809000
16.60156250,-99.44596000
16.63208008,-90.03279000
16.66259766,-85.66170000
16.69311523,-85.63232000
16.72363281,-86.17188000
16.75415039,-85.46128000
16.78466797,-85.29303000
16.81518555,-87.15518000
16.84570313,-91.55698000
16.87622070,-94.20899000
16.90673828,-88.52726000
16.93725586,-85.10543000
16.96777344,-85.05591000
16.99829102,-87.32208000
17.02880859,-88.04394000
17.05932617,-88.03880000
17.08984375,-90.30328000
17.12036133,-87.68564000
17.15087891,-84.93568000
17.18139648,-85.17918000
17.21191406,-87.05289000
17.24243164,-88.43704000
17.27294922,-88.69266000
17.30346680,-88.79426000
17.33398438,-90.63316000
17.36450195,-99.47243000
17.39501953,-92.75632000
17.42553711,-87.72520000
17.45605469,-87.34985000
17.48657227,-90.05959000
17.51708984,-94.83299000
17.54760742,-92.48292000
17.57812500,-89.47255000
17.60864258,-88.70207000
17.63916016,-90.34830000
17.66967773,-96.54603000
17.70019531,-89.36974000
17.73071289,-83.24004000
17.76123047,-80.87859000
17.79174805,-80.60915000
17.82226563,-82.04425000
17.85278320,-85.60622000
17.88330078,-90.23700000
17.91381836,-87.67442000
17.94433594,-84.89244000
17.97485352,-85.40616000
18.00537109,-88.87312000
18.03588867,-92.87051000
18.06640625,-96.01682000
18.09692383,-99.93492000
18.12744141,-99.60555000
18.15795898,-96.47020000
18.18847656,-96.41362000
18.21899414,-100.94770000
18.24951172,-117.97470000
18.28002930,-107.36360000
18.31054688,-101.72570000
18.34106445,-98.99044000
18.37158203,-98.62857000
18.40209961,-93.88783000
18.43261719,-90.16442000
18.46313477,-90.26481000
18.49365234,-93.17345000
18.52416992,-96.43071000
18.55468750,-97.27124000
18.58520508,-96.52502000
18.61572266,-94.89274000
18.64624023,-94.21142000
18.67675781,-96.92877000
18.70727539,-104.08480000
18.73779297,-104.62900000
18.76831055,-106.08240000
18.79882813,-105.07510000
18.82934570,-99.76186000
18.85986328,-97.23275000
18.89038086,-95.80569000
18.92089844,-96.86868000
18.95141602,-101.34070000
18.98193359,-105.23240000
19.01245117,-101.26260000
19.04296875,-97.34795000
19.07348633,-95.85580000
19.10400391,-96.69339000
19.13452148,-101.09770000
19.16503906,-102.16960000
19.19555664,-97.59671000
19.22607422,-95.14992000
19.25659180,-93.71217000
19.28710938,-94.11269000
19.31762695,-96.51592000
19.34814453,-101.29940000
19.37866211,-107.89870000
19.40917969,-106.19260000
19.43969727,-106.92810000
19.47021484,-112.56870000
19.50073242,-110.42960000
19.53125000,-101.83570000
19.56176758,-98.91714000
19.59228516,-98.95906000
19.62280273,-98.89130000
19.65332031,-96.51740000
19.68383789,-93.76710000
19.71435547,-93.38715000
19.74487305,-96.26210000
19.77539063,-103.27620000
19.80590820,-101.53680000
19.83642578,-96.14295000
19.86694336,-94.59866000
19.89746094,-95.40620000
19.92797852,-97.13943000
19.95849609,-98.65260000
19.98901367,-100.12390000
20.01953125,-101.25840000
20.05004883,-100.78580000
20.08056641,-97.59263000
20.11108398,-95.59310000
20.14160156,-96.46908000
20.17211914,-96.90591000
20.20263672,-92.08037000
20.23315430,-88.33698000
20.26367188,-87.01730000
20.29418945,-87.51778000
20.32470703,-88.09272000
20.35522461,-89.61219000
20.38574219,-97.43224000
20.41625977,-95.27231000
20.44677734,-89.19781000
20.47729492,-87.76485000
20.50781250,-87.31986000
20.53833008,-88.02679000
20.56884766,-91.96820000
20.59936523,-93.55197000
20.62988281,-87.10873000
20.66040039,-85.30225000
20.69091797,-86.30783000
20.72143555,-88.46421000
20.75195313,-92.01254000
20.78247070,-97.15227000
20.81298828,-100.45940000
20.84350586,-98.20319000
20.87402344,-96.79834000
20.90454102,-93.37556000
20.93505859,-88.31745000
20.96557617,-85.94260000
20.99609375,-85.63043000
21.02661133,-86.85823000
21.05712891,-89.91179000
21.08764648,-94.98379000
21.11816406,-96.92078000
21.14868164,-92.16006000
21.17919922,-89.59439000
21.20971680,-90.35657000
21.24023438,-92.89861000
21.27075195,-95.21663000
21.30126953,-96.10047000
21.33178711,-95.26825000
21.36230469,-96.81748000
21.39282227,-100.96130000
21.42333984,-97.90442000
21.45385742,-91.29999000
21.48437500,-88.16531000
21.51489258,-87.58322000
21.54541016,-88.87288000
21.57592773,-90.34863000
21.60644531,-91.41824000
21.63696289,-93.85204000
21.66748047,-97.22485000
21.69799805,-99.44996000
21.72851563,-101.76660000
21.75903320,-109.54660000
21.78955078,-106.36080000
21.82006836,-100.36670000
21.85058594,-96.20879000
21.88110352,-92.04385000
21.91162109,-90.20615000
21.94213867,-93.26631000
21.97265625,-102.82140000
22.00317383,-92.22090000
22.03369141,-92.09386000
22.06420898,-100.60370000
22.09472656,-100.29690000
22.12524414,-93.71101000
22.15576172,-90.27637000
22.18627930,-87.82124000
22.21679688,-87.20732000
22.24731445,-88.90927000
22.27783203,-92.55157000
22.30834961,-95.54408000
22.33886719,-94.47925000
22.36938477,-95.04642000
22.39990234,-95.30818000
22.43041992,-93.55611000
22.46093750,-95.65479000
22.49145508,-97.64049000
22.52197266,-98.01665000
22.55249023,-102.11040000
22.58300781,-100.64600000
22.61352539,-98.28217000
22.64404297,-94.24081000
22.67456055,-92.10492000
22.70507813,-93.44016000
22.73559570,-99.97865000
22.76611328,-96.73942000
22.79663086,-91.58975000
22.82714844,-88.80984000
22.85766602,-86.34734000
22.88818359,-85.07923000
22.91870117,-85.72354000
22.94921875,-87.59866000
22.97973633,-88.93838000
23.01025391,-89.67056000
23.04077148,-90.99780000
23.07128906,-93.17114000
23.10180664,-93.24731000
23.13232422,-89.88812000
23.16284180,-87.00463000
23.19335938,-86.47943000
23.22387695,-88.53568000
23.25439453,-92.14893000
23.28491211,-94.78555000
23.31542969,-98.37055000
23.34594727,-105.42170000
23.37646484,-94.34063000
23.40698242,-92.43434000
23.43750000,-95.04800000
23.46801758,-96.55092000
23.49853516,-93.84006000
23.52905273,-93.27839000
23.55957031,-96.21744000
23.59008789,-102.07550000
23.62060547,-105.83380000
23.65112305,-105.22610000
23.68164063,-105.59940000
23.71215820,-105.63610000
23.74267578,-99.57844000
23.77319336,-96.32155000
23.80371094,-95.03986000
23.83422852,-93.60912000
23.86474609,-92.01316000
23.89526367,-91.84620000
23.92578125,-93.25657000
23.95629883,-95.07755000
23.98681641,-96.83339000
24.01733398,-97.14279000
24.04785156,-95.27132000
24.07836914,-95.00413000
24.10888672,-100.84200000
24.13940430,-103.49490000
24.16992188,-94.39887000
24.20043945,-93.29037000
24.23095703,-95.93695000
24.26147461,-98.46753000
24.29199219,-95.59852000
24.32250977,-91.33256000
24.35302734,-89.55840000
24.38354492,-90.79346000
24.41406250,-93.21698000
24.44458008,-93.34198000
24.47509766,-91.45240000
24.50561523,-90.14461000
24.53613281,-91.40212000
24.56665039,-94.36700000
24.59716797,-95.40005000
24.62768555,-94.40266000
24.65820313,-92.29074000
24.68872070,-91.17809000
24.71923828,-91.98284000
24.74975586,-95.69198000
24.78027344,-104.36930000
24.81079102,-98.43047000
24.84130859,-94.24368000
24.87182617,-93.49458000
24.90234375,-93.74236000
24.93286133,-91.99411000
24.96337891,-90.02821000
24.99389648,-89.34887000
25.02441406,-89.79266000
25.05493164,-91.72876000
25.08544922,-94.79382000
25.11596680,-96.86202000
25.14648438,-95.55640000
25.17700195,-93.29588000
25.20751953,-93.88187000
25.23803711,-96.68998000
25.26855469,-97.99394000
25.29907227,-98.16931000
25.32958984,-100.72760000
25.36010742,-113.94410000
25.39062500,-105.33540000
25.42114258,-105.92550000
25.45166016,-106.26890000
25.48217773,-97.49938000
25.51269531,-97.94495000
25.54321289,-99.25673000
25.57373047,-96.85225000
25.60424805,-97.35672000
25.63476563,-101.63970000
25.66528320,-107.86550000
25.69580078,-101.83250000
25.72631836,-98.67809000
25.75683594,-98.24418000
25.78735352,-97.54712000
25.81787109,-95.82547000
25.84838867,-94.55380000
25.87890625,-94.63326000
25.90942383,-96.62675000
25.93994141,-98.04350000
25.97045898,-100.21750000
26.00097656,-96.91423000
26.03149414,-93.84596000
26.06201172,-93.72752000
26.09252930,-92.24807000
26.12304688,-91.59977000
26.15356445,-91.15413000
26.18408203,-90.63312000
26.21459961,-92.92807000
26.24511719,-98.41345000
26.27563477,-101.45890000
26.30615234,-96.97349000
26.33666992,-94.56145000
26.36718750,-95.60406000
26.39770508,-101.82030000
26.42822266,-110.77820000
26.45874023,-107.18500000
26.48925781,-111.83880000
26.51977539,-100.12460000
26.55029297,-95.33676000
26.58081055,-93.00736000
26.61132813,-90.77838000
26.64184570,-89.22089000
26.67236328,-89.89162000
26.70288086,-93.86623000
26.73339844,-106.06530000
26.76391602,-101.71160000
26.79443359,-95.50146000
26.82495117,-94.20204000
26.85546875,-95.75737000
26.88598633,-95.10326000
26.91650391,-90.85625000
26.94702148,-88.99414000
26.97753906,-89.31828000
27.00805664,-90.81142000
27.03857422,-92.88380000
27.06909180,-95.89562000
27.09960938,-98.87508000
27.13012695,-99.27954000
27.16064453,-96.18018000
27.19116211,-93.09039000
27.22167969,-93.26575000
27.25219727,-96.78516000
27.28271484,-104.99630000
27.31323242,-95.56677000
27.34375000,-91.03934000
27.37426758,-91.30942000
27.40478516,-94.98940000
27.43530273,-97.90264000
27.46582031,-94.64092000
27.49633789,-91.20009000
27.52685547,-90.45512000
27.55737305,-92.25190000
27.58789063,-95.76257000
27.61840820,-100.13430000
27.64892578,-103.66160000
27.67944336,-109.16890000
27.70996094,-105.51670000
27.74047852,-98.78796000
27.77099609,-96.82417000
27.80151367,-96.79716000
27.83203125,-96.16314000
27.86254883,-95.29987000
27.89306641,-97.58697000
27.92358398,-105.09470000
27.95410156,-98.88297000
27.98461914,-94.68346000
28.01513672,-92.40711000
28.04565430,-91.42818000
28.07617188,-92.20619000
28.10668945,-93.34171000
28.13720703,-92.27103000
28.16772461,-91.16153000
28.19824219,-92.30386000
28.22875977,-93.57896000
28.25927734,-93.77060000
28.28979492,-95.73146000
28.32031250,-95.61720000
28.35083008,-92.05370000
28.38134766,-90.24583000
28.41186523,-91.07079000
28.44238281,-94.96372000
28.47290039,-100.33920000
28.50341797,-98.05856000
28.53393555,-95.56546000
28.56445313,-92.36333000
28.59497070,-88.76731000
28.62548828,-87.00647000
28.65600586,-88.26972000
28.68652344,-93.48009000
28.71704102,-98.49289000
28.74755859,-95.19157000
28.77807617,-94.41142000
28.80859375,-95.52947000
28.83911133,-98.89675000
28.86962891,-110.14590000
28.90014648,-103.61660000
28.93066406,-97.38606000
28.96118164,-94.79272000
28.99169922,-92.73946000
29.02221680,-91.37975000
29.05273438,-92.10678000
29.08325195,-94.34053000
29.11376953,-92.78115000
29.14428711,-91.99725000
29.17480469,-95.09209000
29.20532227,-102.16390000
29.23583984,-105.01080000
29.26635742,-101.97150000
29.29687500,-100.21280000
29.32739258,-96.94512000
29.35791016,-93.00551000
29.38842773,-91.29083000
29.41894531,-91.74865000
29.44946289,-93.88039000
29.47998047,-99.16309000
29.51049805,-115.21420000
29.54101563,-107.67450000
29.57153320,-108.62380000
29.60205078,-113.88810000
29.63256836,-108.54190000
29.66308594,-97.64695000
29.69360352,-94.07448000
29.72412109,-94.11469000
29.75463867,-96.32333000
29.78515625,-97.15824000
29.81567383,-93.60466000
29.84619141,-90.14273000
29.87670898,-89.23410000
29.90722656,-91.69366000
29.93774414,-95.21111000
29.96826172,-91.44433000
29.99877930,-88.81372000
30.02929688,-88.41476000
30.05981445,-89.80557000
30.09033203,-92.75334000
30.12084961,-96.39151000
30.15136719,-99.18224000
30.18188477,-100.22490000
30.21240234,-102.15570000
30.24291992,-107.78980000
30.27343750,-107.21550000
30.30395508,-101.64610000
30.33447266,-101.05210000
30.36499023,-106.53130000
30.39550781,-107.43640000
30.42602539,-95.91409000
30.45654297,-92.04726000
30.48706055,-91.02100000
30.51757813,-90.65302000
30.54809570,-89.62151000
30.57861328,-88.54695000
30.60913086,-89.06760000
30.63964844,-92.66335000
30.67016602,-98.29568000
30.70068359,-95.91150000
30.73120117,-95.05161000
30.76171875,-95.64201000
30.79223633,-94.30705000
30.82275391,-92.23301000
30.85327148,-91.77849000
30.88378906,-94.26239000
30.91430664,-102.60490000
30.94482422,-107.63970000
30.97534180,-98.94067000
31.00585938,-97.25046000
31.03637695,-99.60567000
31.06689453,-102.80810000
31.09741211,-95.81416000
31.12792969,-92.29105000
31.15844727,-91.81236000
31.18896484,-94.15988000
31.21948242,-96.65587000
31.25000000,-92.97737000
31.28051758,-90.46980000
31.31103516,-90.20897000
31.34155273,-91.45473000
31.37207031,-93.47477000
31.40258789,-94.82518000
31.43310547,-94.45678000
31.46362305,-94.65752000
31.49414063,-97.17605000
31.52465820,-100.47740000
31.55517578,-100.80170000
31.58569336,-98.80423000
31.61621094,-95.14140000
31.64672852,-93.62093000
31.67724609,-94.51646000
31.70776367,-93.40547000
31.73828125,-91.08105000
31.76879883,-91.42056000
31.79931641,-94.54430000
31.82983398,-99.85549000
31.86035156,-104.32850000
31.89086914,-99.05614000
31.92138672,-94.98985000
31.95190430,-94.75684000
31.98242188,-96.82267000
32.01293945,-97.14577000
32.04345703,-100.10040000
32.07397461,-96.91010000
32.10449219,-91.79436000
32.13500977,-91.66999000
32.16552734,-94.87775000
32.19604492,-98.18033000
32.22656250,-98.50233000
32.25708008,-97.29743000
32.28759766,-94.72224000
32.31811523,-92.10112000
32.34863281,-90.76884000
32.37915039,-90.09554000
32.40966797,-88.95077000
32.44018555,-88.59303000
32.47070313,-89.88745000
32.50122070,-91.74615000
32.53173828,-93.81271000
32.56225586,-97.03780000
32.59277344,-99.23308000
32.62329102,-96.34966000
32.65380859,-92.55497000
32.68432617,-91.06551000
32.71484375,-91.65482000
32.74536133,-92.64481000
32.77587891,-91.95324000
32.80639648,-91.29382000
32.83691406,-92.98686000
32.86743164,-99.08098000
32.89794922,-110.07220000
32.92846680,-103.84780000
32.95898438,-101.02010000
32.98950195,-96.74522000
33.02001953,-93.87870000
33.05053711,-93.12888000
33.08105469,-95.11305000
33.11157227,-101.50470000
33.14208984,-108.25330000
33.17260742,-104.84240000
33.20312500,-112.30390000
33.23364258,-100.58360000
33.26416016,-96.80482000
33.29467773,-97.74136000
33.32519531,-99.54915000
33.35571289,-98.20970000
33.38623047,-95.37955000
33.41674805,-92.99816000
33.44726563,-92.68320000
33.47778320,-94.82286000
33.50830078,-98.16844000
33.53881836,-98.93135000
33.56933594,-98.50053000
33.59985352,-98.84666000
33.63037109,-100.58910000
33.66088867,-103.03700000
33.69140625,-104.77490000
33.72192383,-107.58210000
33.75244141,-103.77870000
33.78295898,-103.01900000
33.81347656,-104.99440000
33.84399414,-101.03300000
33.87451172,-99.52897000
33.90502930,-100.63980000
33.93554688,-101.53460000
33.96606445,-104.61150000
33.99658203,-118.60030000
34.02709961,-99.84750000
34.05761719,-95.08590000
34.08813477,-93.83872000
34.11865234,-94.31137000
34.14916992,-95.30560000
34.17968750,-96.64598000
34.21020508,-99.99213000
34.24072266,-110.72700000
34.27124023,-101.32610000
34.30175781,-95.40498000
34.33227539,-94.53933000
34.36279297,-99.31505000
34.39331055,-105.55510000
34.42382813,-95.28386000
34.45434570,-93.34084000
34.48486328,-95.33935000
34.51538086,-103.44550000
34.54589844,-103.59320000
34.57641602,-95.80733000
34.60693359,-95.63060000
34.63745117,-103.46890000
34.66796875,-102.74030000
34.69848633,-96.53512000
34.72900391,-97.18129000
34.75952148,-99.81709000
34.79003906,-100.63970000
34.82055664,-103.70860000
34.85107422,-98.21388000
34.88159180,-92.88319000
34.91210938,-91.53600000
34.94262695,-93.27483000
34.97314453,-96.75194000
35.00366211,-97.31290000
35.03417969,-96.38676000
35.06469727,-96.70074000
35.09521484,-97.55786000
35.12573242,-97.94425000
35.15625000,-98.29227000
35.18676758,-99.86337000
35.21728516,-102.77560000
35.24780273,-107.24240000
35.27832031,-101.46470000
35.30883789,-96.66470000
35.33935547,-95.15327000
35.36987305,-94.57314000
35.40039063,-94.55566000
35.43090820,-96.53523000
35.46142578,-100.02850000
35.49194336,-99.65675000
35.52246094,-99.41855000
35.55297852,-103.82550000
35.58349609,-118.51770000
35.61401367,-110.27020000
35.64453125,-101.83490000
35.67504883,-97.85088000
35.70556641,-99.40091000
35.73608398,-106.29000000
35.76660156,-101.26490000
35.79711914,-100.34540000
35.82763672,-104.90320000
35.85815430,-107.43930000
35.88867188,-100.46340000
35.91918945,-97.07169000
35.94970703,-98.31978000
35.98022461,-102.87740000
36.01074219,-98.04501000
36.04125977,-95.14008000
36.07177734,-94.97089000
36.10229492,-95.81623000
36.13281250,-95.13688000
36.16333008,-92.20599000
36.19384766,-90.16308000
36.22436523,-90.47887000
36.25488281,-93.13519000
36.28540039,-96.32253000
36.31591797,-97.64400000
36.34643555,-98.13336000
36.37695313,-97.65874000
36.40747070,-97.24158000
36.43798828,-100.32480000
36.46850586,-108.55440000
36.49902344,-99.49078000
36.52954102,-96.34029000
36.56005859,-95.73867000
36.59057617,-94.94321000
36.62109375,-93.46856000
36.65161133,-93.00989000
36.68212891,-95.11722000
36.71264648,-102.35820000
36.74316406,-104.18480000
36.77368164,-98.65654000
36.80419922,-99.76167000
36.83471680,-105.84260000
36.86523438,-107.49070000
36.89575195,-104.06040000
36.92626953,-98.82224000
36.95678711,-95.79807000
36.98730469,-96.24366000
37.01782227,-97.75151000
37.04833984,-96.37096000
37.07885742,-95.30434000
37.10937500,-96.56126000
37.13989258,-101.43700000
37.17041016,-113.85680000
37.20092773,-106.41780000
37.23144531,-100.77980000
37.26196289,-97.32757000
37.29248047,-94.59527000
37.32299805,-92.82770000
37.35351563,-92.89355000
37.38403320,-95.53994000
37.41455078,-100.63880000
37.44506836,-101.80740000
37.47558594,-98.68797000
37.50610352,-96.45959000
37.53662109,-95.81235000
37.56713867,-97.67414000
37.59765625,-105.25300000
37.62817383,-108.86150000
37.65869141,-100.36670000
37.68920898,-100.50130000
37.71972656,-106.42770000
37.75024414,-99.85828000
37.78076172,-95.08725000
37.81127930,-94.81914000
37.84179688,-99.22078000
37.87231445,-105.38050000
37.90283203,-94.97300000
37.93334961,-90.83862000
37.96386719,-90.00623000
37.99438477,-92.36342000
38.02490234,-98.81413000
38.05541992,-98.75717000
38.08593750,-94.71088000
38.11645508,-93.33406000
38.14697266,-93.55357000
38.17749023,-95.49462000
38.20800781,-98.81425000
38.23852539,-97.43994000
38.26904297,-94.79124000
38.29956055,-94.88277000
38.33007813,-96.58387000
38.36059570,-97.81073000
38.39111328,-97.36208000
38.42163086,-97.32265000
38.45214844,-100.40260000
38.48266602,-111.33720000
38.51318359,-106.66160000
38.54370117,-99.44657000
38.57421875,-95.44610000
38.60473633,-93.61438000
38.63525391,-94.98640000
38.66577148,-101.64410000
38.69628906,-109.99500000
38.72680664,-106.89580000
38.75732422,-113.20440000
38.78784180,-111.10830000
38.81835938,-103.33660000
38.84887695,-95.92122000
38.87939453,-92.04751000
38.90991211,-90.57716000
38.94042969,-90.32983000
38.97094727,-91.29343000
39.00146484,-95.29730000
39.03198242,-107.77610000
39.06250000,-106.95930000
39.09301758,-107.27110000
39.12353516,-111.17400000
39.15405273,-116.78900000
39.18457031,-112.49260000
39.21508789,-103.91640000
39.24560547,-95.50540000
39.27612305,-92.13703000
39.30664063,-94.25682000
39.33715820,-112.98230000
39.36767578,-96.76208000
39.39819336,-93.08903000
39.42871094,-92.65443000
39.45922852,-92.08447000
39.48974609,-91.15030000
39.52026367,-91.19331000
39.55078125,-92.24751000
39.58129883,-92.95330000
39.61181641,-91.45862000
39.64233398,-89.82460000
39.67285156,-89.81426000
39.70336914,-89.50729000
39.73388672,-88.25153000
39.76440430,-87.73944000
39.79492188,-87.90168000
39.82543945,-88.30276000
39.85595703,-88.85065000
39.88647461,-90.16387000
39.91699219,-93.78270000
39.94750977,-108.63100000
39.97802734,-93.26072000
40.00854492,-88.80281000
40.03906250,-88.41296000
40.06958008,-89.46705000
40.10009766,-92.23652000
40.13061523,-100.39380000
40.16113281,-95.01128000
40.19165039,-89.85347000
40.22216797,-89.99126000
40.25268555,-94.71817000
40.28320313,-103.31110000
40.31372070,-97.11949000
40.34423828,-90.77140000
40.37475586,-87.81570000
40.40527344,-87.47143000
40.43579102,-90.14456000
40.46630859,-96.94171000
40.49682617,-98.59260000
40.52734375,-91.71761000
40.55786133,-87.47570000
40.58837891,-85.82981000
40.61889648,-86.56444000
40.64941406,-89.61437000
40.67993164,-94.98793000
40.71044922,-97.42934000
40.74096680,-99.77677000
40.77148438,-111.63480000
40.80200195,-96.58513000
40.83251953,-93.46223000
40.86303711,-90.85361000
40.89355469,-91.61987000
40.92407227,-102.26160000
40.95458984,-96.55736000
40.98510742,-92.62772000
41.01562500,-95.20309000
41.04614258,-99.62968000
41.07666016,-98.15215000
41.10717773,-93.73200000
41.13769531,-90.57468000
41.16821289,-90.29678000
41.19873047,-90.50063000
41.22924805,-90.09483000
41.25976563,-93.29575000
41.29028320,-105.81110000
41.32080078,-88.71909000
41.35131836,-84.47646000
41.38183594,-83.70541000
41.41235352,-84.30205000
41.44287109,-84.37764000
41.47338867,-83.44727000
41.50390625,-82.82787000
41.53442383,-83.83434000
41.56494141,-87.62608000
41.59545898,-97.51425000
41.62597656,-94.10424000
41.65649414,-89.83231000
41.68701172,-89.24487000
41.71752930,-88.02292000
41.74804688,-85.97879000
41.77856445,-84.88989000
41.80908203,-85.54086000
41.83959961,-87.46947000
41.87011719,-89.32000000
41.90063477,-90.86485000
41.93115234,-87.55492000
41.96166992,-84.75124000
41.99218750,-85.38184000
42.02270508,-89.15314000
42.05322266,-92.25780000
42.08374023,-92.99710000
42.11425781,-95.41504000
42.14477539,-104.81570000
42.17529297,-97.70507000
42.20581055,-92.18147000
42.23632813,-91.10664000
42.26684570,-90.91168000
42.29736328,-89.41433000
42.32788086,-87.43656000
42.35839844,-86.25450000
42.38891602,-85.78619000
42.41943359,-85.66143000
42.44995117,-85.53737000
42.48046875,-83.79630000
42.51098633,-81.46613000
42.54150391,-80.85670000
42.57202148,-82.57997000
42.60253906,-87.21657000
42.63305664,-95.31007000
42.66357422,-91.56570000
42.69409180,-88.88605000
42.72460938,-89.80878000
42.75512695,-92.97118000
42.78564453,-94.60815000
42.81616211,-90.95897000
42.84667969,-85.53514000
42.87719727,-82.95554000
42.90771484,-83.48407000
42.93823242,-86.79771000
42.96875000,-89.92606000
42.99926758,-88.04460000
43.02978516,-86.44083000
43.06030273,-86.69452000
43.09082031,-88.27539000
43.12133789,-89.84489000
43.15185547,-86.65834000
43.18237305,-82.83076000
43.21289063,-81.83145000
43.24340820,-83.80717000
43.27392578,-89.33379000
43.30444336,-98.19828000
43.33496094,-94.74243000
43.36547852,-93.33559000
43.39599609,-93.11380000
43.42651367,-91.75749000
43.45703125,-90.33673000
43.48754883,-89.47244000
43.51806641,-88.87079000
43.54858398,-88.92181000
43.57910156,-89.15828000
43.60961914,-89.51161000
43.64013672,-92.11025000
43.67065430,-98.43025000
43.70117188,-95.32142000
43.73168945,-92.08337000
43.76220703,-93.32541000
43.79272461,-101.50340000
43.82324219,-93.58757000
43.85375977,-88.36654000
43.88427734,-88.25769000
43.91479492,-92.91817000
43.94531250,-102.28670000
43.97583008,-94.19505000
44.00634766,-92.64981000
44.03686523,-96.45465000
44.06738281,-109.62440000
44.09790039,-99.62589000
44.12841797,-100.30960000
44.15893555,-94.13489000
44.18945313,-87.81600000
44.21997070,-85.66715000
44.25048828,-86.86369000
44.28100586,-92.36134000
44.31152344,-95.80593000
44.34204102,-88.71458000
44.37255859,-86.52461000
44.40307617,-87.06898000
44.43359375,-89.10112000
44.46411133,-91.20902000
44.49462891,-90.44325000
44.52514648,-88.33572000
44.55566406,-88.09775000
44.58618164,-89.94480000
44.61669922,-93.74554000
44.64721680,-97.72566000
44.67773438,-92.12650000
44.70825195,-88.65530000
44.73876953,-88.53313000
44.76928711,-90.66592000
44.79980469,-94.41527000
44.83032227,-97.38712000
44.86083984,-95.67748000
44.89135742,-96.16965000
44.92187500,-97.16683000
44.95239258,-94.16943000
44.98291016,-91.22920000
45.01342773,-89.33567000
45.04394531,-88.69395000
45.07446289,-89.53198000
45.10498047,-92.05872000
45.13549805,-98.90804000
45.16601563,-102.28570000
45.19653320,-93.94897000
45.22705078,-92.76200000
45.25756836,-94.22127000
45.28808594,-96.14555000
45.31860352,-96.17646000
45.34912109,-93.47806000
45.37963867,-91.00999000
45.41015625,-90.26168000
45.44067383,-90.26437000
45.47119141,-88.83601000
45.50170898,-86.94505000
45.53222656,-86.69746000
45.56274414,-88.95601000
45.59326172,-94.27196000
45.62377930,-99.25643000
45.65429688,-95.16734000
45.68481445,-93.07669000
45.71533203,-94.33521000
45.74584961,-100.00720000
45.77636719,-105.50800000
45.80688477,-95.46080000
45.83740234,-92.22541000
45.86791992,-92.40971000
45.89843750,-94.75491000
45.92895508,-98.28841000
45.95947266,-105.75000000
45.98999023,-97.45278000
46.02050781,-91.43663000
46.05102539,-89.99666000
46.08154297,-91.65990000
46.11206055,-96.19864000
46.14257813,-99.34551000
46.17309570,-95.02816000
46.20361328,-92.18611000
46.23413086,-91.07602000
46.26464844,-92.32477000
46.29516602,-97.98906000
46.32568359,-114.65180000
46.35620117,-101.09940000
46.38671875,-98.28239000
46.41723633,-96.75308000
46.44775391,-95.27403000
46.47827148,-94.07494000
46.50878906,-93.81245000
46.53930664,-94.17098000
46.56982422,-93.21597000
46.60034180,-91.24088000
46.63085938,-89.61219000
46.66137695,-88.79352000
46.69189453,-89.49715000
46.72241211,-92.66127000
46.75292969,-100.30460000
46.78344727,-103.14700000
46.81396484,-97.53750000
46.84448242,-96.79996000
46.87500000,-98.66068000
46.90551758,-99.01264000
46.93603516,-95.62989000
46.96655273,-94.09905000
46.99707031,-95.86114000
47.02758789,-103.45700000
47.05810547,-103.73010000
47.08862305,-97.22130000
47.11914063,-97.24232000
47.14965820,-100.45530000
47.18017578,-100.24860000
47.21069336,-99.57954000
47.24121094,-97.72591000
47.27172852,-94.78837000
47.30224609,-92.27467000
47.33276367,-91.11355000
47.36328125,-93.12931000
47.39379883,-102.59350000
47.42431641,-97.37448000
47.45483398,-92.18017000
47.48535156,-92.94113000
47.51586914,-99.80479000
47.54638672,-108.60000000
47.57690430,-97.25526000
47.60742188,-94.86411000
47.63793945,-95.66662000
47.66845703,-97.15919000
47.69897461,-95.50101000
47.72949219,-93.70708000
47.76000977,-93.63335000
47.79052734,-96.08842000
47.82104492,-104.92560000
47.85156250,-106.28410000
47.88208008,-99.49006000
47.91259766,-97.28987000
47.94311523,-93.70011000
47.97363281,-91.20245000
48.00415039,-91.08115000
48.03466797,-93.36852000
48.06518555,-96.89110000
48.09570313,-96.26285000
48.12622070,-93.93431000
48.15673828,-93.92310000
48.18725586,-97.64987000
48.21777344,-111.49190000
48.24829102,-96.94447000
48.27880859,-90.87441000
48.30932617,-88.25180000
48.33984375,-87.57184000
48.37036133,-88.11260000
48.40087891,-89.77542000
48.43139648,-92.62840000
48.46191406,-96.06635000
48.49243164,-98.44764000
48.52294922,-98.86717000
48.55346680,-99.72159000
48.58398438,-101.57890000
48.61450195,-100.25850000
48.64501953,-95.24513000
48.67553711,-91.17744000
48.70605469,-90.34428000
48.73657227,-93.58071000
48.76708984,-101.66990000
48.79760742,-97.77520000
48.82812500,-94.68350000
48.85864258,-95.10464000
48.88916016,-96.75592000
48.91967773,-97.71903000
48.95019531,-101.88920000
48.98071289,-99.03522000
49.01123047,-94.98925000
49.04174805,-95.71937000
49.07226563,-101.27290000
49.10278320,-126.42060000
49.13330078,-102.65740000
49.16381836,-99.73792000
49.19433594,-99.02724000
49.22485352,-96.50779000
49.25537109,-93.71425000
49.28588867,-91.65833000
49.31640625,-89.62175000
49.34692383,-87.90298000
49.37744141,-87.55937000
49.40795898,-89.27846000
49.43847656,-92.78990000
49.46899414,-95.58186000
49.49951172,-96.70220000
49.53002930,-97.81749000
49.56054688,-100.89980000
49.59106445,-120.46320000
49.62158203,-99.45370000
49.65209961,-92.54898000
49.68261719,-89.85765000
49.71313477,-90.41367000
49.74365234,-94.26103000
49.77416992,-101.94860000
49.80468750,-114.65020000
49.83520508,-110.44660000
49.86572266,-106.88650000
49.89624023,-106.85970000
49.92675781,-116.55700000
49.95727539,-98.99727000
49.98779297,-91.49357000
50.01831055,-88.17244000
