Frequency,Channel A
(MHz),(dBu)

0.00000000,-26.98172000
0.03051758,-27.38211000
0.06103516,-32.71904000
0.09155273,-42.93960000
0.12207031,-59.27716000
0.15258789,-69.79527000
0.18310547,-58.75161000
0.21362305,-56.74298000
0.24414063,-56.62021000
0.27465820,-56.63696000
0.30517578,-55.65377000
0.33569336,-55.45161000
0.36621094,-57.77967000
0.39672852,-61.68925000
0.42724609,-60.99796000
0.45776367,-59.99697000
0.48828125,-60.72689000
0.51879883,-61.68774000
0.54931641,-60.32362000
0.57983398,-60.30820000
0.61035156,-57.97008000
0.64086914,-53.90942000
0.67138672,-53.73352000
0.70190430,-56.92410000
0.73242188,-59.19948000
0.76293945,-61.29540000
0.79345703,-64.20792000
0.82397461,-62.84458000
0.85449219,-64.03524000
0.88500977,-69.91968000
0.91552734,-75.35668000
0.94604492,-72.64120000
0.97656250,-65.50086000
1.00708008,-61.88660000
1.03759766,-62.72493000
1.06811523,-68.53856000
1.09863281,-81.34148000
1.12915039,-79.55642000
1.15966797,-79.28836000
1.19018555,-76.08598000
1.22070313,-75.41470000
1.25122070,-75.84319000
1.28173828,-88.96040000
1.31225586,-70.74381000
1.34277344,-66.01829000
1.37329102,-66.35638000
1.40380859,-69.89869000
1.43432617,-78.21313000
1.46484375,-77.44774000
1.49536133,-69.73418000
1.52587891,-69.93432000
1.55639648,-76.88136000
1.58691406,-79.61549000
1.61743164,-77.17698000
1.64794922,-86.96260000
1.67846680,-75.46457000
1.70898438,-70.05620000
1.73950195,-70.47126000
1.77001953,-77.18073000
1.80053711,-82.46371000
1.83105469,-72.16575000
1.86157227,-70.31033000
1.89208984,-72.70247000
1.92260742,-76.58080000
1.95312500,-92.39520000
1.98364258,-72.44216000
2.01416016,-67.21466000
2.04467773,-67.53993000
2.07519531,-71.08665000
2.10571289,-73.76357000
2.13623047,-76.37697000
2.16674805,-83.70921000
2.19726563,-81.14850000
2.22778320,-77.19878000
2.25830078,-77.54593000
2.28881836,-77.65105000
2.31933594,-80.28886000
2.34985352,-80.56487000
2.38037109,-73.70675000
2.41088867,-70.92544000
2.44140625,-72.25278000
2.47192383,-81.49593000
2.50244141,-79.75690000
2.53295898,-73.52426000
2.56347656,-72.68901000
2.59399414,-73.94087000
2.62451172,-74.73866000
2.65502930,-77.09067000
2.68554688,-89.11900000
2.71606445,-74.43650000
2.74658203,-71.57938000
2.77709961,-72.26267000
2.80761719,-74.09598000
2.83813477,-78.98626000
2.86865234,-75.79411000
2.89916992,-70.58218000
2.92968750,-68.89494000
2.96020508,-69.78192000
2.99072266,-73.86069000
3.02124023,-73.60190000
3.05175781,-70.82935000
3.08227539,-74.25613000
3.11279297,-75.26974000
3.14331055,-68.71897000
3.17382813,-67.52138000
3.20434570,-69.61808000
3.23486328,-73.22480000
3.26538086,-72.81744000
3.29589844,-71.70679000
3.32641602,-73.17717000
3.35693359,-74.46338000
3.38745117,-72.99243000
3.41796875,-72.41443000
3.44848633,-73.19644000
3.47900391,-73.18685000
3.50952148,-72.60614000
3.54003906,-70.59823000
3.57055664,-69.36365000
3.60107422,-71.72584000
3.63159180,-71.71962000
3.66210938,-68.65080000
3.69262695,-69.22009000
3.72314453,-73.23437000
3.75366211,-72.31163000
3.78417969,-69.28820000
3.81469727,-68.77986000
3.84521484,-66.85363000
3.87573242,-66.72874000
3.90625000,-70.21744000
3.93676758,-71.67387000
3.96728516,-69.58603000
3.99780273,-67.70790000
4.02832031,-68.34126000
4.05883789,-70.48359000
4.08935547,-68.18097000
4.11987305,-67.30072000
4.15039063,-70.64146000
4.18090820,-77.17533000
4.21142578,-70.57031000
4.24194336,-68.65318000
4.27246094,-69.87811000
4.30297852,-72.67052000
4.33349609,-73.56071000
4.36401367,-71.04337000
4.39453125,-70.78749000
4.42504883,-70.98159000
4.45556641,-71.65854000
4.48608398,-73.02425000
4.51660156,-72.59718000
4.54711914,-75.05210000
4.57763672,-79.87575000
4.60815430,-74.76680000
4.63867188,-73.17767000
4.66918945,-78.59225000
4.69970703,-79.84835000
4.73022461,-71.22464000
4.76074219,-70.47393000
4.79125977,-73.07138000
4.82177734,-75.67731000
4.85229492,-79.72283000
4.88281250,-93.91338000
4.91333008,-80.59926000
4.94384766,-76.71924000
4.97436523,-76.62631000
5.00488281,-76.96622000
5.03540039,-76.85152000
5.06591797,-77.13764000
5.09643555,-77.60004000
5.12695313,-82.00745000
5.15747070,-81.76260000
5.18798828,-76.19102000
5.21850586,-74.26673000
5.24902344,-74.33984000
5.27954102,-75.45245000
5.31005859,-74.68487000
5.34057617,-74.22021000
5.37109375,-75.75204000
5.40161133,-79.73351000
5.43212891,-90.42110000
5.46264648,-83.86829000
5.49316406,-79.49400000
5.52368164,-76.59150000
5.55419922,-75.32207000
5.58471680,-75.46600000
5.61523438,-72.88341000
5.64575195,-71.32476000
5.67626953,-73.56090000
5.70678711,-77.57028000
5.73730469,-73.50682000
5.76782227,-69.66913000
5.79833984,-68.61673000
5.82885742,-68.52802000
5.85937500,-68.14215000
5.88989258,-68.64465000
5.92041016,-68.57124000
5.95092773,-68.56111000
5.98144531,-69.39703000
6.01196289,-70.07592000
6.04248047,-70.40824000
6.07299805,-69.58565000
6.10351563,-69.87315000
6.13403320,-69.81648000
6.16455078,-70.07582000
6.19506836,-71.71929000
6.22558594,-71.40557000
6.25610352,-71.18374000
6.28662109,-71.83321000
6.31713867,-74.77850000
6.34765625,-75.56680000
6.37817383,-73.09103000
6.40869141,-73.70214000
6.43920898,-74.52579000
6.46972656,-75.97005000
6.50024414,-78.62220000
6.53076172,-81.73425000
6.56127930,-81.21855000
6.59179688,-79.65847000
6.62231445,-80.28408000
6.65283203,-78.94711000
6.68334961,-82.59540000
6.71386719,-92.39929000
6.74438477,-81.41896000
6.77490234,-83.27850000
6.80541992,-88.25987000
6.83593750,-81.56213000
6.86645508,-80.00719000
6.89697266,-83.97360000
6.92749023,-98.94509000
6.95800781,-85.76018000
6.98852539,-82.75690000
7.01904297,-81.03194000
7.04956055,-79.94893000
7.08007813,-80.45586000
7.11059570,-82.98695000
7.14111328,-88.70403000
7.17163086,-94.83430000
7.20214844,-86.01383000
7.23266602,-84.07788000
7.26318359,-86.07986000
7.29370117,-81.79361000
7.32421875,-78.34590000
7.35473633,-78.82108000
7.38525391,-83.03932000
7.41577148,-92.44079000
7.44628906,-110.76210000
7.47680664,-110.05030000
7.50732422,-95.28462000
7.53784180,-92.92348000
7.56835938,-95.81029000
7.59887695,-95.82160000
7.62939453,-89.50034000
7.65991211,-83.90158000
7.69042969,-82.17508000
7.72094727,-84.65349000
7.75146484,-90.29433000
7.78198242,-93.05031000
7.81250000,-98.43744000
7.84301758,-86.77308000
7.87353516,-84.68181000
7.90405273,-87.78632000
7.93457031,-92.89098000
7.96508789,-96.61684000
7.99560547,-100.50200000
8.02612305,-94.26009000
8.05664063,-88.48779000
8.08715820,-87.59253000
8.11767578,-88.82465000
8.14819336,-88.63488000
8.17871094,-88.66901000
8.20922852,-88.40440000
8.23974609,-89.72942000
8.27026367,-93.00628000
8.30078125,-101.68830000
8.33129883,-87.73747000
8.36181641,-84.41354000
8.39233398,-87.24064000
8.42285156,-93.55344000
8.45336914,-92.73586000
8.48388672,-98.37448000
8.51440430,-97.55904000
8.54492188,-94.02541000
8.57543945,-94.67491000
8.60595703,-98.13382000
8.63647461,-100.71610000
8.66699219,-99.25195000
8.69750977,-92.79987000
8.72802734,-88.76717000
8.75854492,-90.99659000
8.78906250,-106.76430000
8.81958008,-90.72750000
8.85009766,-86.48682000
8.88061523,-85.66943000
8.91113281,-87.13685000
8.94165039,-90.25326000
8.97216797,-93.09704000
9.00268555,-91.93793000
9.03320313,-90.29663000
9.06372070,-89.62871000
9.09423828,-89.25906000
9.12475586,-88.23470000
9.15527344,-85.10262000
9.18579102,-83.95835000
9.21630859,-86.30583000
9.24682617,-88.69678000
9.27734375,-87.46799000
9.30786133,-87.81996000
9.33837891,-89.21671000
9.36889648,-90.86631000
9.39941406,-92.36330000
9.42993164,-91.94176000
9.46044922,-91.55949000
9.49096680,-93.88496000
9.52148438,-96.65656000
9.55200195,-93.92551000
9.58251953,-91.49437000
9.61303711,-91.00671000
9.64355469,-88.65443000
9.67407227,-86.22105000
9.70458984,-85.22243000
9.73510742,-85.43404000
9.76562500,-85.98749000
9.79614258,-83.49385000
9.82666016,-80.00634000
9.85717773,-78.59676000
9.88769531,-79.45103000
9.91821289,-81.68845000
9.94873047,-83.33844000
9.97924805,-83.70094000
10.00976563,-84.66683000
10.04028320,-88.29124000
10.07080078,-95.98143000
10.10131836,-93.75187000
10.13183594,-87.46345000
10.16235352,-84.10663000
10.19287109,-83.12705000
10.22338867,-83.35008000
10.25390625,-83.67623000
10.28442383,-84.30737000
10.31494141,-84.49211000
10.34545898,-83.47671000
10.37597656,-84.93534000
10.40649414,-92.08862000
10.43701172,-101.35080000
10.46752930,-95.86551000
10.49804688,-94.28135000
10.52856445,-91.00688000
10.55908203,-90.11746000
10.58959961,-96.75118000
10.62011719,-91.69651000
10.65063477,-84.82140000
10.68115234,-83.48788000
10.71166992,-84.18330000
10.74218750,-85.62190000
10.77270508,-89.28975000
10.80322266,-87.18072000
10.83374023,-79.50583000
10.86425781,-76.33039000
10.89477539,-76.20468000
10.92529297,-78.24836000
10.95581055,-81.60547000
10.98632813,-85.50337000
11.01684570,-90.26480000
11.04736328,-97.90679000
11.07788086,-93.48245000
11.10839844,-86.55699000
11.13891602,-84.47510000
11.16943359,-83.27115000
11.19995117,-79.49257000
11.23046875,-78.71838000
11.26098633,-83.49065000
11.29150391,-86.59866000
11.32202148,-82.28767000
11.35253906,-86.82824000
11.38305664,-92.19366000
11.41357422,-82.97194000
11.44409180,-83.10172000
11.47460938,-88.40208000
11.50512695,-85.50870000
11.53564453,-81.10076000
11.56616211,-81.17065000
11.59667969,-81.45346000
11.62719727,-81.76363000
11.65771484,-86.78206000
11.68823242,-96.65897000
11.71875000,-86.51795000
11.74926758,-87.28650000
11.77978516,-86.74625000
11.81030273,-78.25488000
11.84082031,-73.67745000
11.87133789,-72.24791000
11.90185547,-73.74243000
11.93237305,-76.75439000
11.96289063,-78.27393000
11.99340820,-79.97193000
12.02392578,-84.10895000
12.05444336,-104.82510000
12.08496094,-83.72479000
12.11547852,-83.50301000
12.14599609,-93.96374000
12.17651367,-88.84798000
12.20703125,-86.54720000
12.23754883,-86.53590000
12.26806641,-87.31589000
12.29858398,-83.68011000
12.32910156,-81.75912000
12.35961914,-85.38803000
12.39013672,-87.40559000
12.42065430,-80.07690000
12.45117188,-79.20422000
12.48168945,-84.41662000
12.51220703,-94.87242000
12.54272461,-83.86768000
12.57324219,-81.21268000
12.60375977,-79.46687000
12.63427734,-78.74503000
12.66479492,-80.51952000
12.69531250,-84.90307000
12.72583008,-85.40505000
12.75634766,-82.51691000
12.78686523,-80.11903000
12.81738281,-78.94334000
12.84790039,-77.59286000
12.87841797,-76.18655000
12.90893555,-76.73763000
12.93945313,-80.11864000
12.96997070,-86.17706000
13.00048828,-87.81975000
13.03100586,-82.92900000
13.06152344,-79.07943000
13.09204102,-77.40678000
13.12255859,-78.35777000
13.15307617,-82.40497000
13.18359375,-87.09189000
13.21411133,-86.69977000
13.24462891,-84.05301000
13.27514648,-87.04449000
13.30566406,-86.09017000
13.33618164,-80.20458000
13.36669922,-84.20516000
13.39721680,-84.44039000
13.42773438,-76.76947000
13.45825195,-74.56783000
13.48876953,-71.88630000
13.51928711,-68.52739000
13.54980469,-67.07963000
13.58032227,-68.91747000
13.61083984,-75.56560000
13.64135742,-81.41061000
13.67187500,-74.38483000
13.70239258,-68.72367000
13.73291016,-65.45892000
13.76342773,-64.94579000
13.79394531,-66.88332000
13.82446289,-70.39721000
13.85498047,-73.71981000
13.88549805,-76.05761000
13.91601563,-78.09827000
13.94653320,-80.84739000
13.97705078,-86.14944000
14.00756836,-89.06549000
14.03808594,-83.64388000
14.06860352,-82.02943000
14.09912109,-83.93573000
14.12963867,-89.36951000
14.16015625,-95.29365000
14.19067383,-97.90432000
14.22119141,-102.64370000
14.25170898,-101.88200000
14.28222656,-87.81714000
14.31274414,-81.07442000
14.34326172,-79.18364000
14.37377930,-81.33997000
14.40429688,-92.11429000
14.43481445,-86.18944000
14.46533203,-81.45320000
14.49584961,-85.87790000
14.52636719,-87.31933000
14.55688477,-78.80561000
14.58740234,-76.71991000
14.61791992,-77.38440000
14.64843750,-79.76433000
14.67895508,-81.37740000
14.70947266,-80.41709000
14.73999023,-79.98578000
14.77050781,-81.04961000
14.80102539,-82.99551000
14.83154297,-84.42031000
14.86206055,-84.40353000
14.89257813,-84.33486000
14.92309570,-86.44067000
14.95361328,-92.31869000
14.98413086,-94.56925000
15.01464844,-88.94844000
15.04516602,-84.87723000
15.07568359,-84.74100000
15.10620117,-91.90201000
15.13671875,-93.31237000
15.16723633,-86.71162000
15.19775391,-86.58968000
15.22827148,-87.13875000
15.25878906,-86.20461000
15.28930664,-86.03927000
15.31982422,-87.50696000
15.35034180,-89.83786000
15.38085938,-92.56981000
15.41137695,-99.59732000
15.44189453,-100.76420000
15.47241211,-97.70214000
15.50292969,-95.91567000
15.53344727,-90.61794000
15.56396484,-91.68571000
15.59448242,-87.75047000
15.62500000,-84.89030000
15.65551758,-85.21481000
15.68603516,-83.54121000
15.71655273,-82.86160000
15.74707031,-85.92792000
15.77758789,-91.63689000
15.80810547,-94.43832000
15.83862305,-92.12230000
15.86914063,-89.54697000
15.89965820,-90.98479000
15.93017578,-95.48143000
15.96069336,-95.67680000
15.99121094,-94.35291000
16.02172852,-91.50179000
16.05224609,-91.39572000
16.08276367,-95.98702000
16.11328125,-103.12290000
16.14379883,-100.22160000
16.17431641,-90.25423000
16.20483398,-86.74474000
16.23535156,-86.95637000
16.26586914,-90.96470000
16.29638672,-96.43031000
16.32690430,-95.62279000
16.35742188,-100.42390000
16.38793945,-112.31840000
16.41845703,-98.06047000
16.44897461,-90.32693000
16.47949219,-87.93082000
16.51000977,-87.64912000
16.54052734,-86.38245000
16.57104492,-85.81464000
16.60156250,-86.67861000
16.63208008,-87.22661000
16.66259766,-88.06870000
16.69311523,-90.45837000
16.72363281,-89.08052000
16.75415039,-88.40247000
16.78466797,-92.00032000
16.81518555,-95.30633000
16.84570313,-94.09600000
16.87622070,-94.14575000
16.90673828,-93.07579000
16.93725586,-91.71886000
16.96777344,-94.48544000
16.99829102,-115.10370000
17.02880859,-95.51437000
17.05932617,-94.06551000
17.08984375,-99.03034000
17.12036133,-103.64760000
17.15087891,-100.15590000
17.18139648,-95.93536000
17.21191406,-93.24196000
17.24243164,-94.26790000
17.27294922,-97.91480000
17.30346680,-99.77684000
17.33398438,-97.99153000
17.36450195,-96.81755000
17.39501953,-95.45357000
17.42553711,-93.78724000
17.45605469,-93.51976000
17.48657227,-92.72689000
17.51708984,-93.51281000
17.54760742,-97.87355000
17.57812500,-97.14481000
17.60864258,-91.62098000
17.63916016,-88.36417000
17.66967773,-88.28606000
17.70019531,-91.95220000
17.73071289,-91.91360000
17.76123047,-88.45234000
17.79174805,-88.38962000
17.82226563,-90.63306000
17.85278320,-93.26308000
17.88330078,-94.26134000
17.91381836,-94.50080000
17.94433594,-95.04482000
17.97485352,-96.75808000
18.00537109,-103.44200000
18.03588867,-108.33110000
18.06640625,-97.20578000
18.09692383,-90.99014000
18.12744141,-89.95170000
18.15795898,-94.36138000
18.18847656,-115.49050000
18.21899414,-99.63921000
18.24951172,-97.33937000
18.28002930,-98.80740000
18.31054688,-101.79380000
18.34106445,-98.44262000
18.37158203,-97.28316000
18.40209961,-99.99605000
18.43261719,-99.30495000
18.46313477,-95.82508000
18.49365234,-98.06100000
18.52416992,-112.40780000
18.55468750,-99.52660000
18.58520508,-99.83426000
18.61572266,-106.20330000
18.64624023,-103.88220000
18.67675781,-97.51634000
18.70727539,-97.34036000
18.73779297,-104.49850000
18.76831055,-98.87740000
18.79882813,-96.09615000
18.82934570,-97.76787000
18.85986328,-102.54690000
18.89038086,-103.63250000
18.92089844,-98.82957000
18.95141602,-98.24719000
18.98193359,-101.52500000
19.01245117,-115.21970000
19.04296875,-101.54460000
19.07348633,-97.68188000
19.10400391,-98.58026000
19.13452148,-102.66090000
19.16503906,-106.10310000
19.19555664,-103.93550000
19.22607422,-105.05580000
19.25659180,-100.70240000
19.28710938,-97.63798000
19.31762695,-96.97936000
19.34814453,-95.66814000
19.37866211,-97.33918000
19.40917969,-108.02640000
19.43969727,-107.60960000
19.47021484,-110.48020000
19.50073242,-101.07210000
19.53125000,-95.19897000
19.56176758,-94.96271000
19.59228516,-99.41505000
19.62280273,-111.40450000
19.65332031,-104.53780000
19.68383789,-102.00020000
19.71435547,-103.55490000
19.74487305,-107.82970000
19.77539063,-111.34130000
19.80590820,-105.71400000
19.83642578,-98.96941000
19.86694336,-96.09126000
19.89746094,-96.60717000
19.92797852,-99.72375000
19.95849609,-101.91750000
19.98901367,-99.98758000
20.01953125,-97.73560000
20.05004883,-96.75720000
20.08056641,-97.31538000
20.11108398,-99.29097000
20.14160156,-98.95940000
20.17211914,-96.76695000
20.20263672,-96.15247000
20.23315430,-93.83488000
20.26367188,-91.98215000
20.29418945,-94.89799000
20.32470703,-99.88537000
20.35522461,-91.10439000
20.38574219,-90.37849000
20.41625977,-97.61806000
20.44677734,-94.38600000
20.47729492,-88.60824000
20.50781250,-86.20232000
20.53833008,-84.72517000
20.56884766,-85.04177000
20.59936523,-87.12836000
20.62988281,-89.04544000
20.66040039,-89.49507000
20.69091797,-91.13422000
20.72143555,-100.32850000
20.75195313,-95.89055000
20.78247070,-89.04568000
20.81298828,-87.46870000
20.84350586,-87.56171000
20.87402344,-88.26794000
20.90454102,-90.83892000
20.93505859,-97.89873000
20.96557617,-100.44460000
20.99609375,-101.13480000
21.02661133,-94.31776000
21.05712891,-89.38493000
21.08764648,-89.22360000
21.11816406,-92.88204000
21.14868164,-100.20850000
21.17919922,-107.45370000
21.20971680,-100.73880000
21.24023438,-95.29037000
21.27075195,-94.20081000
21.30126953,-96.98605000
21.33178711,-98.52782000
21.36230469,-95.66354000
21.39282227,-95.23210000
21.42333984,-94.81254000
21.45385742,-92.20557000
21.48437500,-90.89294000
21.51489258,-92.44950000
21.54541016,-97.32304000
21.57592773,-103.26690000
21.60644531,-101.43860000
21.63696289,-97.77463000
21.66748047,-94.09248000
21.69799805,-91.01803000
21.72851563,-89.11630000
21.75903320,-87.66029000
21.78955078,-86.28943000
21.82006836,-85.90158000
21.85058594,-87.68661000
21.88110352,-92.43761000
21.91162109,-98.92082000
21.94213867,-101.16670000
21.97265625,-100.39710000
22.00317383,-97.02057000
22.03369141,-93.03258000
22.06420898,-90.05089000
22.09472656,-88.36289000
22.12524414,-88.93508000
22.15576172,-92.07442000
22.18627930,-95.69871000
22.21679688,-97.39396000
22.24731445,-93.17693000
22.27783203,-89.84563000
22.30834961,-90.10696000
22.33886719,-93.74310000
22.36938477,-98.51132000
22.39990234,-97.29728000
22.43041992,-97.35864000
22.46093750,-92.20786000
22.49145508,-87.63181000
22.52197266,-86.88221000
22.55249023,-90.07900000
22.58300781,-99.80492000
22.61352539,-103.22980000
22.64404297,-99.67640000
22.67456055,-101.94080000
22.70507813,-107.04400000
22.73559570,-120.35610000
22.76611328,-101.09820000
22.79663086,-93.90715000
22.82714844,-89.95624000
22.85766602,-89.02911000
22.88818359,-91.11447000
22.91870117,-94.23480000
22.94921875,-96.09928000
22.97973633,-102.56320000
23.01025391,-110.41450000
23.04077148,-99.63174000
23.07128906,-96.69243000
23.10180664,-95.51548000
23.13232422,-94.27275000
23.16284180,-93.10622000
23.19335938,-91.96394000
23.22387695,-90.96332000
23.25439453,-90.69083000
23.28491211,-91.67624000
23.31542969,-94.63582000
23.34594727,-98.84544000
23.37646484,-100.71200000
23.40698242,-102.48640000
23.43750000,-106.99150000
23.46801758,-94.06304000
23.49853516,-90.03629000
23.52905273,-90.40742000
23.55957031,-93.76987000
23.59008789,-97.73437000
23.62060547,-98.53558000
23.65112305,-97.42226000
23.68164063,-97.07421000
23.71215820,-98.83887000
23.74267578,-104.01990000
23.77319336,-105.64330000
23.80371094,-92.86761000
23.83422852,-89.13641000
23.86474609,-89.98251000
23.89526367,-95.77714000
23.92578125,-96.71289000
23.95629883,-91.97418000
23.98681641,-91.36018000
24.01733398,-93.37981000
24.04785156,-96.29585000
24.07836914,-95.89172000
24.10888672,-93.04077000
24.13940430,-91.61064000
24.16992188,-92.17513000
24.20043945,-93.20423000
24.23095703,-93.57753000
24.26147461,-94.36733000
24.29199219,-95.17792000
24.32250977,-95.63396000
24.35302734,-96.35953000
24.38354492,-97.24289000
24.41406250,-98.32002000
24.44458008,-98.92677000
24.47509766,-93.93093000
24.50561523,-90.16282000
24.53613281,-89.65408000
24.56665039,-91.81575000
24.59716797,-94.63670000
24.62768555,-97.27581000
24.65820313,-103.11870000
24.68872070,-101.52360000
24.71923828,-96.26593000
24.74975586,-94.30695000
24.78027344,-95.46210000
24.81079102,-95.37450000
24.84130859,-93.96690000
24.87182617,-95.59494000
24.90234375,-97.80370000
24.93286133,-102.15890000
24.96337891,-102.77950000
24.99389648,-93.86619000
25.02441406,-91.18877000
25.05493164,-91.02840000
25.08544922,-91.99624000
25.11596680,-94.05750000
25.14648438,-99.04002000
25.17700195,-99.96678000
25.20751953,-94.32983000
25.23803711,-93.91349000
25.26855469,-99.05844000
25.29907227,-96.12550000
25.32958984,-90.92676000
25.36010742,-90.18394000
25.39062500,-93.08731000
25.42114258,-96.40679000
25.45166016,-90.34587000
25.48217773,-86.93010000
25.51269531,-86.62170000
25.54321289,-88.77407000
25.57373047,-92.68362000
25.60424805,-96.82439000
25.63476563,-98.91364000
25.66528320,-99.24347000
25.69580078,-101.04630000
25.72631836,-104.25690000
25.75683594,-98.20347000
25.78735352,-93.84912000
25.81787109,-91.98121000
25.84838867,-91.86810000
25.87890625,-93.61493000
25.90942383,-95.61166000
25.93994141,-93.53969000
25.97045898,-91.35687000
26.00097656,-91.28093000
26.03149414,-93.27162000
26.06201172,-95.05646000
26.09252930,-93.41136000
26.12304688,-92.19204000
26.15356445,-92.90951000
26.18408203,-94.55461000
26.21459961,-95.70342000
26.24511719,-97.10834000
26.27563477,-103.10330000
26.30615234,-97.98499000
26.33666992,-89.83038000
26.36718750,-87.47825000
26.39770508,-88.19482000
26.42822266,-90.73186000
26.45874023,-98.20786000
26.48925781,-99.62866000
26.51977539,-91.86591000
26.55029297,-92.42603000
26.58081055,-97.80067000
26.61132813,-105.06700000
26.64184570,-105.40470000
26.67236328,-106.04640000
26.70288086,-103.86070000
26.73339844,-96.77682000
26.76391602,-95.31102000
26.79443359,-97.25180000
26.82495117,-98.70744000
26.85546875,-96.37363000
26.88598633,-94.21292000
26.91650391,-95.62505000
26.94702148,-105.68260000
26.97753906,-97.64580000
27.00805664,-93.11321000
27.03857422,-93.46111000
27.06909180,-96.25499000
27.09960938,-98.49014000
27.13012695,-96.46890000
27.16064453,-93.41461000
27.19116211,-92.39725000
27.22167969,-93.42848000
27.25219727,-96.06627000
27.28271484,-97.43188000
27.31323242,-94.37431000
27.34375000,-92.03270000
27.37426758,-91.95977000
27.40478516,-93.90827000
27.43530273,-94.73169000
27.46582031,-95.83411000
27.49633789,-105.26790000
27.52685547,-101.75820000
27.55737305,-96.64059000
27.58789063,-95.78041000
27.61840820,-93.60737000
27.64892578,-90.57559000
27.67944336,-89.06951000
27.70996094,-90.83392000
27.74047852,-98.31563000
27.77099609,-112.82880000
27.80151367,-121.27510000
27.83203125,-101.63330000
27.86254883,-98.71501000
27.89306641,-107.31420000
27.92358398,-98.24738000
27.95410156,-93.96016000
27.98461914,-94.18852000
28.01513672,-96.75809000
28.04565430,-102.11200000
28.07617188,-104.97100000
28.10668945,-103.03990000
28.13720703,-116.80120000
28.16772461,-100.39670000
28.19824219,-93.49490000
28.22875977,-91.80843000
28.25927734,-95.64971000
28.28979492,-104.31440000
28.32031250,-94.90500000
28.35083008,-94.45492000
28.38134766,-96.26364000
28.41186523,-95.59772000
28.44238281,-94.59964000
28.47290039,-92.40184000
28.50341797,-90.99091000
28.53393555,-91.21596000
28.56445313,-92.33303000
28.59497070,-95.14533000
28.62548828,-101.71640000
28.65600586,-101.22570000
28.68652344,-98.08697000
28.71704102,-96.51222000
28.74755859,-97.81116000
28.77807617,-104.12370000
28.80859375,-108.14930000
28.83911133,-105.88780000
28.86962891,-99.29300000
28.90014648,-101.74630000
28.93066406,-109.49340000
28.96118164,-104.18060000
28.99169922,-111.53110000
29.02221680,-98.45671000
29.05273438,-98.46968000
29.08325195,-98.59046000
29.11376953,-94.52858000
29.14428711,-95.84064000
29.17480469,-99.51050000
29.20532227,-96.61974000
29.23583984,-95.08732000
29.26635742,-95.62848000
29.29687500,-96.10640000
29.32739258,-93.89503000
29.35791016,-93.29361000
29.38842773,-95.24265000
29.41894531,-94.63754000
29.44946289,-93.10741000
29.47998047,-91.44901000
29.51049805,-89.66687000
29.54101563,-90.16437000
29.57153320,-92.20557000
29.60205078,-93.21735000
29.63256836,-94.25460000
29.66308594,-96.26344000
29.69360352,-97.48348000
29.72412109,-96.22970000
29.75463867,-96.25772000
29.78515625,-98.06029000
29.81567383,-99.03838000
29.84619141,-97.27292000
29.87670898,-97.35854000
29.90722656,-107.18530000
29.93774414,-100.35890000
29.96826172,-95.19065000
29.99877930,-96.04457000
30.02929688,-98.53085000
30.05981445,-101.43540000
30.09033203,-100.40820000
30.12084961,-94.75012000
30.15136719,-92.69136000
30.18188477,-92.54662000
30.21240234,-93.42106000
30.24291992,-94.21013000
30.27343750,-93.07593000
30.30395508,-93.45293000
30.33447266,-96.59542000
30.36499023,-99.57706000
30.39550781,-100.40390000
30.42602539,-97.00778000
30.45654297,-96.62941000
30.48706055,-102.49910000
30.51757813,-108.72000000
30.54809570,-106.52480000
30.57861328,-113.30300000
30.60913086,-99.86467000
30.63964844,-96.33224000
30.67016602,-95.85136000
30.70068359,-94.97717000
30.73120117,-92.73138000
30.76171875,-91.76353000
30.79223633,-94.35098000
30.82275391,-103.52540000
30.85327148,-106.20310000
30.88378906,-102.56200000
30.91430664,-102.86210000
30.94482422,-105.55830000
30.97534180,-95.18901000
31.00585938,-91.81927000
31.03637695,-92.23151000
31.06689453,-94.36562000
31.09741211,-95.62817000
31.12792969,-94.73430000
31.15844727,-96.56764000
31.18896484,-103.94790000
31.21948242,-93.82120000
31.25000000,-92.43137000
31.28051758,-94.67825000
31.31103516,-91.47870000
31.34155273,-90.10104000
31.37207031,-91.49666000
31.40258789,-92.75489000
31.43310547,-91.39963000
31.46362305,-89.92176000
31.49414063,-91.09831000
31.52465820,-96.02840000
31.55517578,-99.63940000
31.58569336,-97.08541000
31.61621094,-96.44809000
31.64672852,-98.42475000
31.67724609,-106.68000000
31.70776367,-106.77800000
31.73828125,-105.47660000
31.76879883,-104.81930000
31.79931641,-100.18400000
31.82983398,-98.82608000
31.86035156,-97.23209000
31.89086914,-94.52430000
31.92138672,-93.15247000
31.95190430,-94.35848000
31.98242188,-99.14528000
32.01293945,-106.08580000
32.04345703,-103.75480000
32.07397461,-95.68645000
32.10449219,-91.74739000
32.13500977,-91.17599000
32.16552734,-92.57355000
32.19604492,-93.88351000
32.22656250,-93.28720000
32.25708008,-93.41416000
32.28759766,-95.21127000
32.31811523,-93.17868000
32.34863281,-90.81439000
32.37915039,-90.83428000
32.40966797,-92.11702000
32.44018555,-93.22977000
32.47070313,-93.79729000
32.50122070,-94.79343000
32.53173828,-95.84883000
32.56225586,-97.96469000
32.59277344,-103.49580000
32.62329102,-109.44180000
32.65380859,-102.23740000
32.68432617,-94.70417000
32.71484375,-92.35780000
32.74536133,-94.28850000
32.77587891,-99.99968000
32.80639648,-103.74140000
32.83691406,-97.75444000
32.86743164,-92.88634000
32.89794922,-90.35344000
32.92846680,-88.82887000
32.95898438,-88.55781000
32.98950195,-89.70163000
33.02001953,-90.84235000
33.05053711,-90.32444000
33.08105469,-89.69848000
33.11157227,-90.27112000
33.14208984,-91.73064000
33.17260742,-92.52222000
33.20312500,-92.34845000
33.23364258,-92.86137000
33.26416016,-94.38091000
33.29467773,-96.35734000
33.32519531,-93.53371000
33.35571289,-89.79710000
33.38623047,-88.96270000
33.41674805,-90.99519000
33.44726563,-95.19118000
33.47778320,-98.37712000
33.50830078,-100.62450000
33.53881836,-103.14890000
33.56933594,-100.87870000
33.59985352,-101.27370000
33.63037109,-104.43680000
33.66088867,-99.25460000
33.69140625,-95.28331000
33.72192383,-94.55257000
33.75244141,-98.94181000
33.78295898,-99.23805000
33.81347656,-94.10158000
33.84399414,-94.71188000
33.87451172,-99.53444000
33.90502930,-106.77430000
33.93554688,-107.05890000
33.96606445,-98.79605000
33.99658203,-94.15335000
34.02709961,-93.65126000
34.05761719,-96.57745000
34.08813477,-95.72175000
34.11865234,-93.65552000
34.14916992,-94.41663000
34.17968750,-97.13741000
34.21020508,-99.86900000
34.24072266,-95.95705000
34.27124023,-91.83709000
34.30175781,-90.39723000
34.33227539,-92.79553000
34.36279297,-102.35820000
34.39331055,-108.17130000
34.42382813,-103.29610000
34.45434570,-93.97514000
34.48486328,-90.79257000
34.51538086,-91.84758000
34.54589844,-96.30143000
34.57641602,-103.84860000
34.60693359,-108.49090000
34.63745117,-105.58010000
34.66796875,-102.28040000
34.69848633,-100.23260000
34.72900391,-98.01426000
34.75952148,-95.68416000
34.79003906,-94.93845000
34.82055664,-93.06061000
34.85107422,-92.89204000
34.88159180,-97.23678000
34.91210938,-108.87320000
34.94262695,-106.80180000
34.97314453,-100.42810000
35.00366211,-99.60979000
35.03417969,-96.66023000
35.06469727,-95.51209000
35.09521484,-100.57110000
35.12573242,-102.39290000
35.15625000,-103.54880000
35.18676758,-101.51940000
35.21728516,-95.39291000
35.24780273,-97.34888000
35.27832031,-109.38460000
35.30883789,-102.27710000
35.33935547,-94.30486000
35.36987305,-91.41200000
35.40039063,-92.98321000
35.43090820,-100.66320000
35.46142578,-105.48660000
35.49194336,-97.36278000
35.52246094,-95.14751000
35.55297852,-95.65090000
35.58349609,-95.99316000
35.61401367,-93.81635000
35.64453125,-92.78632000
35.67504883,-92.24908000
35.70556641,-92.22346000
35.73608398,-93.99060000
35.76660156,-96.22118000
35.79711914,-95.48034000
35.82763672,-93.30120000
35.85815430,-93.14286000
35.88867188,-96.78168000
35.91918945,-102.92670000
35.94970703,-104.42700000
35.98022461,-95.65637000
36.01074219,-91.95926000
36.04125977,-94.02520000
36.07177734,-101.55360000
36.10229492,-99.75498000
36.13281250,-101.73740000
36.16333008,-105.75570000
36.19384766,-103.50180000
36.22436523,-101.65320000
36.25488281,-107.07220000
36.28540039,-105.02090000
36.31591797,-98.30505000
36.34643555,-100.84290000
36.37695313,-102.27600000
36.40747070,-98.21046000
36.43798828,-98.07281000
36.46850586,-99.73120000
36.49902344,-102.62630000
36.52954102,-105.13040000
36.56005859,-103.20680000
36.59057617,-97.36404000
36.62109375,-95.09670000
36.65161133,-97.83462000
36.68212891,-108.53470000
36.71264648,-108.08670000
36.74316406,-111.18620000
36.77368164,-99.24615000
36.80419922,-95.23240000
36.83471680,-93.77728000
36.86523438,-94.12637000
36.89575195,-94.39526000
36.92626953,-91.69814000
36.95678711,-91.97326000
36.98730469,-99.52110000
37.01782227,-103.84760000
37.04833984,-98.80853000
37.07885742,-104.49850000
37.10937500,-97.41454000
37.13989258,-93.95385000
37.17041016,-93.25318000
37.20092773,-92.43372000
37.23144531,-91.57777000
37.26196289,-92.50312000
37.29248047,-96.15093000
37.32299805,-100.98730000
37.35351563,-101.62300000
37.38403320,-100.03360000
37.41455078,-97.89990000
37.44506836,-93.50856000
37.47558594,-91.92188000
37.50610352,-94.72803000
37.53662109,-101.28660000
37.56713867,-100.93790000
37.59765625,-104.40540000
37.62817383,-99.04048000
37.65869141,-95.34137000
37.68920898,-96.26149000
37.71972656,-99.04346000
37.75024414,-98.10286000
37.78076172,-98.17776000
37.81127930,-100.16890000
37.84179688,-97.61697000
37.87231445,-96.04269000
37.90283203,-96.71030000
37.93334961,-97.38237000
37.96386719,-97.13731000
37.99438477,-94.45739000
38.02490234,-92.31610000
38.05541992,-93.55045000
38.08593750,-99.59885000
38.11645508,-105.30540000
38.14697266,-99.36112000
38.17749023,-97.06812000
38.20800781,-96.64456000
38.23852539,-97.05898000
38.26904297,-95.73200000
38.29956055,-94.11056000
38.33007813,-94.73083000
38.36059570,-97.89867000
38.39111328,-98.40082000
38.42163086,-96.05417000
38.45214844,-95.22335000
38.48266602,-93.52748000
38.51318359,-91.52118000
38.54370117,-91.89704000
38.57421875,-95.90939000
38.60473633,-100.29570000
38.63525391,-97.38631000
38.66577148,-95.63039000
38.69628906,-95.79826000
38.72680664,-97.81075000
38.75732422,-98.15719000
38.78784180,-95.16061000
38.81835938,-92.43705000
38.84887695,-91.58410000
38.87939453,-92.40624000
38.90991211,-94.07028000
38.94042969,-96.09241000
38.97094727,-98.02951000
39.00146484,-100.43610000
39.03198242,-107.85440000
39.06250000,-103.85430000
39.09301758,-97.70071000
39.12353516,-95.83060000
39.15405273,-96.30044000
39.18457031,-99.49261000
39.21508789,-106.73280000
39.24560547,-104.52490000
39.27612305,-96.16438000
39.30664063,-94.15457000
39.33715820,-96.36922000
39.36767578,-99.80172000
39.39819336,-100.46740000
39.42871094,-101.73210000
39.45922852,-100.38370000
39.48974609,-96.29001000
39.52026367,-93.20056000
39.55078125,-95.20634000
39.58129883,-104.84150000
39.61181641,-89.42780000
39.64233398,-85.76255000
39.67285156,-86.06519000
39.70336914,-89.18410000
39.73388672,-93.76053000
39.76440430,-94.24895000
39.79492188,-91.69894000
39.82543945,-90.68478000
39.85595703,-92.31210000
39.88647461,-96.67149000
39.91699219,-97.36543000
39.94750977,-96.12517000
39.97802734,-99.24068000
40.00854492,-98.10941000
40.03906250,-93.81119000
40.06958008,-92.16583000
40.10009766,-91.46378000
40.13061523,-91.55200000
40.16113281,-92.14702000
40.19165039,-93.98246000
40.22216797,-94.76096000
40.25268555,-90.31859000
40.28320313,-87.48016000
40.31372070,-86.56516000
40.34423828,-86.88951000
40.37475586,-87.46258000
40.40527344,-88.47207000
40.43579102,-90.62526000
40.46630859,-93.00454000
40.49682617,-94.79305000
40.52734375,-96.30077000
40.55786133,-101.21440000
40.58837891,-104.51520000
40.61889648,-92.71766000
40.64941406,-89.10414000
40.67993164,-89.43061000
40.71044922,-92.19109000
40.74096680,-90.82973000
40.77148438,-87.68689000
40.80200195,-86.46236000
40.83251953,-86.99158000
40.86303711,-89.16963000
40.89355469,-93.48319000
40.92407227,-99.16110000
40.95458984,-103.21790000
40.98510742,-108.54870000
41.01562500,-103.36880000
41.04614258,-101.01070000
41.07666016,-100.78560000
41.10717773,-95.56287000
41.13769531,-90.88149000
41.16821289,-90.87714000
41.19873047,-92.91269000
41.22924805,-89.56093000
41.25976563,-86.97384000
41.29028320,-86.43272000
41.32080078,-87.18462000
41.35131836,-88.92020000
41.38183594,-91.38180000
41.41235352,-96.77412000
41.44287109,-100.81470000
41.47338867,-88.40053000
41.50390625,-84.23248000
41.53442383,-83.26630000
41.56494141,-83.93419000
41.59545898,-84.94914000
41.62597656,-86.34938000
41.65649414,-88.78226000
41.68701172,-92.47715000
41.71752930,-94.12258000
41.74804688,-88.77842000
41.77856445,-85.69981000
41.80908203,-85.84595000
41.83959961,-88.50315000
41.87011719,-93.23404000
41.90063477,-101.89750000
41.93115234,-99.87174000
41.96166992,-99.86958000
41.99218750,-101.50120000
42.02270508,-97.39362000
42.05322266,-96.32089000
42.08374023,-96.54254000
42.11425781,-93.69908000
42.14477539,-92.36306000
42.17529297,-95.22571000
42.20581055,-99.04074000
42.23632813,-97.85783000
42.26684570,-93.27316000
42.29736328,-89.95373000
42.32788086,-90.26038000
42.35839844,-94.65995000
42.38891602,-110.39820000
42.41943359,-97.84624000
42.44995117,-90.12080000
42.48046875,-84.77574000
42.51098633,-81.46066000
42.54150391,-80.39101000
42.57202148,-81.58472000
42.60253906,-84.98299000
42.63305664,-89.57035000
42.66357422,-89.80008000
42.69409180,-87.99319000
42.72460938,-88.96320000
42.75512695,-92.88364000
42.78564453,-92.92120000
42.81616211,-87.73354000
42.84667969,-83.79279000
42.87719727,-83.01836000
42.90771484,-85.80821000
42.93823242,-92.94722000
42.96875000,-100.79540000
42.99926758,-98.48320000
43.02978516,-99.33048000
43.06030273,-102.23970000
43.09082031,-98.47939000
43.12133789,-94.91879000
43.15185547,-97.30370000
43.18237305,-103.65410000
43.21289063,-95.12956000
43.24340820,-94.11388000
43.27392578,-93.72585000
43.30444336,-88.48906000
43.33496094,-85.50239000
43.36547852,-85.54665000
43.39599609,-88.56683000
43.42651367,-94.42745000
43.45703125,-93.25163000
43.48754883,-85.84103000
43.51806641,-81.96417000
43.54858398,-81.28867000
43.57910156,-83.53151000
43.60961914,-89.25352000
43.64013672,-97.38527000
43.67065430,-91.36931000
43.70117188,-89.22085000
43.73168945,-90.87032000
43.76220703,-95.65400000
43.79272461,-99.18952000
43.82324219,-96.08504000
43.85375977,-91.75668000
43.88427734,-90.66148000
43.91479492,-92.39289000
43.94531250,-94.63988000
43.97583008,-93.94314000
44.00634766,-91.56923000
44.03686523,-91.64181000
44.06738281,-94.86980000
44.09790039,-98.49107000
44.12841797,-109.67590000
44.15893555,-97.43501000
44.18945313,-91.80934000
44.21997070,-93.02916000
44.25048828,-101.05950000
44.28100586,-117.13500000
44.31152344,-108.50230000
44.34204102,-105.18110000
44.37255859,-101.68640000
44.40307617,-102.38510000
44.43359375,-102.90490000
44.46411133,-96.44031000
44.49462891,-91.62559000
44.52514648,-89.21266000
44.55566406,-89.93874000
44.58618164,-94.00921000
44.61669922,-96.05943000
44.64721680,-92.90450000
44.67773438,-90.55396000
44.70825195,-89.46382000
44.73876953,-89.66603000
44.76928711,-90.47612000
44.79980469,-91.17160000
44.83032227,-91.33960000
44.86083984,-91.98590000
44.89135742,-94.31702000
44.92187500,-99.57119000
44.95239258,-99.46313000
44.98291016,-91.95004000
45.01342773,-88.78707000
45.04394531,-89.51999000
45.07446289,-94.45621000
45.10498047,-100.23240000
45.13549805,-104.00270000
45.16601563,-94.71195000
45.19653320,-90.82694000
45.22705078,-91.60895000
45.25756836,-94.74868000
45.28808594,-94.09401000
45.31860352,-90.70831000
45.34912109,-88.75282000
45.37963867,-88.97678000
45.41015625,-91.86593000
45.44067383,-97.22106000
45.47119141,-101.93960000
45.50170898,-104.66580000
45.53222656,-106.49090000
45.56274414,-110.18240000
45.59326172,-98.90234000
45.62377930,-92.79899000
45.65429688,-89.52079000
45.68481445,-88.40722000
45.71533203,-90.00800000
45.74584961,-96.15646000
45.77636719,-104.70110000
45.80688477,-96.48846000
45.83740234,-94.00425000
45.86791992,-94.94048000
45.89843750,-100.11190000
45.92895508,-95.37830000
45.95947266,-90.37863000
45.98999023,-88.30176000
46.02050781,-88.26036000
46.05102539,-90.75554000
46.08154297,-96.59293000
46.11206055,-100.12160000
46.14257813,-98.07867000
46.17309570,-92.54314000
46.20361328,-89.01153000
46.23413086,-88.26206000
46.26464844,-89.96484000
46.29516602,-95.11081000
46.32568359,-104.89570000
46.35620117,-97.54858000
46.38671875,-96.70776000
46.41723633,-100.65440000
46.44775391,-104.40540000
46.47827148,-103.78970000
46.50878906,-102.65510000
46.53930664,-102.99140000
46.56982422,-110.44170000
46.60034180,-103.12750000
46.63085938,-96.45206000
46.66137695,-94.07501000
46.69189453,-94.05309000
46.72241211,-95.15723000
46.75292969,-97.01478000
46.78344727,-103.10320000
46.81396484,-110.71570000
46.84448242,-101.23590000
46.87500000,-99.84280000
46.90551758,-97.44504000
46.93603516,-95.78442000
46.96655273,-95.93010000
46.99707031,-96.49344000
47.02758789,-97.66046000
47.05810547,-101.00210000
47.08862305,-103.98920000
47.11914063,-101.29870000
47.14965820,-100.21380000
47.18017578,-98.19894000
47.21069336,-97.46995000
47.24121094,-102.54200000
47.27172852,-106.28940000
47.30224609,-98.40305000
47.33276367,-98.05408000
47.36328125,-101.50840000
47.39379883,-104.61280000
47.42431641,-105.63730000
47.45483398,-111.35460000
47.48535156,-109.77980000
47.51586914,-113.23120000
47.54638672,-107.91310000
47.57690430,-98.85609000
47.60742188,-97.01905000
47.63793945,-100.54490000
47.66845703,-103.14780000
47.69897461,-97.59480000
47.72949219,-96.75788000
47.76000977,-97.48480000
47.79052734,-97.26315000
47.82104492,-98.83500000
47.85156250,-103.47640000
47.88208008,-103.43040000
47.91259766,-102.87070000
47.94311523,-100.02890000
47.97363281,-95.83749000
48.00415039,-95.03656000
48.03466797,-98.10939000
48.06518555,-103.74720000
48.09570313,-97.68359000
48.12622070,-95.02807000
48.15673828,-95.90727000
48.18725586,-98.81973000
48.21777344,-103.38050000
48.24829102,-107.72390000
48.27880859,-100.06320000
48.30932617,-93.25070000
48.33984375,-89.81680000
48.37036133,-89.63612000
48.40087891,-92.59171000
48.43139648,-96.58447000
48.46191406,-95.42390000
48.49243164,-93.65926000
48.52294922,-94.47218000
48.55346680,-99.98795000
48.58398438,-124.41360000
48.61450195,-112.49760000
48.64501953,-99.22098000
48.67553711,-91.69243000
48.70605469,-88.92213000
48.73657227,-88.83650000
48.76708984,-89.97473000
48.79760742,-90.79498000
48.82812500,-90.85037000
48.85864258,-91.01500000
48.88916016,-92.01321000
48.91967773,-94.67723000
48.95019531,-103.01200000
48.98071289,-95.78678000
49.01123047,-89.14499000
49.04174805,-87.74103000
49.07226563,-90.36926000
49.10278320,-96.72176000
49.13330078,-98.88493000
49.16381836,-100.88810000
49.19433594,-103.09860000
49.22485352,-101.72400000
49.25537109,-105.50660000
49.28588867,-98.08852000
49.31640625,-90.45098000
49.34692383,-86.72420000
49.37744141,-85.62750000
49.40795898,-86.89175000
49.43847656,-91.01322000
49.46899414,-100.31720000
49.49951172,-101.26430000
49.53002930,-97.42455000
49.56054688,-99.04408000
49.59106445,-105.07420000
49.62158203,-104.43280000
49.65209961,-93.97421000
49.68261719,-90.20950000
49.71313477,-91.17100000
49.74365234,-97.96791000
49.77416992,-107.81540000
49.80468750,-101.09380000
49.83520508,-104.19550000
49.86572266,-109.01910000
49.89624023,-99.47117000
49.92675781,-96.03539000
49.95727539,-93.96091000
49.98779297,-88.78477000
50.01831055,-85.53367000
