Frequency,Channel A
(MHz),(dBu)

0.00000000,-28.88472000
0.03051758,-29.19186000
0.06103516,-34.18842000
0.09155273,-43.65592000
0.12207031,-61.13533000
0.15258789,-61.28088000
0.18310547,-61.96623000
0.21362305,-63.81693000
0.24414063,-66.48680000
0.27465820,-68.02192000
0.30517578,-67.12202000
0.33569336,-65.65404000
0.36621094,-61.37083000
0.39672852,-57.09192000
0.42724609,-55.59708000
0.45776367,-56.43648000
0.48828125,-57.78468000
0.51879883,-58.21572000
0.54931641,-61.37920000
0.57983398,-63.33258000
0.61035156,-51.26284000
0.64086914,-47.75355000
0.67138672,-48.74302000
0.70190430,-53.91979000
0.73242188,-60.59098000
0.76293945,-60.74498000
0.79345703,-61.91244000
0.82397461,-63.77832000
0.85449219,-66.90797000
0.88500977,-78.28844000
0.91552734,-66.57565000
0.94604492,-59.78718000
0.97656250,-57.92413000
1.00708008,-58.81660000
1.03759766,-60.96046000
1.06811523,-63.44597000
1.09863281,-67.07642000
1.12915039,-73.42587000
1.15966797,-83.58367000
1.19018555,-86.85605000
1.22070313,-78.76250000
1.25122070,-70.32585000
1.28173828,-68.21019000
1.31225586,-70.58052000
1.34277344,-79.43882000
1.37329102,-82.08051000
1.40380859,-73.45528000
1.43432617,-70.89523000
1.46484375,-71.38821000
1.49536133,-75.05292000
1.52587891,-80.44491000
1.55639648,-76.15473000
1.58691406,-71.32681000
1.61743164,-70.67596000
1.64794922,-76.84583000
1.67846680,-79.35916000
1.70898438,-70.45882000
1.73950195,-68.68454000
1.77001953,-68.95383000
1.80053711,-69.97063000
1.83105469,-71.94367000
1.86157227,-75.32277000
1.89208984,-80.18386000
1.92260742,-84.27097000
1.95312500,-81.04822000
1.98364258,-76.11472000
2.01416016,-73.30293000
2.04467773,-73.18300000
2.07519531,-76.73160000
2.10571289,-76.15932000
2.13623047,-68.68959000
2.16674805,-64.98098000
2.19726563,-64.01511000
2.22778320,-65.27020000
2.25830078,-68.44964000
2.28881836,-73.09691000
2.31933594,-77.89706000
2.34985352,-81.16424000
2.38037109,-83.65903000
2.41088867,-86.85771000
2.44140625,-91.97649000
2.47192383,-91.93009000
2.50244141,-82.19745000
2.53295898,-76.91713000
2.56347656,-74.80494000
2.59399414,-75.25085000
2.62451172,-77.45223000
2.65502930,-78.91319000
2.68554688,-78.76382000
2.71606445,-78.31253000
2.74658203,-78.25371000
2.77709961,-80.12177000
2.80761719,-85.36171000
2.83813477,-85.30730000
2.86865234,-78.17635000
2.89916992,-73.41327000
2.92968750,-71.17975000
2.96020508,-71.01077000
2.99072266,-72.66881000
3.02124023,-75.72164000
3.05175781,-78.43618000
3.08227539,-79.81555000
3.11279297,-81.82441000
3.14331055,-85.28403000
3.17382813,-88.10362000
3.20434570,-89.47013000
3.23486328,-93.47873000
3.26538086,-99.01285000
3.29589844,-90.58533000
3.32641602,-93.28881000
3.35693359,-99.95690000
3.38745117,-86.85744000
3.41796875,-83.24208000
3.44848633,-84.28870000
3.47900391,-87.48846000
3.50952148,-80.52998000
3.54003906,-76.98314000
3.57055664,-77.38673000
3.60107422,-81.61353000
3.63159180,-80.09523000
3.66210938,-77.01956000
3.69262695,-78.53495000
3.72314453,-83.26158000
3.75366211,-82.85262000
3.78417969,-77.17430000
3.81469727,-73.40434000
3.84521484,-72.32764000
3.87573242,-73.54802000
3.90625000,-76.73558000
3.93676758,-82.19344000
3.96728516,-92.09412000
3.99780273,-108.38780000
4.02832031,-94.35815000
4.05883789,-87.81145000
4.08935547,-85.73901000
4.11987305,-86.96809000
4.15039063,-91.20133000
4.18090820,-103.41950000
4.21142578,-91.80609000
4.24194336,-82.09001000
4.27246094,-77.08711000
4.30297852,-75.83177000
4.33349609,-76.21413000
4.36401367,-75.19898000
4.39453125,-74.88930000
4.42504883,-76.60452000
4.45556641,-80.58037000
4.48608398,-86.97097000
4.51660156,-85.10728000
4.54711914,-83.46474000
4.57763672,-83.73285000
4.60815430,-84.76322000
4.63867188,-89.62010000
4.66918945,-97.69319000
4.69970703,-86.58161000
4.73022461,-81.53800000
4.76074219,-79.66689000
4.79125977,-80.84238000
4.82177734,-83.58372000
4.85229492,-85.98036000
4.88281250,-86.36826000
4.91333008,-84.63890000
4.94384766,-82.84756000
4.97436523,-80.44925000
5.00488281,-79.64050000
5.03540039,-84.18176000
5.06591797,-89.97630000
5.09643555,-79.15908000
5.12695313,-77.18723000
5.15747070,-79.15440000
5.18798828,-86.07563000
5.21850586,-94.96022000
5.24902344,-88.01422000
5.27954102,-88.13560000
5.31005859,-88.00104000
5.34057617,-85.83513000
5.37109375,-87.00038000
5.40161133,-92.55180000
5.43212891,-89.43428000
5.46264648,-90.66930000
5.49316406,-93.84442000
5.52368164,-88.46717000
5.55419922,-84.16421000
5.58471680,-85.54010000
5.61523438,-87.05425000
5.64575195,-86.08853000
5.67626953,-90.89730000
5.70678711,-93.63670000
5.73730469,-83.67252000
5.76782227,-81.71455000
5.79833984,-79.40303000
5.82885742,-75.72723000
5.85937500,-76.14162000
5.88989258,-80.26703000
5.92041016,-84.27375000
5.95092773,-83.77408000
5.98144531,-82.66049000
6.01196289,-85.14538000
6.04248047,-89.74113000
6.07299805,-91.01137000
6.10351563,-90.86533000
6.13403320,-86.93974000
6.16455078,-89.17481000
6.19506836,-94.77258000
6.22558594,-85.52982000
6.25610352,-86.10238000
6.28662109,-87.02934000
6.31713867,-84.94135000
6.34765625,-84.95311000
6.37817383,-86.34248000
6.40869141,-92.16573000
6.43920898,-90.76875000
6.46972656,-88.45918000
6.50024414,-88.87642000
6.53076172,-86.55690000
6.56127930,-85.04574000
6.59179688,-86.66417000
6.62231445,-90.23189000
6.65283203,-89.21544000
6.68334961,-87.96884000
6.71386719,-91.79573000
6.74438477,-99.74039000
6.77490234,-88.51433000
6.80541992,-85.69562000
6.83593750,-83.83292000
6.86645508,-83.43696000
6.89697266,-84.38346000
6.92749023,-83.00531000
6.95800781,-79.91860000
6.98852539,-78.09064000
7.01904297,-78.48561000
7.04956055,-81.37664000
7.08007813,-85.84456000
7.11059570,-88.37415000
7.14111328,-87.58098000
7.17163086,-86.74957000
7.20214844,-87.48293000
7.23266602,-91.10072000
7.26318359,-99.86668000
7.29370117,-90.74869000
7.32421875,-85.91016000
7.35473633,-85.26031000
7.38525391,-87.70181000
7.41577148,-90.64944000
7.44628906,-91.26707000
7.47680664,-91.00836000
7.50732422,-90.62649000
7.53784180,-92.03060000
7.56835938,-94.95366000
7.59887695,-93.56362000
7.62939453,-92.03907000
7.65991211,-93.87280000
7.69042969,-95.77008000
7.72094727,-90.78069000
7.75146484,-88.19650000
7.78198242,-88.35488000
7.81250000,-90.27718000
7.84301758,-94.36543000
7.87353516,-103.41110000
7.90405273,-97.38898000
7.93457031,-92.69727000
7.96508789,-90.89420000
7.99560547,-90.68028000
8.02612305,-92.99046000
8.05664063,-101.22620000
8.08715820,-104.78680000
8.11767578,-97.28697000
8.14819336,-97.84702000
8.17871094,-96.33826000
8.20922852,-90.58750000
8.23974609,-88.17933000
8.27026367,-88.35823000
8.30078125,-90.17300000
8.33129883,-93.23033000
8.36181641,-98.44350000
8.39233398,-111.43140000
8.42285156,-108.95730000
8.45336914,-103.88520000
8.48388672,-102.19650000
8.51440430,-101.27330000
8.54492188,-103.93250000
8.57543945,-99.35150000
8.60595703,-93.16489000
8.63647461,-90.94759000
8.66699219,-90.95607000
8.69750977,-92.68845000
8.72802734,-95.69185000
8.75854492,-93.96704000
8.78906250,-91.32737000
8.81958008,-91.85255000
8.85009766,-94.47023000
8.88061523,-95.49325000
8.91113281,-95.41978000
8.94165039,-98.09966000
8.97216797,-107.10010000
9.00268555,-101.82480000
9.03320313,-97.96478000
9.06372070,-97.58745000
9.09423828,-94.75894000
9.12475586,-91.71712000
9.15527344,-91.65569000
9.18579102,-96.24066000
9.21630859,-105.48330000
9.24682617,-94.30789000
9.27734375,-91.64989000
9.30786133,-90.93919000
9.33837891,-89.35335000
9.36889648,-88.53204000
9.39941406,-89.84142000
9.42993164,-92.82756000
9.46044922,-96.08842000
9.49096680,-98.07278000
9.52148438,-96.33481000
9.55200195,-93.19461000
9.58251953,-90.21425000
9.61303711,-88.68526000
9.64355469,-88.38319000
9.67407227,-87.20333000
9.70458984,-84.32915000
9.73510742,-82.59392000
9.76562500,-82.95500000
9.79614258,-85.24563000
9.82666016,-89.36572000
9.85717773,-90.53477000
9.88769531,-87.19147000
9.91821289,-85.55595000
9.94873047,-85.64193000
9.97924805,-87.16454000
10.00976563,-89.12930000
10.04028320,-90.39932000
10.07080078,-93.43528000
10.10131836,-103.27670000
10.13183594,-105.89630000
10.16235352,-97.40959000
10.19287109,-89.11521000
10.22338867,-84.96833000
10.25390625,-84.82055000
10.28442383,-88.16582000
10.31494141,-93.57391000
10.34545898,-95.65823000
10.37597656,-94.61057000
10.40649414,-93.05164000
10.43701172,-91.44146000
10.46752930,-91.55568000
10.49804688,-89.46556000
10.52856445,-85.55165000
10.55908203,-83.53356000
10.58959961,-83.49171000
10.62011719,-84.54808000
10.65063477,-84.99909000
10.68115234,-85.38057000
10.71166992,-87.49861000
10.74218750,-91.41323000
10.77270508,-98.13175000
10.80322266,-107.65870000
10.83374023,-93.89453000
10.86425781,-91.70421000
10.89477539,-100.19900000
10.92529297,-88.88194000
10.95581055,-82.11433000
10.98632813,-80.40994000
11.01684570,-81.81390000
11.04736328,-85.17012000
11.07788086,-87.69913000
11.10839844,-88.71878000
11.13891602,-88.64944000
11.16943359,-86.49725000
11.19995117,-84.93231000
11.23046875,-83.78995000
11.26098633,-82.18644000
11.29150391,-81.58233000
11.32202148,-82.62493000
11.35253906,-85.13127000
11.38305664,-89.98390000
11.41357422,-97.38744000
11.44409180,-90.35226000
11.47460938,-86.68626000
11.50512695,-85.50137000
11.53564453,-87.08157000
11.56616211,-94.37779000
11.59667969,-100.60810000
11.62719727,-90.76074000
11.65771484,-84.07097000
11.68823242,-79.58841000
11.71875000,-78.26862000
11.74926758,-79.35950000
11.77978516,-81.52253000
11.81030273,-83.32332000
11.84082031,-83.23489000
11.87133789,-80.49716000
11.90185547,-78.76988000
11.93237305,-79.52897000
11.96289063,-81.61309000
11.99340820,-82.94426000
12.02392578,-84.90771000
12.05444336,-89.61284000
12.08496094,-96.00365000
12.11547852,-95.43535000
12.14599609,-93.75317000
12.17651367,-91.96051000
12.20703125,-91.46857000
12.23754883,-93.10828000
12.26806641,-91.63795000
12.29858398,-87.32599000
12.32910156,-85.22844000
12.35961914,-85.36732000
12.39013672,-84.48618000
12.42065430,-82.25526000
12.45117188,-82.45744000
12.48168945,-85.31223000
12.51220703,-84.98997000
12.54272461,-81.85126000
12.57324219,-80.68230000
12.60375977,-81.58009000
12.63427734,-84.36208000
12.66479492,-90.03201000
12.69531250,-102.00890000
12.72583008,-94.66159000
12.75634766,-96.20717000
12.78686523,-102.67180000
12.81738281,-93.52650000
12.84790039,-92.09355000
12.87841797,-95.14583000
12.90893555,-97.43012000
12.93945313,-93.67645000
12.96997070,-91.63857000
13.00048828,-93.21796000
13.03100586,-95.82132000
13.06152344,-87.39400000
13.09204102,-85.90843000
13.12255859,-91.84709000
13.15307617,-91.80795000
13.18359375,-88.58345000
13.21411133,-87.32841000
13.24462891,-81.98991000
13.27514648,-79.43772000
13.30566406,-79.40307000
13.33618164,-80.60035000
13.36669922,-81.38374000
13.39721680,-82.03154000
13.42773438,-84.34648000
13.45825195,-83.36107000
13.48876953,-75.38012000
13.51928711,-69.34602000
13.54980469,-66.44708000
13.58032227,-66.53400000
13.61083984,-69.32658000
13.64135742,-73.86802000
13.67187500,-77.20552000
13.70239258,-77.38016000
13.73291016,-76.12199000
13.76342773,-75.27868000
13.79394531,-75.62809000
13.82446289,-76.85542000
13.85498047,-78.41379000
13.88549805,-80.82652000
13.91601563,-86.14908000
13.94653320,-94.48492000
13.97705078,-83.67986000
14.00756836,-79.11052000
14.03808594,-77.62923000
14.06860352,-78.52252000
14.09912109,-81.33694000
14.12963867,-83.96310000
14.16015625,-83.34453000
14.19067383,-81.98131000
14.22119141,-81.56586000
14.25170898,-82.40428000
14.28222656,-84.11266000
14.31274414,-84.60694000
14.34326172,-83.84896000
14.37377930,-82.96880000
14.40429688,-81.39128000
14.43481445,-80.06924000
14.46533203,-80.64961000
14.49584961,-84.40430000
14.52636719,-93.46466000
14.55688477,-97.99370000
14.58740234,-90.37241000
14.61791992,-86.65813000
14.64843750,-87.39806000
14.67895508,-94.58614000
14.70947266,-89.47262000
14.73999023,-83.02074000
14.77050781,-79.57772000
14.80102539,-77.64494000
14.83154297,-77.18832000
14.86206055,-77.94022000
14.89257813,-78.96408000
14.92309570,-79.38564000
14.95361328,-80.03448000
14.98413086,-82.35367000
15.01464844,-85.70264000
15.04516602,-85.02773000
15.07568359,-83.61954000
15.10620117,-84.82133000
15.13671875,-89.04562000
15.16723633,-82.16598000
15.19775391,-75.32806000
15.22827148,-72.29369000
15.25878906,-72.37358000
15.28930664,-75.37312000
15.31982422,-80.72604000
15.35034180,-84.89529000
15.38085938,-85.78956000
15.41137695,-87.92215000
15.44189453,-91.25629000
15.47241211,-88.76275000
15.50292969,-83.99223000
15.53344727,-81.08679000
15.56396484,-80.53374000
15.59448242,-82.09444000
15.62500000,-85.25824000
15.65551758,-88.34813000
15.68603516,-87.86879000
15.71655273,-86.34879000
15.74707031,-86.33173000
15.77758789,-87.81593000
15.80810547,-90.27364000
15.83862305,-93.17763000
15.86914063,-96.22062000
15.89965820,-98.28790000
15.93017578,-97.46086000
15.96069336,-96.20240000
15.99121094,-96.26617000
16.02172852,-96.17843000
16.05224609,-91.65894000
16.08276367,-88.11646000
16.11328125,-87.33435000
16.14379883,-89.36159000
16.17431641,-93.28136000
16.20483398,-91.12860000
16.23535156,-88.01568000
16.26586914,-87.84015000
16.29638672,-90.95104000
16.32690430,-98.95138000
16.35742188,-95.67665000
16.38793945,-90.95116000
16.41845703,-90.01359000
16.44897461,-91.23267000
16.47949219,-93.17628000
16.51000977,-94.64947000
16.54052734,-94.39678000
16.57104492,-92.40831000
16.60156250,-90.62825000
16.63208008,-90.74039000
16.66259766,-93.71003000
16.69311523,-99.77966000
16.72363281,-102.35730000
16.75415039,-97.22932000
16.78466797,-95.68309000
16.81518555,-98.22072000
16.84570313,-103.43830000
16.87622070,-101.03430000
16.90673828,-96.21104000
16.93725586,-90.84800000
16.96777344,-87.52900000
16.99829102,-87.49365000
17.02880859,-91.26601000
17.05932617,-99.91849000
17.08984375,-103.65520000
17.12036133,-97.85555000
17.15087891,-96.52361000
17.18139648,-98.24707000
17.21191406,-101.07500000
17.24243164,-102.89470000
17.27294922,-102.39770000
17.30346680,-96.13292000
17.33398438,-90.40715000
17.36450195,-88.26253000
17.39501953,-89.84486000
17.42553711,-93.25561000
17.45605469,-92.86315000
17.48657227,-93.55831000
17.51708984,-94.39742000
17.54760742,-92.90582000
17.57812500,-93.01472000
17.60864258,-98.02502000
17.63916016,-98.98549000
17.66967773,-86.58055000
17.70019531,-81.79604000
17.73071289,-80.32132000
17.76123047,-81.35662000
17.79174805,-84.73149000
17.82226563,-91.16721000
17.85278320,-107.94710000
17.88330078,-101.26430000
17.91381836,-98.85346000
17.94433594,-97.45709000
17.97485352,-95.46739000
18.00537109,-95.63615000
18.03588867,-97.09956000
18.06640625,-97.52834000
18.09692383,-97.96663000
18.12744141,-98.28175000
18.15795898,-94.30618000
18.18847656,-92.08473000
18.21899414,-93.68834000
18.24951172,-101.44890000
18.28002930,-104.89690000
18.31054688,-97.89269000
18.34106445,-98.65451000
18.37158203,-106.09900000
18.40209961,-95.87319000
18.43261719,-89.84992000
18.46313477,-87.52198000
18.49365234,-87.43653000
18.52416992,-89.10732000
18.55468750,-93.03929000
18.58520508,-103.67110000
18.61572266,-102.02610000
18.64624023,-97.13240000
18.67675781,-98.10446000
18.70727539,-101.64260000
18.73779297,-108.90900000
18.76831055,-108.32730000
18.79882813,-101.24870000
18.82934570,-101.35060000
18.85986328,-109.27420000
18.89038086,-106.41410000
18.92089844,-103.56380000
18.95141602,-105.37110000
18.98193359,-104.17730000
19.01245117,-99.04422000
19.04296875,-97.17662000
19.07348633,-98.32916000
19.10400391,-100.16320000
19.13452148,-94.57486000
19.16503906,-91.17477000
19.19555664,-91.41484000
19.22607422,-94.85458000
19.25659180,-102.20200000
19.28710938,-104.80710000
19.31762695,-97.24103000
19.34814453,-93.81819000
19.37866211,-93.30280000
19.40917969,-96.00140000
19.43969727,-105.53970000
19.47021484,-106.31920000
19.50073242,-100.17040000
19.53125000,-99.01964000
19.56176758,-97.32522000
19.59228516,-96.68595000
19.62280273,-98.57387000
19.65332031,-97.86362000
19.68383789,-93.92151000
19.71435547,-92.50008000
19.74487305,-94.37855000
19.77539063,-99.50919000
19.80590820,-100.87670000
19.83642578,-102.51490000
19.86694336,-108.20220000
19.89746094,-100.70150000
19.92797852,-99.53114000
19.95849609,-100.87890000
19.98901367,-100.82820000
20.01953125,-100.02430000
20.05004883,-100.43060000
20.08056641,-100.43880000
20.11108398,-96.68649000
20.14160156,-92.89116000
20.17211914,-90.43946000
20.20263672,-89.76305000
20.23315430,-91.76778000
20.26367188,-99.35108000
20.29418945,-105.30010000
20.32470703,-97.84724000
20.35522461,-97.35583000
20.38574219,-97.96139000
20.41625977,-99.11937000
20.44677734,-99.69206000
20.47729492,-95.88879000
20.50781250,-94.24022000
20.53833008,-97.51068000
20.56884766,-100.19020000
20.59936523,-95.96829000
20.62988281,-93.40446000
20.66040039,-91.70795000
20.69091797,-91.08484000
20.72143555,-91.25370000
20.75195313,-91.30969000
20.78247070,-91.19746000
20.81298828,-91.58131000
20.84350586,-92.25575000
20.87402344,-93.64402000
20.90454102,-97.76367000
20.93505859,-105.20860000
20.96557617,-108.91260000
20.99609375,-103.00820000
21.02661133,-94.89989000
21.05712891,-91.85016000
21.08764648,-91.86799000
21.11816406,-94.03432000
21.14868164,-97.22484000
21.17919922,-102.18160000
21.20971680,-111.87380000
21.24023438,-106.03130000
21.27075195,-101.32060000
21.30126953,-99.36635000
21.33178711,-96.20598000
21.36230469,-93.07675000
21.39282227,-93.38469000
21.42333984,-95.73009000
21.45385742,-95.35465000
21.48437500,-96.18114000
21.51489258,-96.88734000
21.54541016,-93.21376000
21.57592773,-92.27493000
21.60644531,-95.45730000
21.63696289,-104.42510000
21.66748047,-108.92380000
21.69799805,-108.04290000
21.72851563,-105.37620000
21.75903320,-103.19250000
21.78955078,-104.56490000
21.82006836,-100.90250000
21.85058594,-97.81725000
21.88110352,-98.54675000
21.91162109,-101.22050000
21.94213867,-101.10260000
21.97265625,-98.56605000
22.00317383,-96.00456000
22.03369141,-93.35855000
22.06420898,-92.37830000
22.09472656,-93.06433000
22.12524414,-93.70802000
22.15576172,-93.03150000
22.18627930,-91.95509000
22.21679688,-92.36428000
22.24731445,-94.52272000
22.27783203,-96.88462000
22.30834961,-98.24729000
22.33886719,-100.41100000
22.36938477,-104.26120000
22.39990234,-106.57980000
22.43041992,-109.69480000
22.46093750,-102.03750000
22.49145508,-96.68118000
22.52197266,-96.63445000
22.55249023,-102.57990000
22.58300781,-126.98200000
22.61352539,-111.07540000
22.64404297,-107.55470000
22.67456055,-103.83810000
22.70507813,-102.71460000
22.73559570,-104.05180000
22.76611328,-108.16080000
22.79663086,-105.61630000
22.82714844,-95.85102000
22.85766602,-92.20047000
22.88818359,-92.54258000
22.91870117,-95.60413000
22.94921875,-98.79471000
22.97973633,-99.79191000
23.01025391,-98.32523000
23.04077148,-95.94348000
23.07128906,-94.54272000
23.10180664,-93.43378000
23.13232422,-92.76680000
23.16284180,-93.54720000
23.19335938,-95.75890000
23.22387695,-97.14555000
23.25439453,-96.29073000
23.28491211,-96.89731000
23.31542969,-99.02213000
23.34594727,-100.44980000
23.37646484,-101.15750000
23.40698242,-102.79620000
23.43750000,-101.86090000
23.46801758,-99.59906000
23.49853516,-101.00210000
23.52905273,-107.48270000
23.55957031,-103.74120000
23.59008789,-98.67512000
23.62060547,-98.61897000
23.65112305,-98.00876000
23.68164063,-96.01057000
23.71215820,-97.30045000
23.74267578,-98.70668000
23.77319336,-96.22794000
23.80371094,-93.33923000
23.83422852,-91.00033000
23.86474609,-90.72296000
23.89526367,-92.43290000
23.92578125,-94.45638000
23.95629883,-96.30434000
23.98681641,-100.95750000
24.01733398,-124.11690000
24.04785156,-104.47490000
24.07836914,-100.30210000
24.10888672,-97.67009000
24.13940430,-93.66766000
24.16992188,-90.38850000
24.20043945,-89.67551000
24.23095703,-91.50006000
24.26147461,-94.15320000
24.29199219,-94.51347000
24.32250977,-92.86360000
24.35302734,-92.01290000
24.38354492,-92.90154000
24.41406250,-94.46471000
24.44458008,-94.58276000
24.47509766,-92.72343000
24.50561523,-90.74258000
24.53613281,-89.87639000
24.56665039,-90.62974000
24.59716797,-94.37506000
24.62768555,-106.26910000
24.65820313,-98.21007000
24.68872070,-94.28577000
24.71923828,-93.89677000
24.74975586,-94.24454000
24.78027344,-93.66655000
24.81079102,-91.54082000
24.84130859,-90.10616000
24.87182617,-91.81034000
24.90234375,-98.10825000
24.93286133,-103.56900000
24.96337891,-99.76038000
24.99389648,-96.41926000
25.02441406,-94.47159000
25.05493164,-94.97924000
25.08544922,-97.75529000
25.11596680,-94.60667000
25.14648438,-90.91982000
25.17700195,-89.94189000
25.20751953,-90.72472000
25.23803711,-92.65532000
25.26855469,-95.32118000
25.29907227,-96.83934000
25.32958984,-95.41343000
25.36010742,-94.70058000
25.39062500,-96.46718000
25.42114258,-102.07510000
25.45166016,-104.31300000
25.48217773,-98.52657000
25.51269531,-98.97360000
25.54321289,-109.97360000
25.57373047,-102.90810000
25.60424805,-99.16200000
25.63476563,-100.47240000
25.66528320,-99.61053000
25.69580078,-97.18872000
25.72631836,-95.49307000
25.75683594,-93.64888000
25.78735352,-91.71492000
25.81787109,-91.00197000
25.84838867,-93.14284000
25.87890625,-102.05700000
25.90942383,-100.51080000
25.93994141,-94.57251000
25.97045898,-94.22707000
26.00097656,-96.49247000
26.03149414,-101.14070000
26.06201172,-104.62600000
26.09252930,-97.63164000
26.12304688,-92.31044000
26.15356445,-89.41545000
26.18408203,-88.98711000
26.21459961,-90.84180000
26.24511719,-93.93745000
26.27563477,-95.52377000
26.30615234,-95.37665000
26.33666992,-95.30853000
26.36718750,-96.17425000
26.39770508,-98.71892000
26.42822266,-104.87690000
26.45874023,-111.90230000
26.48925781,-99.94942000
26.51977539,-96.80851000
26.55029297,-96.11034000
26.58081055,-95.60240000
26.61132813,-96.61956000
26.64184570,-103.27700000
26.67236328,-104.46790000
26.70288086,-99.45795000
26.73339844,-101.93770000
26.76391602,-106.43970000
26.79443359,-106.71960000
26.82495117,-101.37110000
26.85546875,-98.48965000
26.88598633,-104.37560000
26.91650391,-103.94750000
26.94702148,-96.47789000
26.97753906,-96.90093000
27.00805664,-100.55230000
27.03857422,-99.47627000
27.06909180,-96.18385000
27.09960938,-93.85155000
27.13012695,-92.46456000
27.16064453,-92.31631000
27.19116211,-93.69645000
27.22167969,-96.56059000
27.25219727,-100.32420000
27.28271484,-103.24730000
27.31323242,-108.28960000
27.34375000,-99.88937000
27.37426758,-94.61464000
27.40478516,-95.19341000
27.43530273,-102.03300000
27.46582031,-98.33388000
27.49633789,-93.67526000
27.52685547,-93.73357000
27.55737305,-97.79044000
27.58789063,-106.11120000
27.61840820,-116.62920000
27.64892578,-98.76173000
27.67944336,-93.24904000
27.70996094,-92.27094000
27.74047852,-94.66649000
27.77099609,-99.70430000
27.80151367,-107.83860000
27.83203125,-100.99200000
27.86254883,-95.25565000
27.89306641,-92.68784000
27.92358398,-92.06612000
27.95410156,-93.75755000
27.98461914,-98.78516000
28.01513672,-112.90820000
28.04565430,-103.95880000
28.07617188,-101.83020000
28.10668945,-108.48470000
28.13720703,-96.97789000
28.16772461,-92.49686000
28.19824219,-92.50459000
28.22875977,-95.30959000
28.25927734,-98.29766000
28.28979492,-97.61432000
28.32031250,-93.95584000
28.35083008,-90.76724000
28.38134766,-90.00191000
28.41186523,-92.92754000
28.44238281,-105.68250000
28.47290039,-98.17642000
28.50341797,-92.99834000
28.53393555,-92.85752000
28.56445313,-95.54610000
28.59497070,-94.20975000
28.62548828,-88.87307000
28.65600586,-86.09918000
28.68652344,-86.22600000
28.71704102,-89.21080000
28.74755859,-92.91698000
28.77807617,-92.38942000
28.80859375,-90.75227000
28.83911133,-90.06387000
28.86962891,-91.04852000
28.90014648,-92.88483000
28.93066406,-92.62968000
28.96118164,-91.08506000
28.99169922,-90.49124000
29.02221680,-91.50245000
29.05273438,-94.83268000
29.08325195,-100.94170000
29.11376953,-99.04713000
29.14428711,-95.37959000
29.17480469,-93.34155000
29.20532227,-92.18210000
29.23583984,-92.85629000
29.26635742,-94.89037000
29.29687500,-94.54726000
29.32739258,-93.20673000
29.35791016,-94.06784000
29.38842773,-98.95753000
29.41894531,-98.58008000
29.44946289,-94.66599000
29.47998047,-96.25458000
29.51049805,-99.44291000
29.54101563,-96.95324000
29.57153320,-95.70026000
29.60205078,-96.08893000
29.63256836,-95.58934000
29.66308594,-93.59399000
29.69360352,-93.51787000
29.72412109,-94.31321000
29.75463867,-91.19515000
29.78515625,-88.73140000
29.81567383,-89.10501000
29.84619141,-92.57216000
29.87670898,-99.94273000
29.90722656,-103.48130000
29.93774414,-101.28600000
29.96826172,-106.31730000
29.99877930,-105.66300000
30.02929688,-95.00877000
30.05981445,-91.36009000
30.09033203,-90.73378000
30.12084961,-91.50226000
30.15136719,-91.81192000
30.18188477,-91.52912000
30.21240234,-92.16071000
30.24291992,-94.13347000
30.27343750,-95.61560000
30.30395508,-94.54086000
30.33447266,-92.78552000
30.36499023,-92.29514000
30.39550781,-93.94054000
30.42602539,-97.90663000
30.45654297,-103.32950000
30.48706055,-112.12890000
30.51757813,-103.51370000
30.54809570,-96.83292000
30.57861328,-95.19211000
30.60913086,-96.52419000
30.63964844,-96.05762000
30.67016602,-93.72308000
30.70068359,-92.89120000
30.73120117,-93.66599000
30.76171875,-95.75125000
30.79223633,-98.48779000
30.82275391,-100.60460000
30.85327148,-101.91040000
30.88378906,-99.21233000
30.91430664,-94.56557000
30.94482422,-92.89837000
30.97534180,-94.14468000
31.00585938,-96.82056000
31.03637695,-98.77930000
31.06689453,-102.16520000
31.09741211,-128.58820000
31.12792969,-99.48656000
31.15844727,-95.15402000
31.18896484,-95.14490000
31.21948242,-97.57812000
31.25000000,-100.04480000
31.28051758,-98.58524000
31.31103516,-95.23133000
31.34155273,-93.91969000
31.37207031,-96.01695000
31.40258789,-105.35600000
31.43310547,-104.32080000
31.46362305,-98.51273000
31.49414063,-98.15120000
31.52465820,-99.14969000
31.55517578,-101.26430000
31.58569336,-115.71630000
31.61621094,-97.15286000
31.64672852,-89.05122000
31.67724609,-85.31158000
31.70776367,-83.88885000
31.73828125,-84.11826000
31.76879883,-85.68261000
31.79931641,-88.23058000
31.82983398,-91.24299000
31.86035156,-94.36365000
31.89086914,-97.72322000
31.92138672,-96.96519000
31.95190430,-94.91817000
31.98242188,-95.17586000
32.01293945,-95.78645000
32.04345703,-95.54195000
32.07397461,-94.58974000
32.10449219,-94.03019000
32.13500977,-96.36516000
32.16552734,-100.07140000
32.19604492,-96.80423000
32.22656250,-95.02979000
32.25708008,-93.79079000
32.28759766,-90.94765000
32.31811523,-88.99915000
32.34863281,-90.14122000
32.37915039,-95.73245000
32.40966797,-93.81151000
32.44018555,-89.39456000
32.47070313,-88.74444000
32.50122070,-90.58877000
32.53173828,-94.21693000
32.56225586,-98.08532000
32.59277344,-98.63926000
32.62329102,-96.72737000
32.65380859,-92.97626000
32.68432617,-89.76984000
32.71484375,-88.70666000
32.74536133,-89.90829000
32.77587891,-93.10796000
32.80639648,-95.35903000
32.83691406,-92.65601000
32.86743164,-90.10501000
32.89794922,-89.06287000
32.92846680,-88.98389000
32.95898438,-89.50364000
32.98950195,-90.61364000
33.02001953,-92.52029000
33.05053711,-94.73914000
33.08105469,-93.87434000
33.11157227,-91.76464000
33.14208984,-91.20988000
33.17260742,-90.63507000
33.20312500,-88.74265000
33.23364258,-87.11738000
33.26416016,-86.04643000
33.29467773,-85.02927000
33.32519531,-84.33165000
33.35571289,-84.90433000
33.38623047,-87.08073000
33.41674805,-88.96049000
33.44726563,-88.90984000
33.47778320,-89.15336000
33.50830078,-90.33459000
33.53881836,-91.95596000
33.56933594,-93.35275000
33.59985352,-93.68056000
33.63037109,-91.09579000
33.66088867,-87.81055000
33.69140625,-85.96238000
33.72192383,-85.90750000
33.75244141,-87.19269000
33.78295898,-88.01749000
33.81347656,-87.78881000
33.84399414,-88.40947000
33.87451172,-91.10411000
33.90502930,-95.91557000
33.93554688,-93.99736000
33.96606445,-89.95322000
33.99658203,-88.61414000
34.02709961,-89.15992000
34.05761719,-89.91946000
34.08813477,-90.39282000
34.11865234,-92.16035000
34.14916992,-95.26018000
34.17968750,-94.60756000
34.21020508,-90.91837000
34.24072266,-88.63189000
34.27124023,-87.91832000
34.30175781,-87.42241000
34.33227539,-86.14120000
34.36279297,-85.35766000
34.39331055,-85.85983000
34.42382813,-87.18331000
34.45434570,-87.98512000
34.48486328,-87.82629000
34.51538086,-87.86424000
34.54589844,-88.77802000
34.57641602,-90.34103000
34.60693359,-91.39742000
34.63745117,-91.13651000
34.66796875,-90.31863000
34.69848633,-89.35426000
34.72900391,-88.39052000
34.75952148,-87.74207000
34.79003906,-87.32204000
34.82055664,-86.53271000
34.85107422,-85.33115000
34.88159180,-84.59537000
34.91210938,-84.81335000
34.94262695,-85.67847000
34.97314453,-86.57868000
35.00366211,-87.54420000
35.03417969,-88.54932000
35.06469727,-88.44444000
35.09521484,-87.25882000
35.12573242,-86.36436000
35.15625000,-86.37559000
35.18676758,-87.35989000
35.21728516,-89.10367000
35.24780273,-90.82744000
35.27832031,-91.46050000
35.30883789,-91.35675000
35.33935547,-91.63033000
35.36987305,-92.27550000
35.40039063,-91.63894000
35.43090820,-89.54103000
35.46142578,-87.95975000
35.49194336,-88.08445000
35.52246094,-90.41402000
35.55297852,-92.95767000
35.58349609,-91.32007000
35.61401367,-89.14026000
35.64453125,-87.22359000
35.67504883,-85.36781000
35.70556641,-84.21455000
35.73608398,-84.10529000
35.76660156,-84.69392000
35.79711914,-85.59944000
35.82763672,-87.05880000
35.85815430,-88.95474000
35.88867188,-89.65824000
35.91918945,-89.42921000
35.94970703,-90.22139000
35.98022461,-91.93132000
36.01074219,-92.00523000
36.04125977,-89.86391000
36.07177734,-87.95071000
36.10229492,-86.98627000
36.13281250,-86.89762000
36.16333008,-87.28105000
36.19384766,-87.33960000
36.22436523,-86.67746000
36.25488281,-85.82971000
36.28540039,-85.44896000
36.31591797,-86.11366000
36.34643555,-88.45222000
36.37695313,-92.89447000
36.40747070,-94.73850000
36.43798828,-90.98515000
36.46850586,-88.73265000
36.49902344,-87.55287000
36.52954102,-86.94466000
36.56005859,-87.38522000
36.59057617,-88.89327000
36.62109375,-89.12009000
36.65161133,-87.61055000
36.68212891,-87.42112000
36.71264648,-89.19015000
36.74316406,-91.41155000
36.77368164,-90.93736000
36.80419922,-89.41212000
36.83471680,-88.97353000
36.86523438,-89.62448000
36.89575195,-90.74680000
36.92626953,-91.89434000
36.95678711,-92.36609000
36.98730469,-91.26071000
37.01782227,-90.13104000
37.04833984,-90.46307000
37.07885742,-92.60353000
37.10937500,-96.03233000
37.13989258,-95.76433000
37.17041016,-91.95763000
37.20092773,-89.40171000
37.23144531,-88.14780000
37.26196289,-87.88525000
37.29248047,-88.71345000
37.32299805,-91.00747000
37.35351563,-94.57877000
37.38403320,-94.54329000
37.41455078,-91.75347000
37.44506836,-90.70728000
37.47558594,-91.21332000
37.50610352,-93.07395000
37.53662109,-94.46523000
37.56713867,-92.45412000
37.59765625,-91.03748000
37.62817383,-91.06892000
37.65869141,-91.37473000
37.68920898,-90.83682000
37.71972656,-89.55795000
37.75024414,-88.71651000
37.78076172,-89.10240000
37.81127930,-91.05539000
37.84179688,-94.74109000
37.87231445,-99.95568000
37.90283203,-98.48156000
37.93334961,-92.06418000
37.96386719,-87.96101000
37.99438477,-86.11603000
38.02490234,-86.35565000
38.05541992,-88.61624000
38.08593750,-92.27119000
38.11645508,-93.54080000
38.14697266,-91.62160000
38.17749023,-89.68308000
38.20800781,-88.29620000
38.23852539,-87.85368000
38.26904297,-88.87563000
38.29956055,-91.44420000
38.33007813,-93.47501000
38.36059570,-93.30531000
38.39111328,-93.92784000
38.42163086,-95.76299000
38.45214844,-96.42025000
38.48266602,-93.83968000
38.51318359,-90.79543000
38.54370117,-89.39803000
38.57421875,-89.79677000
38.60473633,-91.54944000
38.63525391,-93.96165000
38.66577148,-94.36781000
38.69628906,-90.24148000
38.72680664,-86.72281000
38.75732422,-85.62302000
38.78784180,-87.25280000
38.81835938,-92.47769000
38.84887695,-98.93216000
38.87939453,-91.50504000
38.90991211,-87.57062000
38.94042969,-86.18811000
38.97094727,-87.06085000
39.00146484,-90.76564000
39.03198242,-98.31815000
39.06250000,-97.71481000
39.09301758,-95.91424000
39.12353516,-97.46255000
39.15405273,-98.30596000
39.18457031,-96.78397000
39.21508789,-96.10883000
39.24560547,-96.28387000
39.27612305,-94.29245000
39.30664063,-91.83989000
39.33715820,-91.03564000
39.36767578,-93.17970000
39.39819336,-104.42860000
39.42871094,-95.93512000
39.45922852,-89.78524000
39.48974609,-88.09726000
39.52026367,-88.51224000
39.55078125,-90.61433000
39.58129883,-93.07922000
39.61181641,-92.35793000
39.64233398,-90.45799000
39.67285156,-89.34677000
39.70336914,-89.01816000
39.73388672,-89.60657000
39.76440430,-91.59015000
39.79492188,-95.14469000
39.82543945,-94.07955000
39.85595703,-89.79915000
39.88647461,-87.32703000
39.91699219,-86.34694000
39.94750977,-86.93221000
39.97802734,-89.00689000
40.00854492,-92.06276000
40.03906250,-95.75568000
40.06958008,-97.22542000
40.10009766,-94.86233000
40.13061523,-92.08404000
40.16113281,-91.15083000
40.19165039,-94.35311000
40.22216797,-106.25100000
40.25268555,-95.03757000
40.28320313,-93.28076000
40.31372070,-95.19267000
40.34423828,-93.49568000
40.37475586,-92.16346000
40.40527344,-93.29179000
40.43579102,-93.53219000
40.46630859,-90.80109000
40.49682617,-88.53999000
40.52734375,-88.39032000
40.55786133,-90.52040000
40.58837891,-93.70148000
40.61889648,-93.71965000
40.64941406,-92.38754000
40.67993164,-93.07643000
40.71044922,-97.13469000
40.74096680,-111.92410000
40.77148438,-94.95231000
40.80200195,-88.73321000
40.83251953,-86.14899000
40.86303711,-85.91338000
40.89355469,-87.23293000
40.92407227,-88.83155000
40.95458984,-89.22404000
40.98510742,-88.31504000
41.01562500,-87.57710000
41.04614258,-88.40603000
41.07666016,-91.70470000
41.10717773,-99.57459000
41.13769531,-99.73164000
41.16821289,-91.81294000
41.19873047,-89.86438000
41.22924805,-91.10753000
41.25976563,-93.17058000
41.29028320,-93.88889000
41.32080078,-93.19305000
41.35131836,-91.78642000
41.38183594,-91.48492000
41.41235352,-92.77231000
41.44287109,-95.17404000
41.47338867,-94.63602000
41.50390625,-91.14602000
41.53442383,-89.88076000
41.56494141,-90.19250000
41.59545898,-91.53431000
41.62597656,-96.74730000
41.65649414,-105.22140000
41.68701172,-94.80608000
41.71752930,-92.52165000
41.74804688,-93.92777000
41.77856445,-98.12259000
41.80908203,-95.02422000
41.83959961,-90.97684000
41.87011719,-90.96346000
41.90063477,-92.45185000
41.93115234,-89.81812000
41.96166992,-88.01362000
41.99218750,-87.68546000
42.02270508,-87.66005000
42.05322266,-89.21340000
42.08374023,-93.03079000
42.11425781,-94.94828000
42.14477539,-92.53425000
42.17529297,-90.92548000
42.20581055,-91.56862000
42.23632813,-91.76716000
42.26684570,-89.39812000
42.29736328,-88.75224000
42.32788086,-91.99363000
42.35839844,-100.69470000
42.38891602,-98.51405000
42.41943359,-96.91855000
42.44995117,-94.63569000
42.48046875,-88.97754000
42.51098633,-85.58603000
42.54150391,-85.50088000
42.57202148,-89.11813000
42.60253906,-97.77302000
42.63305664,-116.82770000
42.66357422,-114.59450000
42.69409180,-107.54120000
42.72460938,-98.64167000
42.75512695,-92.00879000
42.78564453,-88.50829000
42.81616211,-85.89748000
42.84667969,-83.92524000
42.87719727,-83.62167000
42.90771484,-85.29730000
42.93823242,-88.28741000
42.96875000,-89.17880000
42.99926758,-86.81103000
43.02978516,-85.37720000
43.06030273,-85.94250000
43.09082031,-87.79872000
43.12133789,-88.85094000
43.15185547,-87.14873000
43.18237305,-85.19885000
43.21289063,-85.59747000
43.24340820,-89.14131000
43.27392578,-96.21903000
43.30444336,-98.04608000
43.33496094,-91.48895000
43.36547852,-88.22536000
43.39599609,-87.65424000
43.42651367,-88.20854000
43.45703125,-87.67228000
43.48754883,-86.04410000
43.51806641,-85.49716000
43.54858398,-87.73308000
43.57910156,-94.55283000
43.60961914,-111.56520000
43.64013672,-99.87265000
43.67065430,-90.93762000
43.70117188,-88.09183000
43.73168945,-89.29764000
43.76220703,-92.35097000
43.79272461,-92.95425000
43.82324219,-92.05780000
43.85375977,-92.06280000
43.88427734,-95.46228000
43.91479492,-111.25870000
43.94531250,-100.19670000
43.97583008,-93.33070000
44.00634766,-88.96848000
44.03686523,-87.46498000
44.06738281,-88.78627000
44.09790039,-92.37178000
44.12841797,-95.83717000
44.15893555,-94.37645000
44.18945313,-92.42530000
44.21997070,-92.34076000
44.25048828,-94.14176000
44.28100586,-101.15220000
44.31152344,-100.85320000
44.34204102,-91.17509000
44.37255859,-88.89100000
44.40307617,-91.29324000
44.43359375,-101.63380000
44.46411133,-92.58155000
44.49462891,-87.09049000
44.52514648,-85.04320000
44.55566406,-84.97546000
44.58618164,-86.47557000
44.61669922,-89.04099000
44.64721680,-90.67695000
44.67773438,-89.35617000
44.70825195,-88.32711000
44.73876953,-89.77345000
44.76928711,-94.17336000
44.79980469,-100.97390000
44.83032227,-98.51204000
44.86083984,-93.89500000
44.89135742,-93.67075000
44.92187500,-94.93921000
44.95239258,-91.89163000
44.98291016,-89.13025000
45.01342773,-88.19299000
45.04394531,-89.12939000
45.07446289,-92.20079000
45.10498047,-96.19740000
45.13549805,-95.71994000
45.16601563,-91.94733000
45.19653320,-89.20647000
45.22705078,-89.09526000
45.25756836,-92.32388000
45.28808594,-98.14205000
45.31860352,-93.00869000
45.34912109,-88.97958000
45.37963867,-88.80138000
45.41015625,-92.59019000
45.44067383,-99.32053000
45.47119141,-96.05394000
45.50170898,-92.62771000
45.53222656,-91.12064000
45.56274414,-91.29993000
45.59326172,-93.28616000
45.62377930,-95.29591000
45.65429688,-92.24686000
45.68481445,-90.10197000
45.71533203,-91.20575000
45.74584961,-96.23466000
45.77636719,-109.22130000
45.80688477,-100.87260000
45.83740234,-96.05240000
45.86791992,-93.44247000
45.89843750,-92.29850000
45.92895508,-93.43655000
45.95947266,-97.03162000
45.98999023,-94.71867000
46.02050781,-90.05489000
46.05102539,-88.68438000
46.08154297,-90.28068000
46.11206055,-93.90526000
46.14257813,-96.43217000
46.17309570,-96.27045000
46.20361328,-95.70950000
46.23413086,-95.30388000
46.26464844,-93.61095000
46.29516602,-91.62263000
46.32568359,-89.89471000
46.35620117,-89.20152000
46.38671875,-90.89983000
46.41723633,-95.77040000
46.44775391,-97.67262000
46.47827148,-97.06821000
46.50878906,-102.67630000
46.53930664,-108.65740000
46.56982422,-96.68146000
46.60034180,-92.29194000
46.63085938,-90.38068000
46.66137695,-90.09628000
46.69189453,-90.90919000
46.72241211,-92.66915000
46.75292969,-96.16367000
46.78344727,-102.93210000
46.81396484,-107.06800000
46.84448242,-109.18990000
46.87500000,-100.79890000
46.90551758,-96.70667000
46.93603516,-96.17836000
46.96655273,-95.12321000
46.99707031,-92.70008000
47.02758789,-90.77412000
47.05810547,-90.13701000
47.08862305,-90.52499000
47.11914063,-91.15710000
47.14965820,-92.10282000
47.18017578,-94.49480000
47.21069336,-99.87499000
47.24121094,-105.84660000
47.27172852,-100.22870000
47.30224609,-96.93494000
47.33276367,-95.07843000
47.36328125,-93.62904000
47.39379883,-92.40309000
47.42431641,-91.55359000
47.45483398,-91.13728000
47.48535156,-91.40560000
47.51586914,-93.10623000
47.54638672,-96.97494000
47.57690430,-102.79910000
47.60742188,-106.40170000
47.63793945,-103.79490000
47.66845703,-100.38480000
47.69897461,-96.42696000
47.72949219,-93.82689000
47.76000977,-93.88737000
47.79052734,-96.20507000
47.82104492,-97.78062000
47.85156250,-97.05085000
47.88208008,-96.54144000
47.91259766,-97.95160000
47.94311523,-101.30130000
47.97363281,-105.81830000
48.00415039,-105.03250000
48.03466797,-100.81810000
48.06518555,-98.67001000
48.09570313,-97.49979000
48.12622070,-96.87994000
48.15673828,-97.19956000
48.18725586,-98.10843000
48.21777344,-97.79853000
48.24829102,-96.18333000
48.27880859,-94.91227000
48.30932617,-94.68772000
48.33984375,-94.70653000
48.37036133,-93.39476000
48.40087891,-92.02281000
48.43139648,-91.60823000
48.46191406,-92.19003000
48.49243164,-94.29361000
48.52294922,-99.13860000
48.55346680,-104.18610000
48.58398438,-104.04880000
48.61450195,-122.98950000
48.64501953,-96.29467000
48.67553711,-90.53923000
48.70605469,-89.24664000
48.73657227,-91.28258000
48.76708984,-96.88992000
48.79760742,-103.25340000
48.82812500,-96.19466000
48.85864258,-92.51351000
48.88916016,-91.80563000
48.91967773,-93.10988000
48.95019531,-94.83632000
48.98071289,-94.82742000
49.01123047,-90.98128000
49.04174805,-88.38223000
49.07226563,-89.43419000
49.10278320,-95.46834000
49.13330078,-112.60870000
49.16381836,-101.69350000
49.19433594,-103.27240000
49.22485352,-112.04660000
49.25537109,-103.95560000
49.28588867,-99.48718000
49.31640625,-96.38496000
49.34692383,-94.41489000
49.37744141,-94.69492000
49.40795898,-98.37503000
49.43847656,-108.48000000
49.46899414,-111.22630000
49.49951172,-105.74980000
49.53002930,-100.22950000
49.56054688,-98.44265000
49.59106445,-98.38475000
49.62158203,-95.40247000
49.65209961,-92.80730000
49.68261719,-90.61195000
49.71313477,-89.65524000
49.74365234,-91.58167000
49.77416992,-96.64455000
49.80468750,-97.73774000
49.83520508,-94.89610000
49.86572266,-93.31913000
49.89624023,-92.72182000
49.92675781,-93.96003000
49.95727539,-101.71110000
49.98779297,-98.14700000
50.01831055,-89.55169000
