Frequency,Channel A
(MHz),(dBu)

0.00000000,-36.96164000
0.03051758,-37.84380000
0.06103516,-45.61064000
0.09155273,-56.88168000
0.12207031,-50.86395000
0.15258789,-51.98933000
0.18310547,-52.91953000
0.21362305,-52.83282000
0.24414063,-53.50307000
0.27465820,-54.87232000
0.30517578,-55.99200000
0.33569336,-56.09129000
0.36621094,-55.68887000
0.39672852,-56.26292000
0.42724609,-58.38072000
0.45776367,-61.02031000
0.48828125,-61.58886000
0.51879883,-60.06970000
0.54931641,-58.92396000
0.57983398,-58.65023000
0.61035156,-57.98724000
0.64086914,-56.50868000
0.67138672,-55.76985000
0.70190430,-56.63902000
0.73242188,-59.27435000
0.76293945,-64.77079000
0.79345703,-72.18115000
0.82397461,-61.77727000
0.85449219,-57.68456000
0.88500977,-56.62590000
0.91552734,-57.24374000
0.94604492,-58.30723000
0.97656250,-58.91230000
1.00708008,-59.42025000
1.03759766,-60.44498000
1.06811523,-60.90004000
1.09863281,-59.83789000
1.12915039,-58.93322000
1.15966797,-59.07402000
1.19018555,-60.01543000
1.22070313,-60.85616000
1.25122070,-60.75453000
1.28173828,-60.10178000
1.31225586,-59.66577000
1.34277344,-59.59846000
1.37329102,-59.54233000
1.40380859,-59.35828000
1.43432617,-59.38074000
1.46484375,-59.78735000
1.49536133,-60.12333000
1.52587891,-59.87422000
1.55639648,-59.67418000
1.58691406,-60.29880000
1.61743164,-61.65768000
1.64794922,-63.55779000
1.67846680,-66.39040000
1.70898438,-70.15714000
1.73950195,-72.49963000
1.77001953,-70.37923000
1.80053711,-66.50084000
1.83105469,-64.02904000
1.86157227,-63.49604000
1.89208984,-64.37491000
1.92260742,-66.25104000
1.95312500,-69.22083000
1.98364258,-70.38859000
2.01416016,-68.02367000
2.04467773,-66.00344000
2.07519531,-64.76394000
2.10571289,-64.33321000
2.13623047,-64.31626000
2.16674805,-64.13870000
2.19726563,-63.78220000
2.22778320,-63.54439000
2.25830078,-63.61582000
2.28881836,-64.00639000
2.31933594,-64.40807000
2.34985352,-64.29954000
2.38037109,-63.59085000
2.41088867,-62.89217000
2.44140625,-62.92688000
2.47192383,-63.81152000
2.50244141,-64.48843000
2.53295898,-63.72947000
2.56347656,-62.17683000
2.59399414,-60.92799000
2.62451172,-60.55005000
2.65502930,-61.21091000
2.68554688,-62.62644000
2.71606445,-63.84964000
2.74658203,-64.05341000
2.77709961,-63.70555000
2.80761719,-63.19587000
2.83813477,-62.33982000
2.86865234,-61.37541000
2.89916992,-60.88027000
2.92968750,-60.95143000
2.96020508,-61.10272000
2.99072266,-61.02665000
3.02124023,-61.08013000
3.05175781,-61.63656000
3.08227539,-62.52186000
3.11279297,-63.29486000
3.14331055,-63.67900000
3.17382813,-63.49070000
3.20434570,-62.81657000
3.23486328,-62.04081000
3.26538086,-61.30474000
3.29589844,-60.46898000
3.32641602,-59.74616000
3.35693359,-59.56472000
3.38745117,-59.94448000
3.41796875,-60.44500000
3.44848633,-60.47532000
3.47900391,-59.82247000
3.50952148,-58.81596000
3.54003906,-57.82878000
3.57055664,-57.07106000
3.60107422,-56.68808000
3.63159180,-56.73259000
3.66210938,-57.10553000
3.69262695,-57.66815000
3.72314453,-58.35956000
3.75366211,-58.99219000
3.78417969,-59.12865000
3.81469727,-58.60971000
3.84521484,-57.93433000
3.87573242,-57.69081000
3.90625000,-58.01691000
3.93676758,-58.68232000
3.96728516,-59.39230000
3.99780273,-59.95600000
4.02832031,-60.27408000
4.05883789,-60.34533000
4.08935547,-60.27183000
4.11987305,-60.18845000
4.15039063,-60.26060000
4.18090820,-60.64953000
4.21142578,-61.33149000
4.24194336,-62.02102000
4.27246094,-62.31530000
4.30297852,-62.11224000
4.33349609,-61.81995000
4.36401367,-61.82449000
4.39453125,-62.22553000
4.42504883,-63.06857000
4.45556641,-64.35975000
4.48608398,-65.71840000
4.51660156,-66.30681000
4.54711914,-65.67350000
4.57763672,-64.39767000
4.60815430,-63.15953000
4.63867188,-62.21049000
4.66918945,-61.84523000
4.69970703,-62.38535000
4.73022461,-63.71191000
4.76074219,-65.11396000
4.79125977,-65.79842000
4.82177734,-65.73559000
4.85229492,-65.42996000
4.88281250,-65.17001000
4.91333008,-64.99945000
4.94384766,-64.99253000
4.97436523,-65.24285000
5.00488281,-65.76058000
5.03540039,-66.46616000
5.06591797,-67.09822000
5.09643555,-67.12746000
5.12695313,-66.22273000
5.15747070,-65.07537000
5.18798828,-64.75707000
5.21850586,-65.74584000
5.24902344,-67.82010000
5.27954102,-69.99617000
5.31005859,-70.93713000
5.34057617,-70.75542000
5.37109375,-70.68214000
5.40161133,-71.27641000
5.43212891,-72.70118000
5.46264648,-74.52578000
5.49316406,-73.26577000
5.52368164,-69.35822000
5.55419922,-66.49870000
5.58471680,-65.19245000
5.61523438,-64.98022000
5.64575195,-64.97414000
5.67626953,-64.22709000
5.70678711,-62.55531000
5.73730469,-60.59420000
5.76782227,-58.99885000
5.79833984,-58.05282000
5.82885742,-57.75356000
5.85937500,-57.95818000
5.88989258,-58.43393000
5.92041016,-58.82096000
5.95092773,-58.69528000
5.98144531,-58.06417000
6.01196289,-57.44021000
6.04248047,-57.17240000
6.07299805,-57.31728000
6.10351563,-57.85636000
6.13403320,-58.70906000
6.16455078,-59.66345000
6.19506836,-60.40682000
6.22558594,-60.69450000
6.25610352,-60.63873000
6.28662109,-60.58576000
6.31713867,-60.71083000
6.34765625,-61.04125000
6.37817383,-61.62167000
6.40869141,-62.50826000
6.43920898,-63.80504000
6.46972656,-65.52811000
6.50024414,-66.87033000
6.53076172,-66.80093000
6.56127930,-66.23776000
6.59179688,-66.32753000
6.62231445,-67.53074000
6.65283203,-69.92412000
6.68334961,-73.05228000
6.71386719,-75.70695000
6.74438477,-76.51288000
6.77490234,-75.39717000
6.80541992,-74.03111000
6.83593750,-73.52921000
6.86645508,-74.00504000
6.89697266,-75.06335000
6.92749023,-75.63308000
6.95800781,-75.01842000
6.98852539,-73.82552000
7.01904297,-72.63113000
7.04956055,-71.81890000
7.08007813,-71.59890000
7.11059570,-72.34779000
7.14111328,-74.36504000
7.17163086,-77.35574000
7.20214844,-80.00580000
7.23266602,-79.51995000
7.26318359,-75.66515000
7.29370117,-71.90334000
7.32421875,-70.08298000
7.35473633,-70.82309000
7.38525391,-74.52188000
7.41577148,-81.29181000
7.44628906,-83.54308000
7.47680664,-80.21393000
7.50732422,-78.48190000
7.53784180,-78.67497000
7.56835938,-80.84884000
7.59887695,-84.91174000
7.62939453,-88.93566000
7.65991211,-86.08061000
7.69042969,-79.37565000
7.72094727,-74.09207000
7.75146484,-71.22948000
7.78198242,-70.87347000
7.81250000,-72.79515000
7.84301758,-75.51566000
7.87353516,-76.21886000
7.90405273,-75.48213000
7.93457031,-74.46557000
7.96508789,-73.74861000
7.99560547,-73.90326000
8.02612305,-75.20735000
8.05664063,-77.36478000
8.08715820,-79.11715000
8.11767578,-78.96539000
8.14819336,-76.97463000
8.17871094,-74.67478000
8.20922852,-73.38085000
8.23974609,-73.72997000
8.27026367,-75.78843000
8.30078125,-78.91812000
8.33129883,-81.49735000
8.36181641,-82.21745000
8.39233398,-81.73295000
8.42285156,-81.57359000
8.45336914,-83.60007000
8.48388672,-87.42321000
8.51440430,-84.98378000
8.54492188,-83.82534000
8.57543945,-85.05711000
8.60595703,-78.47061000
8.63647461,-74.01055000
8.66699219,-73.22288000
8.69750977,-75.69746000
8.72802734,-80.88886000
8.75854492,-84.80775000
8.78906250,-86.27542000
8.81958008,-86.56918000
8.85009766,-84.72615000
8.88061523,-83.38787000
8.91113281,-83.80650000
8.94165039,-86.52801000
8.97216797,-91.75991000
9.00268555,-94.63358000
9.03320313,-92.66972000
9.06372070,-85.45243000
9.09423828,-81.62419000
9.12475586,-82.45437000
9.15527344,-88.45116000
9.18579102,-90.76873000
9.21630859,-89.59076000
9.24682617,-94.41972000
9.27734375,-89.11255000
9.30786133,-82.32703000
9.33837891,-79.75472000
9.36889648,-79.56978000
9.39941406,-80.46066000
9.42993164,-81.37439000
9.46044922,-82.52275000
9.49096680,-82.23701000
9.52148438,-77.54273000
9.55200195,-74.85130000
9.58251953,-75.52449000
9.61303711,-79.93069000
9.64355469,-86.67889000
9.67407227,-83.18179000
9.70458984,-80.81338000
9.73510742,-80.75237000
9.76562500,-82.18827000
9.79614258,-83.96954000
9.82666016,-85.28722000
9.85717773,-85.99255000
9.88769531,-82.49625000
9.91821289,-77.09108000
9.94873047,-73.05597000
9.97924805,-71.02711000
10.00976563,-71.27299000
10.04028320,-73.86331000
10.07080078,-77.61792000
10.10131836,-79.26558000
10.13183594,-79.36128000
10.16235352,-78.49092000
10.19287109,-76.90662000
10.22338867,-75.58385000
10.25390625,-75.01120000
10.28442383,-75.34004000
10.31494141,-76.96168000
10.34545898,-81.46949000
10.37597656,-96.05125000
10.40649414,-82.60558000
10.43701172,-78.75705000
10.46752930,-77.83571000
10.49804688,-76.98447000
10.52856445,-76.49327000
10.55908203,-77.89526000
10.58959961,-82.94582000
10.62011719,-90.36324000
10.65063477,-83.03149000
10.68115234,-82.14104000
10.71166992,-86.25201000
10.74218750,-96.56508000
10.77270508,-85.12790000
10.80322266,-81.92216000
10.83374023,-79.31087000
10.86425781,-74.62693000
10.89477539,-72.51027000
10.92529297,-73.60991000
10.95581055,-77.31692000
10.98632813,-81.10268000
11.01684570,-82.68970000
11.04736328,-81.84558000
11.07788086,-80.00777000
11.10839844,-78.54856000
11.13891602,-77.60652000
11.16943359,-77.97000000
11.19995117,-81.42879000
11.23046875,-89.07604000
11.26098633,-79.36446000
11.29150391,-75.09510000
11.32202148,-74.46822000
11.35253906,-76.86926000
11.38305664,-82.97916000
11.41357422,-91.31509000
11.44409180,-94.73278000
11.47460938,-90.31454000
11.50512695,-79.05262000
11.53564453,-74.70132000
11.56616211,-73.35276000
11.59667969,-73.79057000
11.62719727,-74.80367000
11.65771484,-75.04253000
11.68823242,-74.83810000
11.71875000,-73.89983000
11.74926758,-71.81139000
11.77978516,-70.66315000
11.81030273,-70.99202000
11.84082031,-71.89103000
11.87133789,-72.78388000
11.90185547,-73.49843000
11.93237305,-74.29498000
11.96289063,-75.52037000
11.99340820,-75.63462000
12.02392578,-74.25237000
12.05444336,-72.99631000
12.08496094,-72.68992000
12.11547852,-73.49281000
12.14599609,-74.87393000
12.17651367,-75.41385000
12.20703125,-75.46668000
12.23754883,-77.61565000
12.26806641,-85.52331000
12.29858398,-86.28761000
12.32910156,-80.24545000
12.35961914,-78.99596000
12.39013672,-77.87701000
12.42065430,-76.12925000
12.45117188,-74.74957000
12.48168945,-73.77285000
12.51220703,-72.96737000
12.54272461,-72.59063000
12.57324219,-73.05668000
12.60375977,-73.65855000
12.63427734,-73.13075000
12.66479492,-72.50586000
12.69531250,-72.04446000
12.72583008,-71.27040000
12.75634766,-71.08664000
12.78686523,-71.91142000
12.81738281,-73.37260000
12.84790039,-75.15889000
12.87841797,-77.14021000
12.90893555,-78.37355000
12.93945313,-77.07935000
12.96997070,-74.75654000
13.00048828,-73.26042000
13.03100586,-72.73605000
13.06152344,-72.71165000
13.09204102,-73.06359000
13.12255859,-74.40454000
13.15307617,-76.94238000
13.18359375,-79.42550000
13.21411133,-80.41148000
13.24462891,-79.80838000
13.27514648,-79.21263000
13.30566406,-78.35188000
13.33618164,-77.20335000
13.36669922,-74.91388000
13.39721680,-71.60537000
13.42773438,-69.73739000
13.45825195,-70.68224000
13.48876953,-77.58867000
13.51928711,-79.59692000
13.54980469,-71.71996000
13.58032227,-72.74116000
13.61083984,-85.93040000
13.64135742,-76.46844000
13.67187500,-71.71519000
13.70239258,-70.55763000
13.73291016,-70.35062000
13.76342773,-71.42808000
13.79394531,-73.90070000
13.82446289,-75.11234000
13.85498047,-75.00194000
13.88549805,-75.73958000
13.91601563,-76.69903000
13.94653320,-76.83438000
13.97705078,-76.98799000
14.00756836,-78.85902000
14.03808594,-82.69537000
14.06860352,-84.85503000
14.09912109,-85.53288000
14.12963867,-88.75238000
14.16015625,-95.35612000
14.19067383,-85.21272000
14.22119141,-79.47272000
14.25170898,-77.27042000
14.28222656,-78.04736000
14.31274414,-81.92526000
14.34326172,-82.46524000
14.37377930,-78.13972000
14.40429688,-76.26304000
14.43481445,-76.84495000
14.46533203,-80.37857000
14.49584961,-78.60291000
14.52636719,-74.54478000
14.55688477,-73.28839000
14.58740234,-72.44227000
14.61791992,-71.23640000
14.64843750,-71.04705000
14.67895508,-72.76199000
14.70947266,-75.73404000
14.73999023,-76.87356000
14.77050781,-77.19917000
14.80102539,-79.38720000
14.83154297,-82.93329000
14.86206055,-85.39603000
14.89257813,-88.53296000
14.92309570,-88.13572000
14.95361328,-80.57094000
14.98413086,-77.15511000
15.01464844,-76.50427000
15.04516602,-76.90855000
15.07568359,-75.75993000
15.10620117,-73.76399000
15.13671875,-73.28986000
15.16723633,-74.36126000
15.19775391,-75.60844000
15.22827148,-76.27755000
15.25878906,-77.40035000
15.28930664,-79.85495000
15.31982422,-85.31798000
15.35034180,-89.02272000
15.38085938,-80.82592000
15.41137695,-78.80933000
15.44189453,-77.74194000
15.47241211,-75.43275000
15.50292969,-73.92028000
15.53344727,-74.07466000
15.56396484,-75.74935000
15.59448242,-78.59788000
15.62500000,-83.46822000
15.65551758,-88.89083000
15.68603516,-82.69315000
15.71655273,-80.04101000
15.74707031,-79.03937000
15.77758789,-77.31687000
15.80810547,-75.67440000
15.83862305,-74.49168000
15.86914063,-73.67730000
15.89965820,-73.10416000
15.93017578,-72.45889000
15.96069336,-71.91621000
15.99121094,-72.06495000
16.02172852,-73.10382000
16.05224609,-74.44576000
16.08276367,-75.54610000
16.11328125,-76.74284000
16.14379883,-77.98484000
16.17431641,-78.43861000
16.20483398,-78.60403000
16.23535156,-80.23785000
16.26586914,-86.13132000
16.29638672,-93.79370000
16.32690430,-84.49512000
16.35742188,-83.31279000
16.38793945,-84.38168000
16.41845703,-83.48486000
16.44897461,-81.38290000
16.47949219,-81.65694000
16.51000977,-85.14126000
16.54052734,-87.09029000
16.57104492,-83.04666000
16.60156250,-79.40219000
16.63208008,-76.67545000
16.66259766,-75.29575000
16.69311523,-75.16183000
16.72363281,-75.56656000
16.75415039,-75.80586000
16.78466797,-75.61633000
16.81518555,-74.94181000
16.84570313,-74.01954000
16.87622070,-73.39585000
16.90673828,-73.41804000
16.93725586,-74.25607000
16.96777344,-75.92474000
16.99829102,-78.05048000
17.02880859,-80.12116000
17.05932617,-82.00164000
17.08984375,-83.30608000
17.12036133,-85.17665000
17.15087891,-87.80186000
17.18139648,-84.73278000
17.21191406,-82.07572000
17.24243164,-80.89593000
17.27294922,-79.54623000
17.30346680,-78.04215000
17.33398438,-77.47920000
17.36450195,-78.23637000
17.39501953,-79.96339000
17.42553711,-81.80119000
17.45605469,-82.34555000
17.48657227,-80.49861000
17.51708984,-77.61294000
17.54760742,-75.50032000
17.57812500,-74.69559000
17.60864258,-75.07480000
17.63916016,-76.06679000
17.66967773,-76.66245000
17.70019531,-76.41339000
17.73071289,-76.09538000
17.76123047,-76.44710000
17.79174805,-77.59592000
17.82226563,-79.13872000
17.85278320,-80.34763000
17.88330078,-81.20663000
17.91381836,-83.03910000
17.94433594,-87.23434000
17.97485352,-92.92294000
18.00537109,-95.52145000
18.03588867,-94.41547000
18.06640625,-89.25763000
18.09692383,-86.63660000
18.12744141,-85.05386000
18.15795898,-82.91684000
18.18847656,-80.85408000
18.21899414,-79.95620000
18.24951172,-80.57565000
18.28002930,-82.50241000
18.31054688,-84.94423000
18.34106445,-86.44067000
18.37158203,-85.54816000
18.40209961,-82.80430000
18.43261719,-80.33611000
18.46313477,-79.35028000
18.49365234,-79.94688000
18.52416992,-81.56747000
18.55468750,-83.41072000
18.58520508,-84.94641000
18.61572266,-85.84862000
18.64624023,-85.91533000
18.67675781,-85.88695000
18.70727539,-86.38983000
18.73779297,-87.22911000
18.76831055,-88.22676000
18.79882813,-90.27531000
18.82934570,-96.40910000
18.85986328,-106.37700000
18.89038086,-95.49941000
18.92089844,-97.40736000
18.95141602,-97.84184000
18.98193359,-92.11106000
19.01245117,-90.49476000
19.04296875,-90.18174000
19.07348633,-88.61230000
19.10400391,-86.68252000
19.13452148,-86.09908000
19.16503906,-86.97007000
19.19555664,-88.97308000
19.22607422,-91.35538000
19.25659180,-91.77003000
19.28710938,-89.75989000
19.31762695,-87.85510000
19.34814453,-87.18873000
19.37866211,-87.86841000
19.40917969,-89.53790000
19.43969727,-91.58727000
19.47021484,-93.20278000
19.50073242,-93.24882000
19.53125000,-92.47231000
19.56176758,-92.60762000
19.59228516,-93.88335000
19.62280273,-95.85572000
19.65332031,-97.23418000
19.68383789,-95.66492000
19.71435547,-94.85716000
19.74487305,-97.87480000
19.77539063,-105.22010000
19.80590820,-103.59630000
19.83642578,-102.27760000
19.86694336,-101.57710000
19.89746094,-99.85721000
19.92797852,-98.22338000
19.95849609,-95.72624000
19.98901367,-94.75922000
20.01953125,-98.06616000
20.05004883,-99.63696000
20.08056641,-94.81563000
20.11108398,-94.06299000
20.14160156,-98.43826000
20.17211914,-97.07452000
20.20263672,-90.39378000
20.23315430,-88.88709000
20.26367188,-90.30524000
20.29418945,-91.57623000
20.32470703,-91.70600000
20.35522461,-91.65840000
20.38574219,-89.82597000
20.41625977,-87.44724000
20.44677734,-86.64203000
20.47729492,-88.99349000
20.50781250,-96.06109000
20.53833008,-92.63951000
20.56884766,-88.94666000
20.59936523,-88.33884000
20.62988281,-88.90435000
20.66040039,-89.21324000
20.69091797,-87.72724000
20.72143555,-85.62130000
20.75195313,-84.34901000
20.78247070,-83.44530000
20.81298828,-82.29848000
20.84350586,-81.41471000
20.87402344,-81.68338000
20.90454102,-83.29223000
20.93505859,-85.20665000
20.96557617,-85.81046000
20.99609375,-85.72449000
21.02661133,-85.24522000
21.05712891,-83.63654000
21.08764648,-81.88589000
21.11816406,-81.35131000
21.14868164,-82.34582000
21.17919922,-84.28085000
21.20971680,-85.86616000
21.24023438,-86.04280000
21.27075195,-85.26814000
21.30126953,-84.50466000
21.33178711,-83.55827000
21.36230469,-82.20329000
21.39282227,-81.23051000
21.42333984,-81.12431000
21.45385742,-81.93173000
21.48437500,-83.59978000
21.51489258,-85.59897000
21.54541016,-86.64989000
21.57592773,-86.63395000
21.60644531,-86.76301000
21.63696289,-87.83916000
21.66748047,-89.36055000
21.69799805,-90.11604000
21.72851563,-90.97119000
21.75903320,-92.65253000
21.78955078,-93.87784000
21.82006836,-93.38188000
21.85058594,-92.51834000
21.88110352,-92.94794000
21.91162109,-94.06308000
21.94213867,-93.42934000
21.97265625,-91.54413000
22.00317383,-90.74529000
22.03369141,-90.99168000
22.06420898,-90.17468000
22.09472656,-88.90596000
22.12524414,-88.79386000
22.15576172,-89.28513000
22.18627930,-88.60917000
22.21679688,-86.44148000
22.24731445,-84.19749000
22.27783203,-82.81165000
22.30834961,-82.34044000
22.33886719,-82.52391000
22.36938477,-83.08299000
22.39990234,-83.67275000
22.43041992,-84.07578000
22.46093750,-84.47030000
22.49145508,-85.24898000
22.52197266,-86.28081000
22.55249023,-86.20060000
22.58300781,-85.05927000
22.61352539,-84.83560000
22.64404297,-86.53733000
22.67456055,-90.48044000
22.70507813,-94.91264000
22.73559570,-95.17632000
22.76611328,-93.04585000
22.79663086,-89.74876000
22.82714844,-87.51057000
22.85766602,-86.92699000
22.88818359,-87.98661000
22.91870117,-91.03528000
22.94921875,-96.05997000
22.97973633,-96.26572000
23.01025391,-93.47398000
23.04077148,-92.45103000
23.07128906,-92.46465000
23.10180664,-93.83033000
23.13232422,-96.77492000
23.16284180,-94.89442000
23.19335938,-91.89719000
23.22387695,-90.46861000
23.25439453,-88.84293000
23.28491211,-87.11913000
23.31542969,-86.37593000
23.34594727,-86.68547000
23.37646484,-87.52280000
23.40698242,-88.20609000
23.43750000,-88.51929000
23.46801758,-89.06250000
23.49853516,-89.67221000
23.52905273,-89.48051000
23.55957031,-88.61646000
23.59008789,-87.79660000
23.62060547,-87.52557000
23.65112305,-87.88068000
23.68164063,-88.10207000
23.71215820,-87.44396000
23.74267578,-85.80177000
23.77319336,-84.98466000
23.80371094,-86.69267000
23.83422852,-91.41412000
23.86474609,-99.05133000
23.89526367,-105.85830000
23.92578125,-97.74063000
23.95629883,-94.63606000
23.98681641,-93.64868000
24.01733398,-95.63786000
24.04785156,-103.90940000
24.07836914,-97.53838000
24.10888672,-93.28480000
24.13940430,-94.54636000
24.16992188,-98.00233000
24.20043945,-90.92365000
24.23095703,-87.52330000
24.26147461,-87.28940000
24.29199219,-88.67130000
24.32250977,-90.17532000
24.35302734,-91.03769000
24.38354492,-91.34300000
24.41406250,-91.63311000
24.44458008,-92.36444000
24.47509766,-93.34846000
24.50561523,-93.58685000
24.53613281,-91.88139000
24.56665039,-90.32927000
24.59716797,-90.95746000
24.62768555,-93.28022000
24.65820313,-93.45061000
24.68872070,-90.51575000
24.71923828,-87.85531000
24.74975586,-86.49855000
24.78027344,-86.52655000
24.81079102,-88.23186000
24.84130859,-92.01607000
24.87182617,-99.23943000
24.90234375,-106.25030000
24.93286133,-94.29654000
24.96337891,-89.57664000
24.99389648,-87.45694000
25.02441406,-87.71490000
25.05493164,-90.99442000
25.08544922,-97.75399000
25.11596680,-100.68920000
25.14648438,-95.87861000
25.17700195,-92.14008000
25.20751953,-92.07414000
25.23803711,-93.94321000
25.26855469,-91.40876000
25.29907227,-88.42860000
25.32958984,-87.96542000
25.36010742,-90.19522000
25.39062500,-95.25714000
25.42114258,-98.42536000
25.45166016,-93.73705000
25.48217773,-88.38052000
25.51269531,-84.99661000
25.54321289,-84.27306000
25.57373047,-86.45049000
25.60424805,-91.06976000
25.63476563,-92.34627000
25.66528320,-91.03578000
25.69580078,-91.52411000
25.72631836,-95.02125000
25.75683594,-108.68370000
25.78735352,-98.19572000
25.81787109,-92.66264000
25.84838867,-90.56273000
25.87890625,-88.84065000
25.90942383,-86.74903000
25.93994141,-85.53056000
25.97045898,-85.77898000
26.00097656,-86.84282000
26.03149414,-87.14161000
26.06201172,-86.00577000
26.09252930,-84.79062000
26.12304688,-84.53828000
26.15356445,-85.65105000
26.18408203,-87.90244000
26.21459961,-89.48575000
26.24511719,-88.83131000
26.27563477,-87.33990000
26.30615234,-86.60532000
26.33666992,-87.09222000
26.36718750,-87.86849000
26.39770508,-87.51375000
26.42822266,-86.67008000
26.45874023,-86.45211000
26.48925781,-86.96885000
26.51977539,-88.17230000
26.55029297,-90.21268000
26.58081055,-91.43341000
26.61132813,-89.50744000
26.64184570,-88.23099000
26.67236328,-89.30718000
26.70288086,-92.69077000
26.73339844,-97.17495000
26.76391602,-98.58249000
26.79443359,-96.43655000
26.82495117,-94.28293000
26.85546875,-92.04900000
26.88598633,-90.24481000
26.91650391,-90.37548000
26.94702148,-92.87050000
26.97753906,-96.20210000
27.00805664,-95.88974000
27.03857422,-92.27814000
27.06909180,-89.48840000
27.09960938,-88.28949000
27.13012695,-88.07066000
27.16064453,-88.18379000
27.19116211,-88.33339000
27.22167969,-88.36151000
27.25219727,-87.75293000
27.28271484,-86.09894000
27.31323242,-84.18311000
27.34375000,-83.07648000
27.37426758,-83.27175000
27.40478516,-84.62737000
27.43530273,-86.58052000
27.46582031,-88.89779000
27.49633789,-92.24621000
27.52685547,-96.98022000
27.55737305,-101.80010000
27.58789063,-110.04450000
27.61840820,-122.62940000
27.64892578,-104.65730000
27.67944336,-96.51364000
27.70996094,-95.42892000
27.74047852,-97.05577000
27.77099609,-92.89914000
27.80151367,-90.39307000
27.83203125,-90.82990000
27.86254883,-93.74615000
27.89306641,-99.74182000
27.92358398,-108.77960000
27.95410156,-97.77164000
27.98461914,-90.65550000
28.01513672,-87.64635000
28.04565430,-87.45166000
28.07617188,-88.78716000
28.10668945,-90.28174000
28.13720703,-91.78619000
28.16772461,-92.60066000
28.19824219,-89.36721000
28.22875977,-86.02169000
28.25927734,-85.02580000
28.28979492,-85.85324000
28.32031250,-87.24384000
28.35083008,-88.72125000
28.38134766,-91.62300000
28.41186523,-97.12285000
28.44238281,-101.63960000
28.47290039,-98.30621000
28.50341797,-94.98046000
28.53393555,-95.36645000
28.56445313,-98.49129000
28.59497070,-95.54086000
28.62548828,-90.68203000
28.65600586,-88.21906000
28.68652344,-88.17776000
28.71704102,-90.34749000
28.74755859,-94.06030000
28.77807617,-97.98344000
28.80859375,-102.48560000
28.83911133,-103.53630000
28.86962891,-98.86473000
28.90014648,-97.33521000
28.93066406,-96.58109000
28.96118164,-94.13555000
28.99169922,-90.91605000
29.02221680,-88.99982000
29.05273438,-89.59187000
29.08325195,-93.13353000
29.11376953,-95.55383000
29.14428711,-94.63578000
29.17480469,-96.95128000
29.20532227,-102.42860000
29.23583984,-107.91700000
29.26635742,-104.53250000
29.29687500,-99.99619000
29.32739258,-99.82779000
29.35791016,-104.14000000
29.38842773,-108.39870000
29.41894531,-100.42670000
29.44946289,-99.41909000
29.47998047,-107.94830000
29.51049805,-95.91107000
29.54101563,-89.98318000
29.57153320,-88.41669000
29.60205078,-89.48647000
29.63256836,-91.36473000
29.66308594,-92.89649000
29.69360352,-98.08205000
29.72412109,-102.39880000
29.75463867,-92.95692000
29.78515625,-91.06164000
29.81567383,-92.08582000
29.84619141,-93.78738000
29.87670898,-95.43186000
29.90722656,-96.41000000
29.93774414,-94.23724000
29.96826172,-91.40495000
29.99877930,-91.10024000
30.02929688,-94.95944000
30.05981445,-105.80100000
30.09033203,-109.11420000
30.12084961,-114.17810000
30.15136719,-103.80610000
30.18188477,-98.13170000
30.21240234,-95.69927000
30.24291992,-95.90625000
30.27343750,-95.48611000
30.30395508,-93.93364000
30.33447266,-93.29504000
30.36499023,-92.92943000
30.39550781,-91.43988000
30.42602539,-90.18842000
30.45654297,-91.85674000
30.48706055,-99.85182000
30.51757813,-100.33990000
30.54809570,-96.74512000
30.57861328,-100.16010000
30.60913086,-104.24070000
30.63964844,-96.26750000
30.67016602,-93.36658000
30.70068359,-94.08025000
30.73120117,-97.69588000
30.76171875,-102.59050000
30.79223633,-101.13280000
30.82275391,-95.26897000
30.85327148,-91.35545000
30.88378906,-90.88573000
30.91430664,-94.76805000
30.94482422,-109.24890000
30.97534180,-100.73820000
31.00585938,-100.52740000
31.03637695,-101.09610000
31.06689453,-98.86937000
31.09741211,-105.74840000
31.12792969,-98.95023000
31.15844727,-95.02998000
31.18896484,-98.15477000
31.21948242,-104.85230000
31.25000000,-95.55650000
31.28051758,-90.67146000
31.31103516,-88.43865000
31.34155273,-89.29299000
31.37207031,-92.86787000
31.40258789,-92.11075000
31.43310547,-90.42390000
31.46362305,-90.81976000
31.49414063,-91.60944000
31.52465820,-92.33573000
31.55517578,-93.66142000
31.58569336,-96.43565000
31.61621094,-100.95170000
31.64672852,-104.80090000
31.67724609,-101.51350000
31.70776367,-96.84581000
31.73828125,-94.89490000
31.76879883,-97.33633000
31.79931641,-102.25440000
31.82983398,-95.66207000
31.86035156,-94.24989000
31.89086914,-96.63150000
31.92138672,-98.65274000
31.95190430,-95.09471000
31.98242188,-91.19625000
32.01293945,-89.92136000
32.04345703,-91.06622000
32.07397461,-93.50424000
32.10449219,-96.03912000
32.13500977,-98.10460000
32.16552734,-98.51053000
32.19604492,-97.21664000
32.22656250,-95.44771000
32.25708008,-93.03085000
32.28759766,-90.43040000
32.31811523,-88.38922000
32.34863281,-86.92740000
32.37915039,-85.79153000
32.40966797,-84.90300000
32.44018555,-84.85121000
32.47070313,-86.31976000
32.50122070,-89.45218000
32.53173828,-93.16850000
32.56225586,-96.43782000
32.59277344,-99.62292000
32.62329102,-94.25957000
32.65380859,-90.23109000
32.68432617,-89.29297000
32.71484375,-90.45002000
32.74536133,-92.54988000
32.77587891,-94.45504000
32.80639648,-95.49903000
32.83691406,-94.82259000
32.86743164,-94.10921000
32.89794922,-95.32904000
32.92846680,-96.88439000
32.95898438,-94.96789000
32.98950195,-92.33701000
33.02001953,-91.25946000
33.05053711,-92.77631000
33.08105469,-98.86780000
33.11157227,-113.34350000
33.14208984,-100.41260000
33.17260742,-98.87781000
33.20312500,-99.01906000
33.23364258,-96.42503000
33.26416016,-96.11734000
33.29467773,-99.50838000
33.32519531,-101.71140000
33.35571289,-100.95770000
33.38623047,-105.63940000
33.41674805,-111.32750000
33.44726563,-100.96120000
33.47778320,-98.69577000
33.50830078,-97.65926000
33.53881836,-98.14345000
33.56933594,-102.58440000
33.59985352,-102.34700000
33.63037109,-100.08880000
33.66088867,-105.10970000
33.69140625,-103.31170000
33.72192383,-93.78484000
33.75244141,-89.46815000
33.78295898,-88.15693000
33.81347656,-88.91895000
33.84399414,-90.65172000
33.87451172,-92.53749000
33.90502930,-95.18518000
33.93554688,-98.41618000
33.96606445,-97.48196000
33.99658203,-97.33249000
34.02709961,-98.62024000
34.05761719,-97.69260000
34.08813477,-96.71890000
34.11865234,-95.14083000
34.14916992,-93.91476000
34.17968750,-93.08942000
34.21020508,-91.79925000
34.24072266,-90.92559000
34.27124023,-90.98805000
34.30175781,-91.74638000
34.33227539,-94.35774000
34.36279297,-99.77605000
34.39331055,-96.11812000
34.42382813,-94.14838000
34.45434570,-97.00360000
34.48486328,-102.71540000
34.51538086,-99.36707000
34.54589844,-97.73906000
34.57641602,-101.02640000
34.60693359,-108.13050000
34.63745117,-99.40444000
34.66796875,-95.92839000
34.69848633,-94.42191000
34.72900391,-93.66063000
34.75952148,-94.11250000
34.79003906,-96.84409000
34.82055664,-103.87550000
34.85107422,-103.32040000
34.88159180,-96.19447000
34.91210938,-93.27600000
34.94262695,-92.53429000
34.97314453,-92.18921000
35.00366211,-91.89236000
35.03417969,-92.11653000
35.06469727,-92.06972000
35.09521484,-91.90282000
35.12573242,-92.38928000
35.15625000,-92.57265000
35.18676758,-92.96312000
35.21728516,-95.67870000
35.24780273,-98.53172000
35.27832031,-96.51022000
35.30883789,-96.58715000
35.33935547,-100.34320000
35.36987305,-106.10220000
35.40039063,-101.87140000
35.43090820,-98.97028000
35.46142578,-98.61142000
35.49194336,-100.81920000
35.52246094,-104.49470000
35.55297852,-98.97897000
35.58349609,-95.87584000
35.61401367,-96.35902000
35.64453125,-100.58250000
35.67504883,-113.74180000
35.70556641,-112.77400000
35.73608398,-105.78250000
35.76660156,-101.63720000
35.79711914,-103.13020000
35.82763672,-101.53200000
35.85815430,-96.31313000
35.88867188,-93.79340000
35.91918945,-92.52008000
35.94970703,-92.22404000
35.98022461,-92.52659000
36.01074219,-92.10867000
36.04125977,-90.51575000
36.07177734,-89.37172000
36.10229492,-89.30218000
36.13281250,-90.28236000
36.16333008,-92.50808000
36.19384766,-96.33912000
36.22436523,-102.25630000
36.25488281,-113.81120000
36.28540039,-108.23030000
36.31591797,-100.64430000
36.34643555,-99.97376000
36.37695313,-105.82900000
36.40747070,-102.60490000
36.43798828,-97.81788000
36.46850586,-98.01939000
36.49902344,-100.95910000
36.52954102,-101.12140000
36.56005859,-98.53381000
36.59057617,-96.43383000
36.62109375,-93.04406000
36.65161133,-90.70286000
36.68212891,-90.89510000
36.71264648,-94.07380000
36.74316406,-100.54170000
36.77368164,-99.56168000
36.80419922,-96.22984000
36.83471680,-96.98827000
36.86523438,-104.57140000
36.89575195,-97.02271000
36.92626953,-93.17474000
36.95678711,-93.14099000
36.98730469,-93.27858000
37.01782227,-93.86745000
37.04833984,-96.62766000
37.07885742,-99.80305000
37.10937500,-102.34460000
37.13989258,-119.24760000
37.17041016,-102.28970000
37.20092773,-97.45004000
37.23144531,-95.77648000
37.26196289,-96.40158000
37.29248047,-98.56640000
37.32299805,-99.26731000
37.35351563,-100.37190000
37.38403320,-104.41290000
37.41455078,-107.63220000
37.44506836,-99.82540000
37.47558594,-95.31462000
37.50610352,-94.19707000
37.53662109,-94.98874000
37.56713867,-95.64555000
37.59765625,-98.80235000
37.62817383,-122.83760000
37.65869141,-97.10728000
37.68920898,-93.02624000
37.71972656,-93.03186000
37.75024414,-96.42114000
37.78076172,-103.12050000
37.81127930,-102.18200000
37.84179688,-102.15380000
37.87231445,-109.00550000
37.90283203,-104.74000000
37.93334961,-98.72018000
37.96386719,-97.79484000
37.99438477,-102.01480000
38.02490234,-105.24150000
38.05541992,-97.79094000
38.08593750,-95.52807000
38.11645508,-95.74136000
38.14697266,-97.26208000
38.17749023,-100.18110000
38.20800781,-103.69750000
38.23852539,-103.64190000
38.26904297,-104.70960000
38.29956055,-109.26870000
38.33007813,-113.83380000
38.36059570,-109.27920000
38.39111328,-99.96242000
38.42163086,-94.22993000
38.45214844,-92.32906000
38.48266602,-94.14987000
38.51318359,-100.76570000
38.54370117,-104.43550000
38.57421875,-99.10743000
38.60473633,-98.72369000
38.63525391,-102.33570000
38.66577148,-109.26180000
38.69628906,-100.20340000
38.72680664,-95.83331000
38.75732422,-94.76912000
38.78784180,-94.70222000
38.81835938,-92.64302000
38.84887695,-91.11542000
38.87939453,-92.29532000
38.90991211,-98.10027000
38.94042969,-106.68470000
38.97094727,-94.20682000
39.00146484,-89.79286000
39.03198242,-87.42563000
39.06250000,-86.66800000
39.09301758,-87.96063000
39.12353516,-92.24898000
39.15405273,-96.52108000
39.18457031,-91.45917000
39.21508789,-89.71516000
39.24560547,-91.28944000
39.27612305,-92.89641000
39.30664063,-88.82263000
39.33715820,-86.04910000
39.36767578,-85.86542000
39.39819336,-87.55103000
39.42871094,-90.53349000
39.45922852,-94.34456000
39.48974609,-98.41245000
39.52026367,-106.35100000
39.55078125,-100.69160000
39.58129883,-95.41672000
39.61181641,-93.01993000
39.64233398,-90.30907000
39.67285156,-88.15261000
39.70336914,-87.34186000
39.73388672,-88.05434000
39.76440430,-90.55328000
39.79492188,-96.05431000
39.82543945,-99.63184000
39.85595703,-92.42194000
39.88647461,-89.55260000
39.91699219,-89.38564000
39.94750977,-91.02390000
39.97802734,-93.83865000
40.00854492,-96.77608000
40.03906250,-97.43536000
40.06958008,-95.35412000
40.10009766,-92.54915000
40.13061523,-89.33443000
40.16113281,-85.95337000
40.19165039,-83.42773000
40.22216797,-82.58304000
40.25268555,-83.64410000
40.28320313,-86.37746000
40.31372070,-89.67541000
40.34423828,-91.66351000
40.37475586,-92.46507000
40.40527344,-93.50978000
40.43579102,-97.43050000
40.46630859,-110.48730000
40.49682617,-92.95288000
40.52734375,-88.31137000
40.55786133,-86.79564000
40.58837891,-86.14606000
40.61889648,-85.27416000
40.64941406,-84.58729000
40.67993164,-84.74502000
40.71044922,-86.39266000
40.74096680,-90.62381000
40.77148438,-101.83870000
40.80200195,-98.58707000
40.83251953,-90.11914000
40.86303711,-86.82480000
40.89355469,-87.23840000
40.92407227,-92.74606000
40.95458984,-105.40570000
40.98510742,-97.74293000
41.01562500,-94.67728000
41.04614258,-85.12870000
41.07666016,-80.78024000
41.10717773,-79.67905000
41.13769531,-80.71765000
41.16821289,-82.63777000
41.19873047,-84.35143000
41.22924805,-85.90638000
41.25976563,-87.40791000
41.29028320,-89.14000000
41.32080078,-90.24220000
41.35131836,-89.60483000
41.38183594,-88.04178000
41.41235352,-87.81594000
41.44287109,-90.24181000
41.47338867,-94.35039000
41.50390625,-92.08504000
41.53442383,-86.51115000
41.56494141,-83.96549000
41.59545898,-84.49731000
41.62597656,-87.69009000
41.65649414,-92.62122000
41.68701172,-96.09721000
41.71752930,-95.00230000
41.74804688,-93.03728000
41.77856445,-93.45478000
41.80908203,-98.20325000
41.83959961,-99.43010000
41.87011719,-92.35667000
41.90063477,-89.02640000
41.93115234,-86.78802000
41.96166992,-84.94350000
41.99218750,-84.41632000
42.02270508,-85.64096000
42.05322266,-87.47697000
42.08374023,-87.47886000
42.11425781,-86.39100000
42.14477539,-86.21136000
42.17529297,-86.73264000
42.20581055,-87.83105000
42.23632813,-90.36908000
42.26684570,-94.43150000
42.29736328,-95.71849000
42.32788086,-95.02601000
42.35839844,-97.76216000
42.38891602,-95.61649000
42.41943359,-89.91339000
42.44995117,-86.96281000
42.48046875,-85.70771000
42.51098633,-84.88383000
42.54150391,-84.02129000
42.57202148,-84.40388000
42.60253906,-87.16259000
42.63305664,-92.17470000
42.66357422,-96.43892000
42.69409180,-104.31680000
42.72460938,-100.40210000
42.75512695,-94.22777000
42.78564453,-98.88500000
42.81616211,-93.60313000
42.84667969,-87.12128000
42.87719727,-86.25068000
42.90771484,-89.36131000
42.93823242,-97.78454000
42.96875000,-97.08968000
42.99926758,-90.66699000
43.02978516,-88.79749000
43.06030273,-90.37415000
43.09082031,-94.45680000
43.12133789,-96.67223000
43.15185547,-91.78799000
43.18237305,-87.08084000
43.21289063,-86.25488000
43.24340820,-89.61339000
43.27392578,-99.53498000
43.30444336,-91.50549000
43.33496094,-86.36016000
43.36547852,-85.09315000
43.39599609,-86.76083000
43.42651367,-87.95317000
43.45703125,-84.99054000
43.48754883,-82.23598000
43.51806641,-80.87842000
43.54858398,-81.59636000
43.57910156,-85.11559000
43.60961914,-93.76949000
43.64013672,-96.99614000
43.67065430,-88.49232000
43.70117188,-85.95611000
43.73168945,-85.86175000
43.76220703,-87.21472000
43.79272461,-90.18818000
43.82324219,-90.10818000
43.85375977,-85.99208000
43.88427734,-85.22058000
43.91479492,-88.26286000
43.94531250,-96.71307000
43.97583008,-100.40640000
44.00634766,-93.11827000
44.03686523,-91.66560000
44.06738281,-94.54823000
44.09790039,-103.10840000
44.12841797,-112.30050000
44.15893555,-101.56220000
44.18945313,-95.39265000
44.21997070,-94.89276000
44.25048828,-100.23430000
44.28100586,-98.78664000
44.31152344,-91.70234000
44.34204102,-89.10242000
44.37255859,-89.36120000
44.40307617,-92.54330000
44.43359375,-97.45032000
44.46411133,-99.28543000
44.49462891,-99.37908000
44.52514648,-93.63891000
44.55566406,-91.02616000
44.58618164,-91.33406000
44.61669922,-94.87013000
44.64721680,-103.80420000
44.67773438,-91.55684000
44.70825195,-87.47407000
44.73876953,-87.48480000
44.76928711,-89.08002000
44.79980469,-88.76759000
44.83032227,-87.06602000
44.86083984,-86.44596000
44.89135742,-88.03670000
44.92187500,-92.98468000
44.95239258,-105.03300000
44.98291016,-95.97701000
45.01342773,-91.63514000
45.04394531,-90.01802000
45.07446289,-90.04333000
45.10498047,-91.48611000
45.13549805,-93.37830000
45.16601563,-94.02831000
45.19653320,-93.20100000
45.22705078,-92.29373000
45.25756836,-91.95588000
45.28808594,-91.81750000
45.31860352,-91.37404000
45.34912109,-91.18512000
45.37963867,-92.39960000
45.41015625,-94.56635000
45.44067383,-95.11452000
45.47119141,-95.96725000
45.50170898,-100.06060000
45.53222656,-117.80490000
45.56274414,-101.69400000
45.59326172,-95.96627000
45.62377930,-92.09529000
45.65429688,-88.52276000
45.68481445,-86.23065000
45.71533203,-86.14320000
45.74584961,-88.97324000
45.77636719,-96.76789000
45.80688477,-108.56360000
45.83740234,-97.31094000
45.86791992,-95.97106000
45.89843750,-97.72937000
45.92895508,-100.05270000
45.95947266,-95.01205000
45.98999023,-90.66895000
46.02050781,-88.51025000
46.05102539,-87.52745000
46.08154297,-87.07142000
46.11206055,-87.19473000
46.14257813,-88.23643000
46.17309570,-90.30013000
46.20361328,-93.24477000
46.23413086,-96.94307000
46.26464844,-105.05900000
46.29516602,-100.86720000
46.32568359,-91.54229000
46.35620117,-88.39928000
46.38671875,-89.01050000
46.41723633,-93.67393000
46.44775391,-103.16920000
46.47827148,-101.95460000
46.50878906,-103.12920000
46.53930664,-116.03860000
46.56982422,-104.19530000
46.60034180,-97.55234000
46.63085938,-94.86725000
46.66137695,-92.94434000
46.69189453,-91.35217000
46.72241211,-92.06299000
46.75292969,-97.61678000
46.78344727,-100.87210000
46.81396484,-97.58388000
46.84448242,-100.08500000
46.87500000,-102.22810000
46.90551758,-102.45780000
46.93603516,-103.85200000
46.96655273,-98.48442000
46.99707031,-91.36436000
47.02758789,-88.18356000
47.05810547,-88.44322000
47.08862305,-92.06145000
47.11914063,-98.72314000
47.14965820,-104.04590000
47.18017578,-101.82880000
47.21069336,-98.68721000
47.24121094,-97.65555000
47.27172852,-96.64813000
47.30224609,-92.92163000
47.33276367,-89.92946000
47.36328125,-88.97111000
47.39379883,-89.45358000
47.42431641,-91.09293000
47.45483398,-94.42855000
47.48535156,-99.85455000
47.51586914,-104.89760000
47.54638672,-102.96950000
47.57690430,-99.27039000
47.60742188,-98.35986000
47.63793945,-100.09860000
47.66845703,-100.98900000
47.69897461,-102.18530000
47.72949219,-102.85790000
47.76000977,-101.72390000
47.79052734,-103.52840000
47.82104492,-103.69420000
47.85156250,-100.33840000
47.88208008,-99.99377000
47.91259766,-101.12030000
47.94311523,-100.18000000
47.97363281,-100.91360000
48.00415039,-104.16970000
48.03466797,-106.25940000
48.06518555,-103.72140000
48.09570313,-100.55230000
48.12622070,-99.30126000
48.15673828,-101.78150000
48.18725586,-113.10240000
48.21777344,-100.87910000
48.24829102,-97.58995000
48.27880859,-98.54828000
48.30932617,-97.10407000
48.33984375,-93.35475000
48.37036133,-91.55569000
48.40087891,-91.42146000
48.43139648,-92.41204000
48.46191406,-94.52219000
48.49243164,-96.84841000
48.52294922,-97.65149000
48.55346680,-98.81512000
48.58398438,-101.00450000
48.61450195,-100.20820000
48.64501953,-96.19226000
48.67553711,-94.63608000
48.70605469,-96.34366000
48.73657227,-101.81720000
48.76708984,-112.87870000
48.79760742,-121.03020000
48.82812500,-114.16700000
48.85864258,-118.69970000
48.88916016,-101.67180000
48.91967773,-97.12721000
48.95019531,-97.70776000
48.98071289,-97.08887000
49.01123047,-90.45999000
49.04174805,-87.21124000
49.07226563,-87.18769000
49.10278320,-89.94786000
49.13330078,-95.60483000
49.16381836,-102.06620000
49.19433594,-98.11817000
49.22485352,-95.72704000
49.25537109,-95.29306000
49.28588867,-93.51698000
49.31640625,-90.37324000
49.34692383,-88.25370000
49.37744141,-88.40985000
49.40795898,-91.48273000
49.43847656,-97.58734000
49.46899414,-98.26265000
49.49951172,-96.13091000
49.53002930,-97.09970000
49.56054688,-98.14171000
49.59106445,-96.93578000
49.62158203,-95.47302000
49.65209961,-91.77637000
49.68261719,-88.69310000
49.71313477,-88.28769000
49.74365234,-91.01389000
49.77416992,-96.45110000
49.80468750,-94.05407000
49.83520508,-90.38783000
49.86572266,-89.58466000
49.89624023,-91.23886000
49.92675781,-94.27788000
49.95727539,-93.47672000
49.98779297,-89.89994000
50.01831055,-87.84526000
