Frequency,Channel A
(MHz),(dBu)

0.00000000,-22.04261000
0.03051758,-22.47361000
0.06103516,-27.93421000
0.09155273,-38.76866000
0.12207031,-72.60091000
0.15258789,-59.93417000
0.18310547,-69.47669000
0.21362305,-74.94925000
0.24414063,-72.53898000
0.27465820,-69.33842000
0.30517578,-71.32162000
0.33569336,-68.78357000
0.36621094,-65.46027000
0.39672852,-65.20982000
0.42724609,-64.10890000
0.45776367,-62.25388000
0.48828125,-60.45644000
0.51879883,-59.08673000
0.54931641,-59.10317000
0.57983398,-60.70218000
0.61035156,-62.96206000
0.64086914,-64.96783000
0.67138672,-67.17615000
0.70190430,-69.98879000
0.73242188,-73.11431000
0.76293945,-78.11820000
0.79345703,-75.76088000
0.82397461,-78.22808000
0.85449219,-76.19240000
0.88500977,-66.98093000
0.91552734,-64.54848000
0.94604492,-65.87975000
0.97656250,-69.70193000
1.00708008,-66.17419000
1.03759766,-63.88446000
1.06811523,-65.60687000
1.09863281,-70.19425000
1.12915039,-75.01409000
1.15966797,-79.17824000
1.19018555,-88.76548000
1.22070313,-83.71983000
1.25122070,-79.22849000
1.28173828,-73.94304000
1.31225586,-71.23879000
1.34277344,-71.71011000
1.37329102,-75.39850000
1.40380859,-81.61820000
1.43432617,-78.36951000
1.46484375,-72.32343000
1.49536133,-69.95226000
1.52587891,-71.11498000
1.55639648,-70.67558000
1.58691406,-67.58112000
1.61743164,-67.36477000
1.64794922,-69.70246000
1.67846680,-73.35049000
1.70898438,-80.14348000
1.73950195,-82.87253000
1.77001953,-80.15027000
1.80053711,-84.41470000
1.83105469,-96.96636000
1.86157227,-93.55882000
1.89208984,-83.58903000
1.92260742,-78.29150000
1.95312500,-77.71552000
1.98364258,-78.38733000
2.01416016,-76.93898000
2.04467773,-74.62228000
2.07519531,-73.78236000
2.10571289,-75.37792000
2.13623047,-81.08200000
2.16674805,-90.71209000
2.19726563,-81.38558000
2.22778320,-85.64700000
2.25830078,-84.06206000
2.28881836,-79.22979000
2.31933594,-78.81442000
2.34985352,-79.99761000
2.38037109,-84.59308000
2.41088867,-85.95627000
2.44140625,-80.60497000
2.47192383,-77.53812000
2.50244141,-76.04323000
2.53295898,-78.05930000
2.56347656,-81.76614000
2.59399414,-79.21431000
2.62451172,-79.66753000
2.65502930,-85.38224000
2.68554688,-96.92253000
2.71606445,-89.46434000
2.74658203,-84.18110000
2.77709961,-85.66036000
2.80761719,-84.26117000
2.83813477,-87.03645000
2.86865234,-83.57491000
2.89916992,-75.54028000
2.92968750,-74.69993000
2.96020508,-75.20564000
2.99072266,-76.31625000
3.02124023,-77.23070000
3.05175781,-72.80349000
3.08227539,-71.80513000
3.11279297,-73.16267000
3.14331055,-74.39323000
3.17382813,-76.93771000
3.20434570,-87.42648000
3.23486328,-79.82757000
3.26538086,-77.23280000
3.29589844,-78.37901000
3.32641602,-81.02222000
3.35693359,-85.20383000
3.38745117,-81.22704000
3.41796875,-87.62279000
3.44848633,-78.01933000
3.47900391,-76.22941000
3.50952148,-85.36080000
3.54003906,-81.24835000
3.57055664,-77.61198000
3.60107422,-83.47462000
3.63159180,-82.88026000
3.66210938,-78.01645000
3.69262695,-80.93490000
3.72314453,-82.15697000
3.75366211,-81.77705000
3.78417969,-84.08842000
3.81469727,-85.94540000
3.84521484,-82.13589000
3.87573242,-79.13117000
3.90625000,-82.80923000
3.93676758,-75.15926000
3.96728516,-72.35506000
3.99780273,-76.42508000
4.02832031,-95.62242000
4.05883789,-80.51784000
4.08935547,-80.29076000
4.11987305,-77.03152000
4.15039063,-75.96053000
4.18090820,-80.13207000
4.21142578,-92.40920000
4.24194336,-92.86108000
4.27246094,-90.05101000
4.30297852,-83.78482000
4.33349609,-86.97540000
4.36401367,-91.99569000
4.39453125,-85.97681000
4.42504883,-81.14381000
4.45556641,-81.94172000
4.48608398,-86.64150000
4.51660156,-79.40943000
4.54711914,-79.26691000
4.57763672,-85.41463000
4.60815430,-94.87401000
4.63867188,-86.49170000
4.66918945,-83.34052000
4.69970703,-86.60697000
4.73022461,-87.58862000
4.76074219,-81.35197000
4.79125977,-78.51188000
4.82177734,-79.20829000
4.85229492,-84.96953000
4.88281250,-82.60129000
4.91333008,-83.87038000
4.94384766,-110.15210000
4.97436523,-90.95074000
5.00488281,-94.13129000
5.03540039,-82.10163000
5.06591797,-81.18667000
5.09643555,-79.19009000
5.12695313,-74.14172000
5.15747070,-73.65558000
5.18798828,-76.22765000
5.21850586,-78.71397000
5.24902344,-79.48895000
5.27954102,-81.94379000
5.31005859,-89.60429000
5.34057617,-81.61961000
5.37109375,-78.25304000
5.40161133,-80.23550000
5.43212891,-85.46960000
5.46264648,-83.54859000
5.49316406,-80.22302000
5.52368164,-79.98859000
5.55419922,-85.24949000
5.58471680,-82.20058000
5.61523438,-81.67385000
5.64575195,-84.25897000
5.67626953,-78.47701000
5.70678711,-79.88503000
5.73730469,-90.07844000
5.76782227,-79.69014000
5.79833984,-84.36848000
5.82885742,-84.37072000
5.85937500,-81.67455000
5.88989258,-81.32886000
5.92041016,-75.78581000
5.95092773,-78.18694000
5.98144531,-87.60201000
6.01196289,-79.79695000
6.04248047,-83.30532000
6.07299805,-81.09731000
6.10351563,-84.04970000
6.13403320,-91.55112000
6.16455078,-80.79373000
6.19506836,-76.93875000
6.22558594,-76.30876000
6.25610352,-82.59819000
6.28662109,-84.58044000
6.31713867,-78.10110000
6.34765625,-81.31207000
6.37817383,-89.34981000
6.40869141,-87.01275000
6.43920898,-84.79535000
6.46972656,-91.71597000
6.50024414,-92.83292000
6.53076172,-87.27553000
6.56127930,-87.46790000
6.59179688,-92.48656000
6.62231445,-102.65980000
6.65283203,-90.39221000
6.68334961,-86.43932000
6.71386719,-89.20992000
6.74438477,-102.24150000
6.77490234,-95.57553000
6.80541992,-95.20187000
6.83593750,-93.23680000
6.86645508,-83.47660000
6.89697266,-82.69668000
6.92749023,-89.54400000
6.95800781,-86.52149000
6.98852539,-78.71913000
7.01904297,-76.35089000
7.04956055,-76.09659000
7.08007813,-76.72041000
7.11059570,-78.71515000
7.14111328,-83.67381000
7.17163086,-95.24696000
7.20214844,-89.36720000
7.23266602,-90.78935000
7.26318359,-89.49115000
7.29370117,-80.62812000
7.32421875,-78.29301000
7.35473633,-79.83050000
7.38525391,-85.36095000
7.41577148,-95.34156000
7.44628906,-94.77993000
7.47680664,-86.00366000
7.50732422,-81.00700000
7.53784180,-79.58022000
7.56835938,-80.99656000
7.59887695,-84.36464000
7.62939453,-84.63677000
7.65991211,-80.95710000
7.69042969,-78.48858000
7.72094727,-77.99342000
7.75146484,-78.82241000
7.78198242,-79.84549000
7.81250000,-80.67125000
7.84301758,-81.92300000
7.87353516,-82.91148000
7.90405273,-81.09058000
7.93457031,-79.09715000
7.96508789,-79.07540000
7.99560547,-80.73642000
8.02612305,-82.86377000
8.05664063,-84.69330000
8.08715820,-88.24127000
8.11767578,-91.80383000
8.14819336,-83.65289000
8.17871094,-80.22308000
8.20922852,-79.76594000
8.23974609,-80.43082000
8.27026367,-80.97984000
8.30078125,-81.70094000
8.33129883,-83.54356000
8.36181641,-85.28300000
8.39233398,-83.82561000
8.42285156,-82.93533000
8.45336914,-84.39648000
8.48388672,-86.88096000
8.51440430,-87.80501000
8.54492188,-86.47148000
8.57543945,-83.78439000
8.60595703,-82.44567000
8.63647461,-83.66330000
8.66699219,-86.76141000
8.69750977,-90.12720000
8.72802734,-94.11429000
8.75854492,-91.12134000
8.78906250,-87.23327000
8.81958008,-85.49098000
8.85009766,-83.94391000
8.88061523,-82.41922000
8.91113281,-82.34377000
8.94165039,-85.25452000
8.97216797,-90.10268000
9.00268555,-87.10805000
9.03320313,-85.04805000
9.06372070,-86.06062000
9.09423828,-89.97595000
9.12475586,-92.30453000
9.15527344,-88.56500000
9.18579102,-86.43816000
9.21630859,-86.62025000
9.24682617,-88.35344000
9.27734375,-89.75912000
9.30786133,-89.04060000
9.33837891,-87.58220000
9.36889648,-85.80528000
9.39941406,-83.46702000
9.42993164,-81.58809000
9.46044922,-80.99644000
9.49096680,-81.49025000
9.52148438,-82.10297000
9.55200195,-82.27829000
9.58251953,-82.41988000
9.61303711,-82.86183000
9.64355469,-83.87215000
9.67407227,-86.47528000
9.70458984,-92.56346000
9.73510742,-103.79460000
9.76562500,-110.23240000
9.79614258,-107.36420000
9.82666016,-107.02790000
9.85717773,-95.92389000
9.88769531,-94.90646000
9.91821289,-93.17023000
9.94873047,-89.70331000
9.97924805,-91.00463000
10.00976563,-97.52334000
10.04028320,-92.20601000
10.07080078,-88.29182000
10.10131836,-86.67390000
10.13183594,-87.38406000
10.16235352,-91.52314000
10.19287109,-101.58560000
10.22338867,-92.37549000
10.25390625,-87.24754000
10.28442383,-84.30617000
10.31494141,-83.73586000
10.34545898,-86.53062000
10.37597656,-89.31756000
10.40649414,-86.48615000
10.43701172,-85.68222000
10.46752930,-84.23441000
10.49804688,-82.48871000
10.52856445,-82.60271000
10.55908203,-84.29603000
10.58959961,-84.81057000
10.62011719,-83.11225000
10.65063477,-82.50067000
10.68115234,-85.34192000
10.71166992,-89.76231000
10.74218750,-87.13022000
10.77270508,-87.93404000
10.80322266,-98.15570000
10.83374023,-93.89073000
10.86425781,-90.03883000
10.89477539,-99.17032000
10.92529297,-90.83716000
10.95581055,-84.45041000
10.98632813,-83.50693000
11.01684570,-84.70337000
11.04736328,-85.20775000
11.07788086,-84.12624000
11.10839844,-82.78774000
11.13891602,-82.39755000
11.16943359,-83.66734000
11.19995117,-86.68091000
11.23046875,-91.50780000
11.26098633,-87.56679000
11.29150391,-83.09086000
11.32202148,-82.66328000
11.35253906,-85.81412000
11.38305664,-88.82318000
11.41357422,-88.85742000
11.44409180,-91.17233000
11.47460938,-91.43119000
11.50512695,-85.61463000
11.53564453,-83.57509000
11.56616211,-82.94223000
11.59667969,-81.95770000
11.62719727,-80.89387000
11.65771484,-80.30994000
11.68823242,-81.71878000
11.71875000,-83.25016000
11.74926758,-81.17702000
11.77978516,-84.85318000
11.81030273,-88.42926000
11.84082031,-79.04080000
11.87133789,-78.01940000
11.90185547,-81.57075000
11.93237305,-91.33012000
11.96289063,-83.97449000
11.99340820,-79.09283000
12.02392578,-78.27216000
12.05444336,-80.33443000
12.08496094,-82.37885000
12.11547852,-80.69292000
12.14599609,-79.84842000
12.17651367,-81.16085000
12.20703125,-84.40167000
12.23754883,-91.53098000
12.26806641,-95.38154000
12.29858398,-86.66100000
12.32910156,-85.24163000
12.35961914,-86.15096000
12.39013672,-86.72516000
12.42065430,-87.09586000
12.45117188,-89.51387000
12.48168945,-91.65034000
12.51220703,-87.16839000
12.54272461,-83.87404000
12.57324219,-81.73434000
12.60375977,-79.83826000
12.63427734,-78.72592000
12.66479492,-78.29745000
12.69531250,-77.98277000
12.72583008,-78.33810000
12.75634766,-78.68517000
12.78686523,-78.21632000
12.81738281,-81.51859000
12.84790039,-103.84760000
12.87841797,-81.83514000
12.90893555,-81.94885000
12.93945313,-95.94627000
12.96997070,-82.92465000
13.00048828,-78.86791000
13.03100586,-78.46812000
13.06152344,-79.36322000
13.09204102,-81.36800000
13.12255859,-84.63116000
13.15307617,-82.34031000
13.18359375,-79.21295000
13.21411133,-79.02866000
13.24462891,-80.58101000
13.27514648,-83.79661000
13.30566406,-98.64145000
13.33618164,-84.70798000
13.36669922,-79.75418000
13.39721680,-78.56210000
13.42773438,-77.89629000
13.45825195,-77.87314000
13.48876953,-76.04022000
13.51928711,-70.67778000
13.54980469,-67.70439000
13.58032227,-68.27068000
13.61083984,-73.37912000
13.64135742,-82.76656000
13.67187500,-79.64793000
13.70239258,-79.61007000
13.73291016,-77.14687000
13.76342773,-78.59994000
13.79394531,-85.11539000
13.82446289,-79.96814000
13.85498047,-79.43526000
13.88549805,-83.45644000
13.91601563,-87.14082000
13.94653320,-101.57030000
13.97705078,-84.65717000
14.00756836,-79.30757000
14.03808594,-78.29378000
14.06860352,-78.99633000
14.09912109,-80.86445000
14.12963867,-84.93953000
14.16015625,-86.84547000
14.19067383,-83.18672000
14.22119141,-81.88911000
14.25170898,-82.79565000
14.28222656,-86.19691000
14.31274414,-97.45884000
14.34326172,-89.04639000
14.37377930,-84.52034000
14.40429688,-83.97606000
14.43481445,-83.73646000
14.46533203,-82.48898000
14.49584961,-82.21600000
14.52636719,-83.56230000
14.55688477,-85.79045000
14.58740234,-87.96737000
14.61791992,-85.05565000
14.64843750,-81.13998000
14.67895508,-80.12917000
14.70947266,-81.56032000
14.73999023,-84.18029000
14.77050781,-87.67355000
14.80102539,-86.97923000
14.83154297,-82.22697000
14.86206055,-80.98328000
14.89257813,-82.17807000
14.92309570,-83.84453000
14.95361328,-84.12009000
14.98413086,-83.56660000
15.01464844,-83.79295000
15.04516602,-83.81733000
15.07568359,-83.25755000
15.10620117,-84.13278000
15.13671875,-85.79042000
15.16723633,-87.06944000
15.19775391,-87.39922000
15.22827148,-86.46026000
15.25878906,-87.87845000
15.28930664,-95.60538000
15.31982422,-102.20920000
15.35034180,-97.48123000
15.38085938,-98.05891000
15.41137695,-94.30630000
15.44189453,-92.39795000
15.47241211,-89.67976000
15.50292969,-86.70741000
15.53344727,-85.10720000
15.56396484,-85.76623000
15.59448242,-88.97530000
15.62500000,-93.26936000
15.65551758,-94.69974000
15.68603516,-91.89004000
15.71655273,-89.29890000
15.74707031,-88.91502000
15.77758789,-90.08663000
15.80810547,-94.30637000
15.83862305,-98.05289000
15.86914063,-95.09944000
15.89965820,-106.81670000
15.93017578,-95.98705000
15.96069336,-92.34200000
15.99121094,-91.83891000
16.02172852,-89.66518000
16.05224609,-89.69150000
16.08276367,-93.07842000
16.11328125,-94.16785000
16.14379883,-90.87582000
16.17431641,-89.68839000
16.20483398,-89.68789000
16.23535156,-89.60397000
16.26586914,-89.49110000
16.29638672,-90.49620000
16.32690430,-93.06858000
16.35742188,-94.40476000
16.38793945,-94.07127000
16.41845703,-97.76895000
16.44897461,-116.30660000
16.47949219,-98.05630000
16.51000977,-96.49486000
16.54052734,-97.36404000
16.57104492,-97.41748000
16.60156250,-96.46148000
16.63208008,-96.77843000
16.66259766,-100.37730000
16.69311523,-98.82079000
16.72363281,-92.07546000
16.75415039,-89.87810000
16.78466797,-92.50343000
16.81518555,-100.29010000
16.84570313,-97.45337000
16.87622070,-91.85921000
16.90673828,-92.20058000
16.93725586,-100.66480000
16.96777344,-102.17180000
16.99829102,-94.62055000
17.02880859,-93.77499000
17.05932617,-97.84471000
17.08984375,-95.62523000
17.12036133,-90.10768000
17.15087891,-88.62097000
17.18139648,-89.45644000
17.21191406,-91.98139000
17.24243164,-96.45480000
17.27294922,-103.58120000
17.30346680,-109.99090000
17.33398438,-96.57265000
17.36450195,-94.31519000
17.39501953,-96.31377000
17.42553711,-97.75863000
17.45605469,-98.00589000
17.48657227,-99.80385000
17.51708984,-102.31380000
17.54760742,-100.68650000
17.57812500,-96.82705000
17.60864258,-95.05634000
17.63916016,-97.27574000
17.66967773,-101.54910000
17.70019531,-98.11087000
17.73071289,-99.27879000
17.76123047,-93.77354000
17.79174805,-86.80783000
17.82226563,-85.28329000
17.85278320,-88.23619000
17.88330078,-94.86409000
17.91381836,-96.81700000
17.94433594,-98.50764000
17.97485352,-103.03340000
18.00537109,-101.79310000
18.03588867,-97.30795000
18.06640625,-95.79118000
18.09692383,-97.31484000
18.12744141,-98.46737000
18.15795898,-96.26755000
18.18847656,-96.53228000
18.21899414,-99.74709000
18.24951172,-102.96240000
18.28002930,-101.72140000
18.31054688,-99.51672000
18.34106445,-99.21531000
18.37158203,-98.79345000
18.40209961,-99.58772000
18.43261719,-104.02490000
18.46313477,-105.63160000
18.49365234,-101.03420000
18.52416992,-98.65901000
18.55468750,-97.91666000
18.58520508,-97.50745000
18.61572266,-97.20181000
18.64624023,-96.55740000
18.67675781,-95.70174000
18.70727539,-97.30202000
18.73779297,-100.56290000
18.76831055,-99.54851000
18.79882813,-99.38838000
18.82934570,-97.04192000
18.85986328,-95.59322000
18.89038086,-97.71056000
18.92089844,-103.37710000
18.95141602,-98.23024000
18.98193359,-93.72893000
19.01245117,-92.47611000
19.04296875,-93.15509000
19.07348633,-94.84456000
19.10400391,-96.66146000
19.13452148,-97.39986000
19.16503906,-97.08534000
19.19555664,-96.94217000
19.22607422,-97.26684000
19.25659180,-97.74289000
19.28710938,-97.82118000
19.31762695,-97.21602000
19.34814453,-97.06757000
19.37866211,-99.16055000
19.40917969,-105.44430000
19.43969727,-114.29380000
19.47021484,-109.51320000
19.50073242,-105.11720000
19.53125000,-101.61510000
19.56176758,-99.48933000
19.59228516,-97.90373000
19.62280273,-96.70247000
19.65332031,-96.38138000
19.68383789,-97.69560000
19.71435547,-102.66270000
19.74487305,-122.46110000
19.77539063,-103.91810000
19.80590820,-102.30780000
19.83642578,-102.22710000
19.86694336,-101.70170000
19.89746094,-106.02000000
19.92797852,-115.51400000
19.95849609,-101.28360000
19.98901367,-97.70016000
20.01953125,-97.32710000
20.05004883,-98.76524000
20.08056641,-100.40300000
20.11108398,-104.35640000
20.14160156,-109.47870000
20.17211914,-95.72220000
20.20263672,-92.09845000
20.23315430,-93.13310000
20.26367188,-95.68362000
20.29418945,-91.96389000
20.32470703,-90.26863000
20.35522461,-90.70747000
20.38574219,-90.59989000
20.41625977,-91.28654000
20.44677734,-94.24925000
20.47729492,-98.61156000
20.50781250,-99.90979000
20.53833008,-99.81923000
20.56884766,-104.69460000
20.59936523,-109.63330000
20.62988281,-100.98530000
20.66040039,-101.12730000
20.69091797,-112.72960000
20.72143555,-107.93040000
20.75195313,-115.05890000
20.78247070,-99.84898000
20.81298828,-92.74883000
20.84350586,-90.94443000
20.87402344,-92.41214000
20.90454102,-96.17336000
20.93505859,-98.65081000
20.96557617,-96.18539000
20.99609375,-93.72717000
21.02661133,-93.13643000
21.05712891,-93.49719000
21.08764648,-92.79769000
21.11816406,-90.84286000
21.14868164,-89.91410000
21.17919922,-90.50606000
21.20971680,-91.89080000
21.24023438,-92.86992000
21.27075195,-92.53123000
21.30126953,-93.06965000
21.33178711,-94.68106000
21.36230469,-93.64371000
21.39282227,-90.95290000
21.42333984,-90.35942000
21.45385742,-93.03963000
21.48437500,-101.08440000
21.51489258,-114.01630000
21.54541016,-104.22100000
21.57592773,-99.28189000
21.60644531,-95.09317000
21.63696289,-95.56921000
21.66748047,-100.81120000
21.69799805,-98.28061000
21.72851563,-94.80602000
21.75903320,-94.60194000
21.78955078,-96.00203000
21.82006836,-97.55023000
21.85058594,-99.54655000
21.88110352,-103.68340000
21.91162109,-96.40260000
21.94213867,-90.90287000
21.97265625,-90.24342000
22.00317383,-94.13543000
22.03369141,-104.12010000
22.06420898,-105.98420000
22.09472656,-105.78920000
22.12524414,-102.31650000
22.15576172,-96.16048000
22.18627930,-95.69810000
22.21679688,-96.76517000
22.24731445,-97.61765000
22.27783203,-99.08807000
22.30834961,-98.61497000
22.33886719,-101.79790000
22.36938477,-102.20130000
22.39990234,-98.08443000
22.43041992,-100.04120000
22.46093750,-100.08670000
22.49145508,-91.15065000
22.52197266,-87.86068000
22.55249023,-87.57629000
22.58300781,-88.67470000
22.61352539,-90.42980000
22.64404297,-93.11823000
22.67456055,-95.85933000
22.70507813,-94.52935000
22.73559570,-92.26387000
22.76611328,-91.80518000
22.79663086,-93.06390000
22.82714844,-96.06350000
22.85766602,-103.13620000
22.88818359,-108.64560000
22.91870117,-97.80325000
22.94921875,-93.96590000
22.97973633,-91.64572000
23.01025391,-89.86591000
23.04077148,-88.63736000
23.07128906,-88.43715000
23.10180664,-90.15591000
23.13232422,-95.69637000
23.16284180,-106.30580000
23.19335938,-101.59720000
23.22387695,-102.01390000
23.25439453,-98.08194000
23.28491211,-98.86399000
23.31542969,-109.77930000
23.34594727,-105.85170000
23.37646484,-101.82120000
23.40698242,-102.50910000
23.43750000,-101.07000000
23.46801758,-101.04630000
23.49853516,-108.16190000
23.52905273,-111.54260000
23.55957031,-102.31810000
23.59008789,-96.29533000
23.62060547,-95.08461000
23.65112305,-97.11887000
23.68164063,-96.34557000
23.71215820,-95.63355000
23.74267578,-94.88422000
23.77319336,-91.79582000
23.80371094,-88.93578000
23.83422852,-87.62805000
23.86474609,-88.30492000
23.89526367,-90.83419000
23.92578125,-92.95932000
23.95629883,-92.02023000
23.98681641,-91.18053000
24.01733398,-91.81591000
24.04785156,-94.17134000
24.07836914,-99.63385000
24.10888672,-98.55826000
24.13940430,-91.45586000
24.16992188,-88.66619000
24.20043945,-88.67314000
24.23095703,-90.40849000
24.26147461,-92.23611000
24.29199219,-92.62383000
24.32250977,-92.12815000
24.35302734,-91.71505000
24.38354492,-91.30620000
24.41406250,-90.93291000
24.44458008,-90.38529000
24.47509766,-89.18034000
24.50561523,-88.86512000
24.53613281,-91.28661000
24.56665039,-96.67073000
24.59716797,-99.08308000
24.62768555,-96.96281000
24.65820313,-94.82613000
24.68872070,-97.27084000
24.71923828,-101.43900000
24.74975586,-95.36320000
24.78027344,-92.28670000
24.81079102,-90.36641000
24.84130859,-89.26331000
24.87182617,-89.84071000
24.90234375,-92.52518000
24.93286133,-96.33585000
24.96337891,-95.47810000
24.99389648,-93.01586000
25.02441406,-93.10577000
25.05493164,-95.08282000
25.08544922,-94.43562000
25.11596680,-91.22153000
25.14648438,-88.44202000
25.17700195,-86.81406000
25.20751953,-86.77448000
25.23803711,-88.27755000
25.26855469,-90.66573000
25.29907227,-93.33365000
25.32958984,-97.39290000
25.36010742,-105.88690000
25.39062500,-104.77700000
25.42114258,-93.33951000
25.45166016,-88.02097000
25.48217773,-85.62141000
25.51269531,-85.03639000
25.54321289,-86.65748000
25.57373047,-92.51079000
25.60424805,-121.83500000
25.63476563,-100.92600000
25.66528320,-102.41850000
25.69580078,-104.55030000
25.72631836,-99.83876000
25.75683594,-97.27784000
25.78735352,-100.33050000
25.81787109,-108.63510000
25.84838867,-99.71545000
25.87890625,-96.08811000
25.90942383,-95.90196000
25.93994141,-98.01816000
25.97045898,-99.47236000
26.00097656,-99.15599000
26.03149414,-97.40684000
26.06201172,-94.64245000
26.09252930,-92.70461000
26.12304688,-91.90605000
26.15356445,-91.62593000
26.18408203,-92.95905000
26.21459961,-97.93288000
26.24511719,-102.64040000
26.27563477,-96.98244000
26.30615234,-95.35366000
26.33666992,-97.12539000
26.36718750,-102.36500000
26.39770508,-107.85070000
26.42822266,-100.89840000
26.45874023,-98.59074000
26.48925781,-99.24280000
26.51977539,-98.45528000
26.55029297,-96.90338000
26.58081055,-95.70718000
26.61132813,-93.98073000
26.64184570,-93.03479000
26.67236328,-94.53696000
26.70288086,-98.37965000
26.73339844,-96.13315000
26.76391602,-92.63168000
26.79443359,-91.18726000
26.82495117,-90.89718000
26.85546875,-91.28557000
26.88598633,-92.42134000
26.91650391,-94.12729000
26.94702148,-95.45264000
26.97753906,-95.24478000
27.00805664,-93.76994000
27.03857422,-93.48341000
27.06909180,-94.17241000
27.09960938,-95.30746000
27.13012695,-96.69221000
27.16064453,-97.39814000
27.19116211,-97.58925000
27.22167969,-98.14874000
27.25219727,-98.81821000
27.28271484,-100.30120000
27.31323242,-103.10900000
27.34375000,-99.49359000
27.37426758,-97.25076000
27.40478516,-97.74489000
27.43530273,-98.64197000
27.46582031,-97.49157000
27.49633789,-96.00478000
27.52685547,-95.84956000
27.55737305,-96.43262000
27.58789063,-97.51526000
27.61840820,-99.66167000
27.64892578,-102.23860000
27.67944336,-102.66490000
27.70996094,-102.53850000
27.74047852,-106.63150000
27.77099609,-97.98854000
27.80151367,-91.29214000
27.83203125,-88.28038000
27.86254883,-87.70440000
27.89306641,-88.95988000
27.92358398,-90.97089000
27.95410156,-91.88263000
27.98461914,-91.09768000
28.01513672,-90.57407000
28.04565430,-91.71928000
28.07617188,-95.38405000
28.10668945,-101.71160000
28.13720703,-98.21373000
28.16772461,-98.10040000
28.19824219,-107.65800000
28.22875977,-99.99203000
28.25927734,-95.70164000
28.28979492,-95.66235000
28.32031250,-98.76140000
28.35083008,-101.47810000
28.38134766,-96.87141000
28.41186523,-95.76131000
28.44238281,-96.90696000
28.47290039,-96.86890000
28.50341797,-95.38206000
28.53393555,-93.27011000
28.56445313,-91.81760000
28.59497070,-91.19220000
28.62548828,-90.93094000
28.65600586,-90.76158000
28.68652344,-90.73891000
28.71704102,-90.65508000
28.74755859,-89.85096000
28.77807617,-88.91225000
28.80859375,-89.62866000
28.83911133,-93.55859000
28.86962891,-99.89044000
28.90014648,-97.60551000
28.93066406,-95.40825000
28.96118164,-93.74995000
28.99169922,-92.71184000
29.02221680,-92.16747000
29.05273438,-91.75771000
29.08325195,-92.32027000
29.11376953,-95.31187000
29.14428711,-100.30620000
29.17480469,-99.13094000
29.20532227,-99.13081000
29.23583984,-103.54930000
29.26635742,-99.57520000
29.29687500,-95.17133000
29.32739258,-93.08417000
29.35791016,-92.08825000
29.38842773,-91.58273000
29.41894531,-90.03331000
29.44946289,-88.71768000
29.47998047,-89.70375000
29.51049805,-94.34341000
29.54101563,-107.17840000
29.57153320,-102.71820000
29.60205078,-97.59993000
29.63256836,-95.05569000
29.66308594,-93.78030000
29.69360352,-94.25107000
29.72412109,-96.38268000
29.75463867,-96.77143000
29.78515625,-93.21583000
29.81567383,-90.23204000
29.84619141,-90.12067000
29.87670898,-93.49171000
29.90722656,-99.60051000
29.93774414,-101.88010000
29.96826172,-98.17850000
29.99877930,-95.67712000
30.02929688,-94.49014000
30.05981445,-92.71791000
30.09033203,-92.31967000
30.12084961,-95.72873000
30.15136719,-107.59010000
30.18188477,-109.70190000
30.21240234,-104.19070000
30.24291992,-97.39948000
30.27343750,-93.92236000
30.30395508,-92.18706000
30.33447266,-91.37938000
30.36499023,-92.48340000
30.39550781,-98.79195000
30.42602539,-103.85010000
30.45654297,-94.29910000
30.48706055,-93.48766000
30.51757813,-96.35410000
30.54809570,-99.54086000
30.57861328,-99.73463000
30.60913086,-100.02030000
30.63964844,-105.06920000
30.67016602,-110.94570000
30.70068359,-98.90005000
30.73120117,-95.36922000
30.76171875,-94.73981000
30.79223633,-96.11578000
30.82275391,-97.44050000
30.85327148,-98.50209000
30.88378906,-102.84930000
30.91430664,-102.75840000
30.94482422,-98.39171000
30.97534180,-96.88596000
31.00585938,-95.66190000
31.03637695,-94.00898000
31.06689453,-92.45726000
31.09741211,-91.76787000
31.12792969,-93.32818000
31.15844727,-98.44109000
31.18896484,-104.01240000
31.21948242,-103.45370000
31.25000000,-106.42650000
31.28051758,-108.99030000
31.31103516,-96.28072000
31.34155273,-91.84731000
31.37207031,-91.76585000
31.40258789,-95.50751000
31.43310547,-103.94960000
31.46362305,-112.89590000
31.49414063,-109.99120000
31.52465820,-102.83590000
31.55517578,-97.27289000
31.58569336,-95.55325000
31.61621094,-96.83324000
31.64672852,-100.43490000
31.67724609,-102.43510000
31.70776367,-99.11607000
31.73828125,-94.06731000
31.76879883,-91.59753000
31.79931641,-91.92875000
31.82983398,-92.89615000
31.86035156,-92.95720000
31.89086914,-93.77605000
31.92138672,-96.62886000
31.95190430,-94.90384000
31.98242188,-91.88126000
32.01293945,-91.45301000
32.04345703,-93.03931000
32.07397461,-96.56700000
32.10449219,-100.65790000
32.13500977,-98.92268000
32.16552734,-95.85697000
32.19604492,-94.76115000
32.22656250,-95.91164000
32.25708008,-99.17492000
32.28759766,-102.77910000
32.31811523,-102.11160000
32.34863281,-96.91970000
32.37915039,-93.83444000
32.40966797,-93.05340000
32.44018555,-92.50873000
32.47070313,-92.30101000
32.50122070,-92.71564000
32.53173828,-92.52576000
32.56225586,-92.11160000
32.59277344,-92.72697000
32.62329102,-94.55032000
32.65380859,-94.11903000
32.68432617,-91.56529000
32.71484375,-90.68680000
32.74536133,-91.32536000
32.77587891,-93.44792000
32.80639648,-100.55010000
32.83691406,-102.48030000
32.86743164,-98.06691000
32.89794922,-100.88080000
32.92846680,-101.95840000
32.95898438,-95.43552000
32.98950195,-92.70622000
33.02001953,-93.53164000
33.05053711,-94.53742000
33.08105469,-94.84791000
33.11157227,-97.59827000
33.14208984,-103.11220000
33.17260742,-103.74140000
33.20312500,-100.65670000
33.23364258,-100.60110000
33.26416016,-102.28910000
33.29467773,-101.15500000
33.32519531,-100.98000000
33.35571289,-99.32256000
33.38623047,-97.28692000
33.41674805,-100.80620000
33.44726563,-104.13590000
33.47778320,-98.71179000
33.50830078,-98.30305000
33.53881836,-99.86673000
33.56933594,-104.35610000
33.59985352,-110.27470000
33.63037109,-101.38250000
33.66088867,-103.55840000
33.69140625,-110.80780000
33.72192383,-100.68280000
33.75244141,-100.79600000
33.78295898,-108.03750000
33.81347656,-107.24580000
33.84399414,-98.31516000
33.87451172,-94.61281000
33.90502930,-94.42320000
33.93554688,-95.91528000
33.96606445,-97.34398000
33.99658203,-98.80257000
34.02709961,-105.81550000
34.05761719,-106.31060000
34.08813477,-100.48270000
34.11865234,-101.52220000
34.14916992,-103.39720000
34.17968750,-101.67970000
34.21020508,-97.46902000
34.24072266,-96.43288000
34.27124023,-99.61190000
34.30175781,-109.60320000
34.33227539,-108.15740000
34.36279297,-97.38022000
34.39331055,-92.44153000
34.42382813,-90.88991000
34.45434570,-91.74419000
34.48486328,-93.82631000
34.51538086,-96.16515000
34.54589844,-98.58451000
34.57641602,-99.42648000
34.60693359,-98.81860000
34.63745117,-101.20890000
34.66796875,-103.23340000
34.69848633,-99.81256000
34.72900391,-99.05379000
34.75952148,-99.21360000
34.79003906,-96.30270000
34.82055664,-93.94858000
34.85107422,-94.53355000
34.88159180,-97.48176000
34.91210938,-99.06232000
34.94262695,-98.85589000
34.97314453,-98.72674000
35.00366211,-99.33055000
35.03417969,-100.06500000
35.06469727,-105.44250000
35.09521484,-109.61160000
35.12573242,-102.85520000
35.15625000,-99.46107000
35.18676758,-99.73326000
35.21728516,-106.94360000
35.24780273,-102.38870000
35.27832031,-96.54876000
35.30883789,-94.31271000
35.33935547,-94.87754000
35.36987305,-100.75950000
35.40039063,-100.76330000
35.43090820,-94.60278000
35.46142578,-95.38047000
35.49194336,-100.41190000
35.52246094,-101.92490000
35.55297852,-103.05690000
35.58349609,-105.73480000
35.61401367,-109.37430000
35.64453125,-103.16930000
35.67504883,-100.77290000
35.70556641,-108.35900000
35.73608398,-101.64200000
35.76660156,-96.43018000
35.79711914,-95.66929000
35.82763672,-97.88181000
35.85815430,-105.05820000
35.88867188,-108.91550000
35.91918945,-100.23450000
35.94970703,-101.38760000
35.98022461,-111.59340000
36.01074219,-117.72520000
36.04125977,-115.42380000
36.07177734,-117.18810000
36.10229492,-129.04070000
36.13281250,-109.94570000
36.16333008,-105.33520000
36.19384766,-105.87120000
36.22436523,-108.79240000
36.25488281,-101.66370000
36.28540039,-95.91999000
36.31591797,-94.88189000
36.34643555,-96.97734000
36.37695313,-102.49760000
36.40747070,-115.42320000
36.43798828,-99.22344000
36.46850586,-97.35651000
36.49902344,-101.39350000
36.52954102,-108.06340000
36.56005859,-103.70670000
36.59057617,-96.22270000
36.62109375,-93.03941000
36.65161133,-92.46841000
36.68212891,-94.18454000
36.71264648,-99.15314000
36.74316406,-103.31720000
36.77368164,-100.43760000
36.80419922,-101.44360000
36.83471680,-106.26110000
36.86523438,-107.37350000
36.89575195,-102.52960000
36.92626953,-100.57220000
36.95678711,-101.19710000
36.98730469,-103.19860000
37.01782227,-101.94680000
37.04833984,-100.09670000
37.07885742,-100.51110000
37.10937500,-98.86566000
37.13989258,-97.27348000
37.17041016,-99.26159000
37.20092773,-100.64250000
37.23144531,-97.25791000
37.26196289,-96.84322000
37.29248047,-99.29996000
37.32299805,-103.60540000
37.35351563,-109.80510000
37.38403320,-106.38920000
37.41455078,-104.20890000
37.44506836,-111.23600000
37.47558594,-113.16960000
37.50610352,-113.41640000
37.53662109,-111.54570000
37.56713867,-103.53660000
37.59765625,-103.45880000
37.62817383,-104.17350000
37.65869141,-101.81370000
37.68920898,-100.66800000
37.71972656,-101.42050000
37.75024414,-99.17859000
37.78076172,-95.83836000
37.81127930,-94.85130000
37.84179688,-95.59394000
37.87231445,-96.77784000
37.90283203,-97.70891000
37.93334961,-100.84030000
37.96386719,-108.41870000
37.99438477,-98.89616000
38.02490234,-94.42295000
38.05541992,-92.91031000
38.08593750,-93.31062000
38.11645508,-96.42242000
38.14697266,-105.25640000
38.17749023,-99.44645000
38.20800781,-97.57776000
38.23852539,-106.37110000
38.26904297,-100.49070000
38.29956055,-93.80714000
38.33007813,-93.03516000
38.36059570,-95.30817000
38.39111328,-98.69617000
38.42163086,-100.89530000
38.45214844,-102.65080000
38.48266602,-104.22430000
38.51318359,-102.37910000
38.54370117,-98.09620000
38.57421875,-94.27936000
38.60473633,-93.43919000
38.63525391,-94.94096000
38.66577148,-97.31239000
38.69628906,-101.06080000
38.72680664,-104.28350000
38.75732422,-100.43950000
38.78784180,-97.60723000
38.81835938,-94.59389000
38.84887695,-92.31960000
38.87939453,-92.21107000
38.90991211,-94.21752000
38.94042969,-97.80997000
38.97094727,-101.93690000
39.00146484,-99.53003000
39.03198242,-96.60890000
39.06250000,-97.25037000
39.09301758,-105.79170000
39.12353516,-100.55410000
39.15405273,-93.46978000
39.18457031,-92.61044000
39.21508789,-95.98304000
39.24560547,-100.68820000
39.27612305,-96.42134000
39.30664063,-94.94612000
39.33715820,-97.71335000
39.36767578,-104.87170000
39.39819336,-103.12320000
39.42871094,-97.52090000
39.45922852,-95.83173000
39.48974609,-97.85217000
39.52026367,-97.87076000
39.55078125,-95.80006000
39.58129883,-94.14622000
39.61181641,-90.43682000
39.64233398,-88.07594000
39.67285156,-88.43886000
39.70336914,-92.52946000
39.73388672,-101.96270000
39.76440430,-92.99483000
39.79492188,-89.44862000
39.82543945,-87.94370000
39.85595703,-86.24412000
39.88647461,-85.39833000
39.91699219,-86.24635000
39.94750977,-88.24024000
39.97802734,-90.17526000
40.00854492,-91.77229000
40.03906250,-94.65163000
40.06958008,-103.68410000
40.10009766,-101.95300000
40.13061523,-92.32856000
40.16113281,-87.75464000
40.19165039,-85.85657000
40.22216797,-86.09776000
40.25268555,-87.61750000
40.28320313,-88.91336000
40.31372070,-89.10585000
40.34423828,-89.06834000
40.37475586,-90.34295000
40.40527344,-93.60678000
40.43579102,-96.83220000
40.46630859,-98.24650000
40.49682617,-97.46809000
40.52734375,-96.31961000
40.55786133,-97.98495000
40.58837891,-99.59158000
40.61889648,-97.44435000
40.64941406,-94.11872000
40.67993164,-92.58727000
40.71044922,-93.45504000
40.74096680,-97.68544000
40.77148438,-105.60600000
40.80200195,-94.13204000
40.83251953,-88.85804000
40.86303711,-85.52151000
40.89355469,-83.26283000
40.92407227,-82.29531000
40.95458984,-82.68826000
40.98510742,-84.01563000
41.01562500,-86.13097000
41.04614258,-90.01143000
41.07666016,-94.52404000
41.10717773,-92.07626000
41.13769531,-89.98467000
41.16821289,-87.76391000
41.19873047,-85.08419000
41.22924805,-84.55234000
41.25976563,-86.96417000
41.29028320,-92.15790000
41.32080078,-95.54143000
41.35131836,-90.70399000
41.38183594,-87.52652000
41.41235352,-87.21385000
41.44287109,-88.36920000
41.47338867,-88.83322000
41.50390625,-87.45202000
41.53442383,-85.98054000
41.56494141,-86.21100000
41.59545898,-88.09428000
41.62597656,-88.91878000
41.65649414,-87.82420000
41.68701172,-87.81755000
41.71752930,-89.17311000
41.74804688,-90.59830000
41.77856445,-91.38801000
41.80908203,-91.48785000
41.83959961,-92.43272000
41.87011719,-98.15637000
41.90063477,-88.72578000
41.93115234,-83.28536000
41.96166992,-81.97997000
41.99218750,-83.39298000
42.02270508,-86.58360000
42.05322266,-90.39668000
42.08374023,-95.00550000
42.11425781,-108.13420000
42.14477539,-99.50138000
42.17529297,-95.77803000
42.20581055,-98.89062000
42.23632813,-106.88920000
42.26684570,-95.33608000
42.29736328,-87.42316000
42.32788086,-85.37491000
42.35839844,-88.46413000
42.38891602,-101.98360000
42.41943359,-95.63920000
42.44995117,-93.09911000
42.48046875,-92.22500000
42.51098633,-90.60789000
42.54150391,-91.68006000
42.57202148,-96.77696000
42.60253906,-102.76780000
42.63305664,-98.69134000
42.66357422,-93.75780000
42.69409180,-92.99191000
42.72460938,-95.64468000
42.75512695,-99.74673000
42.78564453,-97.05372000
42.81616211,-88.39882000
42.84667969,-85.44977000
42.87719727,-87.61542000
42.90771484,-102.99240000
42.93823242,-91.02704000
42.96875000,-87.46246000
42.99926758,-89.00916000
43.02978516,-92.85874000
43.06030273,-96.71608000
43.09082031,-101.90220000
43.12133789,-97.14801000
43.15185547,-89.54228000
43.18237305,-86.65864000
43.21289063,-88.37818000
43.24340820,-96.56655000
43.27392578,-99.71953000
43.30444336,-102.02160000
43.33496094,-100.83810000
43.36547852,-95.36812000
43.39599609,-92.66651000
43.42651367,-89.57714000
43.45703125,-88.26044000
43.48754883,-85.48259000
43.51806641,-82.99567000
43.54858398,-83.66100000
43.57910156,-88.09845000
43.60961914,-96.07504000
43.64013672,-96.91103000
43.67065430,-91.38193000
43.70117188,-88.33163000
43.73168945,-87.71958000
43.76220703,-88.40260000
43.79272461,-88.47695000
43.82324219,-87.05037000
43.85375977,-86.10329000
43.88427734,-87.30017000
43.91479492,-91.46819000
43.94531250,-100.20640000
43.97583008,-98.40379000
44.00634766,-93.31512000
44.03686523,-92.68372000
44.06738281,-94.83183000
44.09790039,-98.53817000
44.12841797,-98.75232000
44.15893555,-93.17191000
44.18945313,-90.58556000
44.21997070,-92.00148000
44.25048828,-96.67416000
44.28100586,-97.89282000
44.31152344,-96.01141000
44.34204102,-95.39877000
44.37255859,-97.05365000
44.40307617,-101.31350000
44.43359375,-104.59530000
44.46411133,-97.76408000
44.49462891,-92.41273000
44.52514648,-90.50711000
44.55566406,-91.82980000
44.58618164,-94.98344000
44.61669922,-94.87410000
44.64721680,-92.37656000
44.67773438,-90.47186000
44.70825195,-90.53821000
44.73876953,-93.22135000
44.76928711,-97.36925000
44.79980469,-96.04788000
44.83032227,-93.10606000
44.86083984,-91.74162000
44.89135742,-90.88942000
44.92187500,-89.98650000
44.95239258,-90.14676000
44.98291016,-90.80000000
45.01342773,-89.28550000
45.04394531,-88.53078000
45.07446289,-90.91420000
45.10498047,-96.12782000
45.13549805,-93.07555000
45.16601563,-89.32448000
45.19653320,-89.27308000
45.22705078,-94.47745000
45.25756836,-108.51930000
45.28808594,-93.83282000
45.31860352,-91.03829000
45.34912109,-90.27145000
45.37963867,-91.35028000
45.41015625,-94.42542000
45.44067383,-99.14432000
45.47119141,-107.89220000
45.50170898,-100.81880000
45.53222656,-95.08678000
45.56274414,-92.84758000
45.59326172,-92.43587000
45.62377930,-92.76146000
45.65429688,-93.04902000
45.68481445,-94.06448000
45.71533203,-97.42490000
45.74584961,-107.05180000
45.77636719,-104.92970000
45.80688477,-100.69360000
45.83740234,-97.77737000
45.86791992,-94.45697000
45.89843750,-92.68914000
45.92895508,-92.02737000
45.95947266,-90.84695000
45.98999023,-88.94153000
46.02050781,-88.05762000
46.05102539,-89.24179000
46.08154297,-92.72973000
46.11206055,-97.38819000
46.14257813,-98.36293000
46.17309570,-97.44118000
46.20361328,-98.29907000
46.23413086,-99.63237000
46.26464844,-100.85090000
46.29516602,-111.03510000
46.32568359,-100.13630000
46.35620117,-92.48353000
46.38671875,-89.74448000
46.41723633,-89.99673000
46.44775391,-93.32081000
46.47827148,-100.54720000
46.50878906,-100.88360000
46.53930664,-96.73566000
46.56982422,-95.25948000
46.60034180,-95.52410000
46.63085938,-95.78949000
46.66137695,-93.56654000
46.69189453,-91.86462000
46.72241211,-92.24265000
46.75292969,-93.89404000
46.78344727,-94.63716000
46.81396484,-93.64125000
46.84448242,-92.79570000
46.87500000,-93.24330000
46.90551758,-95.23016000
46.93603516,-99.06149000
46.96655273,-100.00620000
46.99707031,-97.06488000
47.02758789,-97.06977000
47.05810547,-98.56792000
47.08862305,-101.44590000
47.11914063,-104.84920000
47.14965820,-101.57100000
47.18017578,-98.99744000
47.21069336,-96.77476000
47.24121094,-94.57576000
47.27172852,-93.55553000
47.30224609,-94.73835000
47.33276367,-98.62260000
47.36328125,-104.78590000
47.39379883,-108.44090000
47.42431641,-102.15850000
47.45483398,-95.71308000
47.48535156,-92.56013000
47.51586914,-91.60463000
47.54638672,-91.33752000
47.57690430,-91.09702000
47.60742188,-92.37479000
47.63793945,-97.09154000
47.66845703,-105.57040000
47.69897461,-102.30040000
47.72949219,-100.57550000
47.76000977,-98.79330000
47.79052734,-97.70480000
47.82104492,-99.09598000
47.85156250,-102.51940000
47.88208008,-103.59350000
47.91259766,-99.35606000
47.94311523,-98.62961000
47.97363281,-101.16540000
48.00415039,-97.00708000
48.03466797,-94.33763000
48.06518555,-94.04094000
48.09570313,-93.89580000
48.12622070,-94.88674000
48.15673828,-99.56137000
48.18725586,-106.77080000
48.21777344,-99.17633000
48.24829102,-96.03473000
48.27880859,-92.96622000
48.30932617,-89.37259000
48.33984375,-87.61338000
48.37036133,-88.69624000
48.40087891,-93.77020000
48.43139648,-104.14890000
48.46191406,-100.60420000
48.49243164,-104.56520000
48.52294922,-109.31370000
48.55346680,-99.12665000
48.58398438,-94.98676000
48.61450195,-91.58224000
48.64501953,-88.95030000
48.67553711,-87.47255000
48.70605469,-87.57127000
48.73657227,-89.43100000
48.76708984,-92.67880000
48.79760742,-95.10452000
48.82812500,-95.05409000
48.85864258,-96.12071000
48.88916016,-98.16116000
48.91967773,-96.38345000
48.95019531,-94.35867000
48.98071289,-93.52950000
49.01123047,-92.81982000
49.04174805,-92.19733000
49.07226563,-91.58952000
49.10278320,-90.37345000
49.13330078,-88.83177000
49.16381836,-88.01651000
49.19433594,-88.69020000
49.22485352,-91.02722000
49.25537109,-93.40109000
49.28588867,-91.51276000
49.31640625,-87.70241000
49.34692383,-85.56049000
49.37744141,-86.04414000
49.40795898,-89.29553000
49.43847656,-94.31694000
49.46899414,-97.84611000
49.49951172,-99.83794000
49.53002930,-100.80280000
49.56054688,-99.22945000
49.59106445,-94.87221000
49.62158203,-89.83672000
49.65209961,-86.53035000
49.68261719,-85.87141000
49.71313477,-88.28137000
49.74365234,-94.06670000
49.77416992,-102.02490000
49.80468750,-120.89760000
49.83520508,-102.80460000
49.86572266,-99.20052000
49.89624023,-102.71290000
49.92675781,-101.88610000
49.95727539,-94.86668000
49.98779297,-92.45415000
50.01831055,-92.55055000
