Frequency,Channel A
(MHz),(dBu)

0.00000000,-22.44566000
0.03051758,-22.74544000
0.06103516,-27.68946000
0.09155273,-36.82106000
0.12207031,-51.09448000
0.15258789,-55.86253000
0.18310547,-58.50041000
0.21362305,-59.32885000
0.24414063,-59.57626000
0.27465820,-59.51648000
0.30517578,-60.55706000
0.33569336,-59.49173000
0.36621094,-59.94876000
0.39672852,-64.96338000
0.42724609,-63.36934000
0.45776367,-59.55432000
0.48828125,-61.78562000
0.51879883,-84.97047000
0.54931641,-59.94430000
0.57983398,-55.01686000
0.61035156,-50.44241000
0.64086914,-46.79943000
0.67138672,-45.86320000
0.70190430,-47.86573000
0.73242188,-52.98962000
0.76293945,-63.74064000
0.79345703,-66.72500000
0.82397461,-60.16755000
0.85449219,-59.20071000
0.88500977,-60.09666000
0.91552734,-61.68158000
0.94604492,-61.60452000
0.97656250,-60.12254000
1.00708008,-59.96795000
1.03759766,-62.69155000
1.06811523,-71.95121000
1.09863281,-72.05305000
1.12915039,-66.42638000
1.15966797,-66.42548000
1.19018555,-67.92140000
1.22070313,-69.08418000
1.25122070,-70.19668000
1.28173828,-70.85448000
1.31225586,-68.73357000
1.34277344,-66.99571000
1.37329102,-67.14246000
1.40380859,-66.88031000
1.43432617,-66.59494000
1.46484375,-70.16167000
1.49536133,-75.09827000
1.52587891,-65.88264000
1.55639648,-62.78366000
1.58691406,-63.04261000
1.61743164,-65.38769000
1.64794922,-67.05577000
1.67846680,-66.42329000
1.70898438,-66.26378000
1.73950195,-67.28432000
1.77001953,-68.56391000
1.80053711,-68.78322000
1.83105469,-68.30463000
1.86157227,-67.25606000
1.89208984,-65.61478000
1.92260742,-65.02055000
1.95312500,-66.37017000
1.98364258,-68.80080000
2.01416016,-70.72630000
2.04467773,-75.43450000
2.07519531,-84.43635000
2.10571289,-70.07997000
2.13623047,-66.36186000
2.16674805,-66.34109000
2.19726563,-69.09862000
2.22778320,-72.33405000
2.25830078,-70.92287000
2.28881836,-68.62791000
2.31933594,-67.84110000
2.34985352,-68.46800000
2.38037109,-69.46091000
2.41088867,-70.37775000
2.44140625,-72.57219000
2.47192383,-75.29929000
2.50244141,-71.85731000
2.53295898,-68.26208000
2.56347656,-66.48383000
2.59399414,-65.85225000
2.62451172,-66.24274000
2.65502930,-67.57671000
2.68554688,-68.77521000
2.71606445,-68.45616000
2.74658203,-67.26192000
2.77709961,-66.13097000
2.80761719,-65.46773000
2.83813477,-65.49855000
2.86865234,-65.96843000
2.89916992,-66.24871000
2.92968750,-66.50568000
2.96020508,-66.99269000
2.99072266,-66.58121000
3.02124023,-65.14933000
3.05175781,-64.39195000
3.08227539,-65.50334000
3.11279297,-69.07251000
3.14331055,-69.43211000
3.17382813,-65.75652000
3.20434570,-64.90176000
3.23486328,-66.25030000
3.26538086,-66.73398000
3.29589844,-65.15141000
3.32641602,-63.93648000
3.35693359,-63.55421000
3.38745117,-63.58057000
3.41796875,-63.81474000
3.44848633,-64.52062000
3.47900391,-64.94086000
3.50952148,-63.64857000
3.54003906,-62.10971000
3.57055664,-61.54597000
3.60107422,-61.71947000
3.63159180,-61.86379000
3.66210938,-61.70200000
3.69262695,-61.71619000
3.72314453,-62.02043000
3.75366211,-62.06569000
3.78417969,-61.70538000
3.81469727,-61.57222000
3.84521484,-61.97225000
3.87573242,-62.31873000
3.90625000,-62.14934000
3.93676758,-62.17988000
3.96728516,-62.54770000
3.99780273,-62.26601000
4.02832031,-61.54480000
4.05883789,-61.30816000
4.08935547,-61.57295000
4.11987305,-62.16814000
4.15039063,-63.41376000
4.18090820,-65.32311000
4.21142578,-65.82314000
4.24194336,-64.70547000
4.27246094,-64.55293000
4.30297852,-65.45215000
4.33349609,-66.30617000
4.36401367,-66.64310000
4.39453125,-66.53022000
4.42504883,-66.46133000
4.45556641,-67.21580000
4.48608398,-68.82684000
4.51660156,-70.18913000
4.54711914,-70.57906000
4.57763672,-70.43951000
4.60815430,-70.35556000
4.63867188,-70.82368000
4.66918945,-71.43883000
4.69970703,-71.31963000
4.73022461,-70.75453000
4.76074219,-70.42272000
4.79125977,-70.20921000
4.82177734,-69.81345000
4.85229492,-69.33902000
4.88281250,-69.04621000
4.91333008,-69.10854000
4.94384766,-69.55402000
4.97436523,-70.31976000
5.00488281,-71.26041000
5.03540039,-72.04099000
5.06591797,-72.19460000
5.09643555,-72.04800000
5.12695313,-72.27830000
5.15747070,-71.91129000
5.18798828,-70.49693000
5.21850586,-70.15965000
5.24902344,-72.17258000
5.27954102,-75.13107000
5.31005859,-74.51331000
5.34057617,-74.43111000
5.37109375,-76.92283000
5.40161133,-79.83712000
5.43212891,-79.37489000
5.46264648,-78.04862000
5.49316406,-77.58313000
5.52368164,-76.65527000
5.55419922,-74.74500000
5.58471680,-72.26837000
5.61523438,-69.37447000
5.64575195,-66.65038000
5.67626953,-64.58366000
5.70678711,-63.28957000
5.73730469,-62.76912000
5.76782227,-62.74540000
5.79833984,-62.57998000
5.82885742,-62.13049000
5.85937500,-61.74263000
5.88989258,-61.39740000
5.92041016,-60.97037000
5.95092773,-60.74926000
5.98144531,-61.07208000
6.01196289,-61.82861000
6.04248047,-62.72047000
6.07299805,-63.77653000
6.10351563,-64.91656000
6.13403320,-65.50340000
6.16455078,-65.17081000
6.19506836,-64.30778000
6.22558594,-63.58114000
6.25610352,-63.79398000
6.28662109,-65.49387000
6.31713867,-68.09882000
6.34765625,-69.28873000
6.37817383,-69.19587000
6.40869141,-69.31709000
6.43920898,-69.67526000
6.46972656,-70.27464000
6.50024414,-71.01243000
6.53076172,-71.32702000
6.56127930,-71.81024000
6.59179688,-73.81396000
6.62231445,-77.36874000
6.65283203,-78.37401000
6.68334961,-76.34160000
6.71386719,-74.63824000
6.74438477,-73.70921000
6.77490234,-74.13116000
6.80541992,-77.02590000
6.83593750,-85.13531000
6.86645508,-93.06245000
6.89697266,-83.64623000
6.92749023,-79.45625000
6.95800781,-75.65228000
6.98852539,-73.24341000
7.01904297,-73.08438000
7.04956055,-75.51306000
7.08007813,-80.66142000
7.11059570,-83.17963000
7.14111328,-80.43613000
7.17163086,-80.31544000
7.20214844,-83.31726000
7.23266602,-87.42039000
7.26318359,-88.63087000
7.29370117,-93.84076000
7.32421875,-103.39940000
7.35473633,-95.93529000
7.38525391,-97.47826000
7.41577148,-95.37213000
7.44628906,-94.04144000
7.47680664,-100.14670000
7.50732422,-94.20810000
7.53784180,-86.28308000
7.56835938,-82.61791000
7.59887695,-81.12728000
7.62939453,-81.17621000
7.65991211,-82.78926000
7.69042969,-86.44039000
7.72094727,-88.34827000
7.75146484,-84.21925000
7.78198242,-81.41133000
7.81250000,-80.24886000
7.84301758,-80.57899000
7.87353516,-82.47119000
7.90405273,-85.37505000
7.93457031,-88.38348000
7.96508789,-88.22984000
7.99560547,-82.68077000
8.02612305,-78.87379000
8.05664063,-77.64800000
8.08715820,-78.07617000
8.11767578,-78.89008000
8.14819336,-79.30178000
8.17871094,-79.98570000
8.20922852,-82.46252000
8.23974609,-87.82150000
8.27026367,-97.61433000
8.30078125,-92.11524000
8.33129883,-87.29254000
8.36181641,-88.20512000
8.39233398,-93.07667000
8.42285156,-96.69926000
8.45336914,-90.69309000
8.48388672,-86.52671000
8.51440430,-86.76942000
8.54492188,-90.96711000
8.57543945,-92.35193000
8.60595703,-88.76479000
8.63647461,-87.35619000
8.66699219,-86.84567000
8.69750977,-85.69981000
8.72802734,-84.24201000
8.75854492,-84.52388000
8.78906250,-87.50816000
8.81958008,-90.59228000
8.85009766,-89.25956000
8.88061523,-88.90512000
8.91113281,-91.95348000
8.94165039,-103.83100000
8.97216797,-98.26402000
9.00268555,-93.69841000
9.03320313,-96.88127000
9.06372070,-99.23174000
9.09423828,-88.18362000
9.12475586,-84.51923000
9.15527344,-84.41730000
9.18579102,-86.54828000
9.21630859,-88.41926000
9.24682617,-89.48685000
9.27734375,-91.82923000
9.30786133,-94.82753000
9.33837891,-94.01952000
9.36889648,-92.20015000
9.39941406,-92.96922000
9.42993164,-97.15362000
9.46044922,-89.50177000
9.49096680,-85.13286000
9.52148438,-85.21651000
9.55200195,-89.05820000
9.58251953,-93.74116000
9.61303711,-87.92019000
9.64355469,-83.88231000
9.67407227,-82.35809000
9.70458984,-82.01791000
9.73510742,-82.65866000
9.76562500,-85.21353000
9.79614258,-86.66685000
9.82666016,-84.94907000
9.85717773,-85.34753000
9.88769531,-86.85568000
9.91821289,-86.06651000
9.94873047,-84.42291000
9.97924805,-84.34677000
10.00976563,-86.36009000
10.04028320,-88.38876000
10.07080078,-83.00928000
10.10131836,-79.59007000
10.13183594,-79.07771000
10.16235352,-79.97514000
10.19287109,-80.70454000
10.22338867,-81.01730000
10.25390625,-82.74212000
10.28442383,-86.46506000
10.31494141,-84.69471000
10.34545898,-82.95064000
10.37597656,-83.99593000
10.40649414,-85.21941000
10.43701172,-86.30024000
10.46752930,-89.78000000
10.49804688,-92.16175000
10.52856445,-85.75258000
10.55908203,-84.24338000
10.58959961,-89.56985000
10.62011719,-92.41771000
10.65063477,-84.04624000
10.68115234,-82.20422000
10.71166992,-82.92611000
10.74218750,-84.95090000
10.77270508,-86.15470000
10.80322266,-85.32680000
10.83374023,-85.81808000
10.86425781,-86.03761000
10.89477539,-84.66248000
10.92529297,-85.91354000
10.95581055,-87.74230000
10.98632813,-84.91929000
11.01684570,-83.97037000
11.04736328,-86.12936000
11.07788086,-89.20425000
11.10839844,-90.10500000
11.13891602,-87.72847000
11.16943359,-84.22716000
11.19995117,-81.21487000
11.23046875,-79.80863000
11.26098633,-79.03069000
11.29150391,-77.14605000
11.32202148,-75.88965000
11.35253906,-76.60717000
11.38305664,-79.47282000
11.41357422,-83.94870000
11.44409180,-84.73331000
11.47460938,-82.21606000
11.50512695,-82.21787000
11.53564453,-89.29173000
11.56616211,-85.19947000
11.59667969,-76.30589000
11.62719727,-73.89478000
11.65771484,-75.30213000
11.68823242,-81.41286000
11.71875000,-104.88000000
11.74926758,-84.89160000
11.77978516,-84.69620000
11.81030273,-89.37785000
11.84082031,-91.70612000
11.87133789,-87.87958000
11.90185547,-82.57317000
11.93237305,-79.22683000
11.96289063,-78.23308000
11.99340820,-78.73146000
12.02392578,-79.52615000
12.05444336,-80.86032000
12.08496094,-84.61246000
12.11547852,-89.30360000
12.14599609,-81.64420000
12.17651367,-77.95128000
12.20703125,-77.20507000
12.23754883,-78.55311000
12.26806641,-82.22189000
12.29858398,-86.51494000
12.32910156,-88.81012000
12.35961914,-93.78159000
12.39013672,-90.16476000
12.42065430,-86.76289000
12.45117188,-85.32988000
12.48168945,-84.00420000
12.51220703,-84.09268000
12.54272461,-89.14158000
12.57324219,-100.94980000
12.60375977,-90.06985000
12.63427734,-94.57072000
12.66479492,-84.56427000
12.69531250,-80.35425000
12.72583008,-80.87025000
12.75634766,-85.18553000
12.78686523,-95.31429000
12.81738281,-100.23310000
12.84790039,-87.35211000
12.87841797,-81.47346000
12.90893555,-79.56519000
12.93945313,-79.75040000
12.96997070,-80.88268000
13.00048828,-84.42201000
13.03100586,-94.11174000
13.06152344,-94.27792000
13.09204102,-84.39414000
13.12255859,-80.06095000
13.15307617,-77.85581000
13.18359375,-77.01882000
13.21411133,-77.96132000
13.24462891,-81.16681000
13.27514648,-81.25870000
13.30566406,-78.79572000
13.33618164,-79.59161000
13.36669922,-83.38255000
13.39721680,-86.25187000
13.42773438,-85.61987000
13.45825195,-89.17403000
13.48876953,-78.54913000
13.51928711,-70.02597000
13.54980469,-66.16093000
13.58032227,-65.41714000
13.61083984,-67.36952000
13.64135742,-71.65166000
13.67187500,-74.00116000
13.70239258,-72.74376000
13.73291016,-73.42280000
13.76342773,-76.52061000
13.79394531,-81.14876000
13.82446289,-84.60652000
13.85498047,-83.09086000
13.88549805,-79.79101000
13.91601563,-77.62679000
13.94653320,-77.50964000
13.97705078,-80.99374000
14.00756836,-87.85002000
14.03808594,-81.70319000
14.06860352,-79.60332000
14.09912109,-80.54852000
14.12963867,-82.86076000
14.16015625,-84.90137000
14.19067383,-85.70543000
14.22119141,-85.55777000
14.25170898,-83.31615000
14.28222656,-81.20909000
14.31274414,-82.26624000
14.34326172,-87.42650000
14.37377930,-84.28773000
14.40429688,-81.09119000
14.43481445,-82.43678000
14.46533203,-88.26728000
14.49584961,-89.37196000
14.52636719,-83.78201000
14.55688477,-80.81303000
14.58740234,-79.45512000
14.61791992,-79.31818000
14.64843750,-79.96026000
14.67895508,-80.57996000
14.70947266,-79.48180000
14.73999023,-77.63871000
14.77050781,-77.31068000
14.80102539,-78.75951000
14.83154297,-80.55004000
14.86206055,-81.25378000
14.89257813,-83.13957000
14.92309570,-91.03670000
14.95361328,-84.34547000
14.98413086,-78.20537000
15.01464844,-76.09871000
15.04516602,-76.11777000
15.07568359,-77.91478000
15.10620117,-81.73469000
15.13671875,-90.66769000
15.16723633,-85.06424000
15.19775391,-76.10020000
15.22827148,-72.54885000
15.25878906,-72.60526000
15.28930664,-75.90417000
15.31982422,-81.27621000
15.35034180,-86.94986000
15.38085938,-92.57672000
15.41137695,-86.40189000
15.44189453,-83.91145000
15.47241211,-83.71411000
15.50292969,-84.23524000
15.53344727,-84.09804000
15.56396484,-84.19557000
15.59448242,-86.63960000
15.62500000,-89.53057000
15.65551758,-85.86465000
15.68603516,-83.24030000
15.71655273,-82.78149000
15.74707031,-83.77657000
15.77758789,-85.58232000
15.80810547,-86.14038000
15.83862305,-83.81005000
15.86914063,-82.17216000
15.89965820,-82.86026000
15.93017578,-86.80807000
15.96069336,-96.31969000
15.99121094,-89.13899000
16.02172852,-85.12488000
16.05224609,-84.10646000
16.08276367,-84.32062000
16.11328125,-85.54584000
16.14379883,-87.73586000
16.17431641,-88.94823000
16.20483398,-89.83514000
16.23535156,-95.38024000
16.26586914,-95.03600000
16.29638672,-86.60729000
16.32690430,-83.85444000
16.35742188,-84.45538000
16.38793945,-88.51517000
16.41845703,-94.12337000
16.44897461,-93.95339000
16.47949219,-101.43640000
16.51000977,-95.98510000
16.54052734,-88.76059000
16.57104492,-86.78485000
16.60156250,-86.43239000
16.63208008,-86.72372000
16.66259766,-88.62804000
16.69311523,-92.61418000
16.72363281,-93.81946000
16.75415039,-89.60555000
16.78466797,-85.54750000
16.81518555,-83.33328000
16.84570313,-83.59481000
16.87622070,-87.28517000
16.90673828,-97.73453000
16.93725586,-93.80827000
16.96777344,-90.49547000
16.99829102,-91.34663000
17.02880859,-96.58876000
17.05932617,-119.31020000
17.08984375,-101.93400000
17.12036133,-104.63010000
17.15087891,-94.99680000
17.18139648,-88.61340000
17.21191406,-84.94003000
17.24243164,-83.56744000
17.27294922,-84.50441000
17.30346680,-88.32928000
17.33398438,-102.64460000
17.36450195,-91.01532000
17.39501953,-84.96056000
17.42553711,-83.68556000
17.45605469,-85.05157000
17.48657227,-87.19715000
17.51708984,-88.52577000
17.54760742,-91.47511000
17.57812500,-95.47092000
17.60864258,-90.29365000
17.63916016,-85.96587000
17.66967773,-82.33963000
17.70019531,-79.64621000
17.73071289,-79.27510000
17.76123047,-82.57576000
17.79174805,-92.64935000
17.82226563,-90.45876000
17.85278320,-88.63374000
17.88330078,-91.40079000
17.91381836,-94.71678000
17.94433594,-97.39545000
17.97485352,-101.88720000
18.00537109,-100.60280000
18.03588867,-95.09795000
18.06640625,-93.04314000
18.09692383,-93.25627000
18.12744141,-94.41700000
18.15795898,-96.80170000
18.18847656,-105.17940000
18.21899414,-97.93863000
18.24951172,-92.79956000
18.28002930,-93.56070000
18.31054688,-101.45320000
18.34106445,-106.54840000
18.37158203,-99.96040000
18.40209961,-100.95300000
18.43261719,-100.00610000
18.46313477,-97.93513000
18.49365234,-100.14160000
18.52416992,-105.35280000
18.55468750,-102.03450000
18.58520508,-105.09250000
18.61572266,-99.67812000
18.64624023,-92.28993000
18.67675781,-89.68837000
18.70727539,-90.48634000
18.73779297,-95.21511000
18.76831055,-105.03420000
18.79882813,-101.39660000
18.82934570,-103.39310000
18.85986328,-106.10920000
18.89038086,-100.94870000
18.92089844,-102.92260000
18.95141602,-115.99680000
18.98193359,-113.93830000
19.01245117,-110.45090000
19.04296875,-98.41404000
19.07348633,-94.99872000
19.10400391,-97.37075000
19.13452148,-105.41420000
19.16503906,-98.78606000
19.19555664,-100.58170000
19.22607422,-107.96510000
19.25659180,-96.70187000
19.28710938,-94.69711000
19.31762695,-95.85637000
19.34814453,-98.02143000
19.37866211,-100.18720000
19.40917969,-101.98220000
19.43969727,-103.04440000
19.47021484,-104.36160000
19.50073242,-104.89040000
19.53125000,-102.20820000
19.56176758,-101.45540000
19.59228516,-102.60680000
19.62280273,-102.06860000
19.65332031,-103.88500000
19.68383789,-105.71470000
19.71435547,-99.78830000
19.74487305,-96.99699000
19.77539063,-96.05199000
19.80590820,-95.57590000
19.83642578,-94.79529000
19.86694336,-95.79227000
19.89746094,-99.07989000
19.92797852,-102.43780000
19.95849609,-105.18460000
19.98901367,-97.10329000
20.01953125,-94.45464000
20.05004883,-94.19465000
20.08056641,-93.44555000
20.11108398,-94.43164000
20.14160156,-95.66957000
20.17211914,-92.93925000
20.20263672,-92.67365000
20.23315430,-96.06742000
20.26367188,-101.49870000
20.29418945,-101.90720000
20.32470703,-97.20381000
20.35522461,-94.09309000
20.38574219,-94.03756000
20.41625977,-95.88989000
20.44677734,-89.32249000
20.47729492,-84.07217000
20.50781250,-82.53777000
20.53833008,-84.26054000
20.56884766,-88.69023000
20.59936523,-93.56274000
20.62988281,-92.70387000
20.66040039,-87.92752000
20.69091797,-86.91094000
20.72143555,-89.72720000
20.75195313,-93.00820000
20.78247070,-90.76201000
20.81298828,-88.02171000
20.84350586,-87.25768000
20.87402344,-89.89978000
20.90454102,-95.63843000
20.93505859,-98.39173000
20.96557617,-108.61170000
20.99609375,-100.80320000
21.02661133,-92.78976000
21.05712891,-88.20881000
21.08764648,-86.49202000
21.11816406,-87.65469000
21.14868164,-91.24078000
21.17919922,-96.25367000
21.20971680,-99.89163000
21.24023438,-100.36030000
21.27075195,-98.17873000
21.30126953,-95.58692000
21.33178711,-97.23159000
21.36230469,-103.73100000
21.39282227,-104.55250000
21.42333984,-101.63420000
21.45385742,-97.97551000
21.48437500,-94.28662000
21.51489258,-91.37025000
21.54541016,-89.38915000
21.57592773,-88.73771000
21.60644531,-90.68059000
21.63696289,-96.13379000
21.66748047,-92.26281000
21.69799805,-89.64037000
21.72851563,-91.75883000
21.75903320,-96.60046000
21.78955078,-95.12328000
21.82006836,-91.51984000
21.85058594,-89.29639000
21.88110352,-89.08273000
21.91162109,-91.32549000
21.94213867,-96.75019000
21.97265625,-102.36480000
22.00317383,-97.99243000
22.03369141,-93.32516000
22.06420898,-90.19631000
22.09472656,-89.59464000
22.12524414,-91.95894000
22.15576172,-98.32397000
22.18627930,-107.16690000
22.21679688,-95.57815000
22.24731445,-90.98985000
22.27783203,-89.37389000
22.30834961,-88.61867000
22.33886719,-88.04668000
22.36938477,-89.21767000
22.39990234,-94.10217000
22.43041992,-115.22580000
22.46093750,-95.15543000
22.49145508,-91.40047000
22.52197266,-92.34885000
22.55249023,-96.59987000
22.58300781,-93.00252000
22.61352539,-89.78738000
22.64404297,-90.18422000
22.67456055,-92.91069000
22.70507813,-93.20866000
22.73559570,-93.46501000
22.76611328,-97.15506000
22.79663086,-94.06921000
22.82714844,-89.95932000
22.85766602,-87.40719000
22.88818359,-86.38832000
22.91870117,-87.61766000
22.94921875,-91.31875000
22.97973633,-95.80169000
23.01025391,-98.07961000
23.04077148,-96.17355000
23.07128906,-94.83743000
23.10180664,-97.16762000
23.13232422,-99.31822000
23.16284180,-94.00890000
23.19335938,-91.92635000
23.22387695,-94.13932000
23.25439453,-99.74556000
23.28491211,-100.66680000
23.31542969,-94.54415000
23.34594727,-90.42332000
23.37646484,-89.25159000
23.40698242,-90.33684000
23.43750000,-92.82928000
23.46801758,-94.26523000
23.49853516,-93.08022000
23.52905273,-92.20567000
23.55957031,-91.78058000
23.59008789,-91.82887000
23.62060547,-93.47705000
23.65112305,-96.78181000
23.68164063,-99.19384000
23.71215820,-96.82751000
23.74267578,-95.65576000
23.77319336,-99.41576000
23.80371094,-94.64339000
23.83422852,-87.93623000
23.86474609,-86.22418000
23.89526367,-88.03258000
23.92578125,-91.89934000
23.95629883,-94.07243000
23.98681641,-94.86710000
24.01733398,-98.74528000
24.04785156,-106.55160000
24.07836914,-94.90291000
24.10888672,-90.70427000
24.13940430,-89.13852000
24.16992188,-89.19046000
24.20043945,-90.52971000
24.23095703,-92.24870000
24.26147461,-93.16837000
24.29199219,-93.47766000
24.32250977,-93.82246000
24.35302734,-94.92728000
24.38354492,-97.32260000
24.41406250,-98.84739000
24.44458008,-94.45834000
24.47509766,-88.84418000
24.50561523,-85.12860000
24.53613281,-84.05234000
24.56665039,-85.74599000
24.59716797,-90.13840000
24.62768555,-96.01257000
24.65820313,-98.53979000
24.68872070,-96.68324000
24.71923828,-93.66894000
24.74975586,-90.91824000
24.78027344,-89.11933000
24.81079102,-88.43594000
24.84130859,-88.96572000
24.87182617,-90.96474000
24.90234375,-94.35432000
24.93286133,-98.74179000
24.96337891,-103.75410000
24.99389648,-104.78830000
25.02441406,-102.54570000
25.05493164,-102.91150000
25.08544922,-109.08540000
25.11596680,-109.23980000
25.14648438,-103.11520000
25.17700195,-104.71370000
25.20751953,-110.25000000
25.23803711,-97.39354000
25.26855469,-93.94207000
25.29907227,-94.65836000
25.32958984,-98.57286000
25.36010742,-103.29480000
25.39062500,-100.59560000
25.42114258,-97.78416000
25.45166016,-97.55111000
25.48217773,-98.90837000
25.51269531,-98.80443000
25.54321289,-96.07819000
25.57373047,-94.10941000
25.60424805,-94.69451000
25.63476563,-96.51722000
25.66528320,-92.90582000
25.69580078,-90.12814000
25.72631836,-90.36773000
25.75683594,-94.23321000
25.78735352,-105.15560000
25.81787109,-88.89355000
25.84838867,-83.76023000
25.87890625,-82.69046000
25.90942383,-84.66385000
25.93994141,-88.88429000
25.97045898,-92.59004000
26.00097656,-95.35407000
26.03149414,-99.89563000
26.06201172,-94.19320000
26.09252930,-89.88419000
26.12304688,-87.98337000
26.15356445,-87.02222000
26.18408203,-87.06954000
26.21459961,-89.06162000
26.24511719,-93.23412000
26.27563477,-93.84037000
26.30615234,-91.52640000
26.33666992,-89.76158000
26.36718750,-88.78266000
26.39770508,-89.82211000
26.42822266,-94.00693000
26.45874023,-107.77600000
26.48925781,-98.98301000
26.51977539,-93.06924000
26.55029297,-91.48853000
26.58081055,-91.28757000
26.61132813,-92.19204000
26.64184570,-94.43523000
26.67236328,-93.30619000
26.70288086,-90.10057000
26.73339844,-88.02669000
26.76391602,-87.19511000
26.79443359,-87.85596000
26.82495117,-90.26927000
26.85546875,-94.52719000
26.88598633,-97.13953000
26.91650391,-93.74703000
26.94702148,-90.94337000
26.97753906,-90.31322000
27.00805664,-91.86607000
27.03857422,-94.75060000
27.06909180,-98.15109000
27.09960938,-102.95060000
27.13012695,-96.80017000
27.16064453,-91.46201000
27.19116211,-89.21065000
27.22167969,-89.45107000
27.25219727,-92.41818000
27.28271484,-97.47072000
27.31323242,-96.02032000
27.34375000,-93.74934000
27.37426758,-95.40607000
27.40478516,-99.70814000
27.43530273,-96.14551000
27.46582031,-94.72113000
27.49633789,-98.20599000
27.52685547,-98.58604000
27.55737305,-93.08701000
27.58789063,-91.25755000
27.61840820,-91.93252000
27.64892578,-94.90340000
27.67944336,-106.77840000
27.70996094,-96.85217000
27.74047852,-90.06476000
27.77099609,-88.57856000
27.80151367,-90.80183000
27.83203125,-98.47446000
27.86254883,-101.50090000
27.89306641,-94.40342000
27.92358398,-93.95054000
27.95410156,-96.87829000
27.98461914,-93.04095000
28.01513672,-90.13512000
28.04565430,-90.18811000
28.07617188,-90.18111000
28.10668945,-89.84923000
28.13720703,-90.81917000
28.16772461,-92.61540000
28.19824219,-93.68282000
28.22875977,-93.31071000
28.25927734,-92.58347000
28.28979492,-92.20958000
28.32031250,-91.88373000
28.35083008,-92.36604000
28.38134766,-94.90385000
28.41186523,-95.78084000
28.44238281,-91.41792000
28.47290039,-89.01249000
28.50341797,-89.34227000
28.53393555,-92.19353000
28.56445313,-97.62076000
28.59497070,-102.99160000
28.62548828,-95.60311000
28.65600586,-91.66161000
28.68652344,-90.18930000
28.71704102,-90.57580000
28.74755859,-92.88521000
28.77807617,-95.74693000
28.80859375,-97.13638000
28.83911133,-101.00870000
28.86962891,-104.69600000
28.90014648,-95.40089000
28.93066406,-91.83128000
28.96118164,-91.14125000
28.99169922,-92.10915000
29.02221680,-93.29234000
29.05273438,-93.33576000
29.08325195,-92.64675000
29.11376953,-91.98022000
29.14428711,-92.09781000
29.17480469,-93.78404000
29.20532227,-97.07561000
29.23583984,-99.09407000
29.26635742,-96.52267000
29.29687500,-93.24629000
29.32739258,-91.40156000
29.35791016,-90.94516000
29.38842773,-91.47562000
29.41894531,-92.71728000
29.44946289,-95.31399000
29.47998047,-101.96080000
29.51049805,-95.60101000
29.54101563,-89.44564000
29.57153320,-86.87148000
29.60205078,-86.18770000
29.63256836,-86.55667000
29.66308594,-87.48219000
29.69360352,-88.61259000
29.72412109,-89.94500000
29.75463867,-92.11727000
29.78515625,-95.80411000
29.81567383,-100.22650000
29.84619141,-99.27780000
29.87670898,-96.94032000
29.90722656,-96.23668000
29.93774414,-97.48547000
29.96826172,-99.25377000
29.99877930,-95.45618000
30.02929688,-92.57552000
30.05981445,-91.73590000
30.09033203,-91.84502000
30.12084961,-91.89911000
30.15136719,-91.97839000
30.18188477,-92.98917000
30.21240234,-94.48155000
30.24291992,-94.40262000
30.27343750,-93.94881000
30.30395508,-95.64099000
30.33447266,-100.86580000
30.36499023,-102.66520000
30.39550781,-100.64630000
30.42602539,-104.19020000
30.45654297,-115.95020000
30.48706055,-104.19290000
30.51757813,-98.32321000
30.54809570,-95.78604000
30.57861328,-94.26627000
30.60913086,-95.06387000
30.63964844,-101.58340000
30.67016602,-107.03630000
30.70068359,-98.70238000
30.73120117,-98.34535000
30.76171875,-99.61758000
30.79223633,-96.24026000
30.82275391,-93.23805000
30.85327148,-92.37442000
30.88378906,-93.23523000
30.91430664,-95.42693000
30.94482422,-97.43127000
30.97534180,-96.98431000
31.00585938,-95.36493000
31.03637695,-94.88020000
31.06689453,-95.04218000
31.09741211,-93.59819000
31.12792969,-92.54312000
31.15844727,-94.44576000
31.18896484,-101.06140000
31.21948242,-114.92880000
31.25000000,-98.12476000
31.28051758,-92.64256000
31.31103516,-90.74789000
31.34155273,-91.12275000
31.37207031,-93.37791000
31.40258789,-96.53830000
31.43310547,-96.00671000
31.46362305,-93.42849000
31.49414063,-91.95824000
31.52465820,-91.90228000
31.55517578,-93.25749000
31.58569336,-95.54534000
31.61621094,-98.06854000
31.64672852,-99.50603000
31.67724609,-96.86394000
31.70776367,-92.59283000
31.73828125,-89.13017000
31.76879883,-86.73085000
31.79931641,-85.34415000
31.82983398,-85.10705000
31.86035156,-86.34510000
31.89086914,-89.16866000
31.92138672,-91.09454000
31.95190430,-88.58887000
31.98242188,-85.78578000
32.01293945,-84.47992000
32.04345703,-85.09834000
32.07397461,-87.91930000
32.10449219,-92.01237000
32.13500977,-93.03421000
32.16552734,-91.21448000
32.19604492,-88.71741000
32.22656250,-86.80244000
32.25708008,-86.46046000
32.28759766,-87.77188000
32.31811523,-89.63599000
32.34863281,-90.95959000
32.37915039,-92.55290000
32.40966797,-95.35818000
32.44018555,-98.42111000
32.47070313,-100.00320000
32.50122070,-102.43370000
32.53173828,-101.95990000
32.56225586,-97.15176000
32.59277344,-93.17298000
32.62329102,-90.94598000
32.65380859,-90.35355000
32.68432617,-90.89890000
32.71484375,-92.38715000
32.74536133,-95.70809000
32.77587891,-103.36160000
32.80639648,-109.68860000
32.83691406,-100.70470000
32.86743164,-95.59381000
32.89794922,-91.95921000
32.92846680,-90.34128000
32.95898438,-91.11629000
32.98950195,-95.16674000
33.02001953,-105.34830000
33.05053711,-103.30110000
33.08105469,-102.24110000
33.11157227,-107.47220000
33.14208984,-106.46810000
33.17260742,-101.48860000
33.20312500,-98.80118000
33.23364258,-96.10553000
33.26416016,-92.82005000
33.29467773,-90.11774000
33.32519531,-88.77046000
33.35571289,-89.00397000
33.38623047,-90.38006000
33.41674805,-90.53828000
33.44726563,-88.40026000
33.47778320,-86.54979000
33.50830078,-85.88454000
33.53881836,-86.15953000
33.56933594,-86.94846000
33.59985352,-87.94209000
33.63037109,-89.09072000
33.66088867,-90.73727000
33.69140625,-93.18756000
33.72192383,-95.61617000
33.75244141,-94.56654000
33.78295898,-90.45312000
33.81347656,-86.83813000
33.84399414,-84.62740000
33.87451172,-83.74127000
33.90502930,-83.87443000
33.93554688,-84.73642000
33.96606445,-86.18869000
33.99658203,-88.12882000
34.02709961,-89.94322000
34.05761719,-90.08899000
34.08813477,-88.22366000
34.11865234,-85.99809000
34.14916992,-84.57903000
34.17968750,-84.47156000
34.21020508,-85.73864000
34.24072266,-87.36042000
34.27124023,-87.28558000
34.30175781,-86.62759000
34.33227539,-87.38531000
34.36279297,-89.85373000
34.39331055,-92.62910000
34.42382813,-92.44450000
34.45434570,-90.92912000
34.48486328,-90.71537000
34.51538086,-91.57872000
34.54589844,-91.70375000
34.57641602,-89.93350000
34.60693359,-87.84505000
34.63745117,-86.69094000
34.66796875,-86.53421000
34.69848633,-86.53999000
34.72900391,-85.70560000
34.75952148,-84.48743000
34.79003906,-83.82253000
34.82055664,-84.00012000
34.85107422,-84.84596000
34.88159180,-85.99327000
34.91210938,-87.29127000
34.94262695,-88.87139000
34.97314453,-90.32142000
35.00366211,-90.16048000
35.03417969,-89.04305000
35.06469727,-89.06477000
35.09521484,-90.87291000
35.12573242,-93.52112000
35.15625000,-94.08089000
35.18676758,-91.44376000
35.21728516,-88.44512000
35.24780273,-86.80858000
35.27832031,-86.44390000
35.30883789,-86.68422000
35.33935547,-86.93821000
35.36987305,-87.07362000
35.40039063,-87.15987000
35.43090820,-87.06334000
35.46142578,-86.85002000
35.49194336,-87.11758000
35.52246094,-88.23210000
35.55297852,-89.50883000
35.58349609,-89.77024000
35.61401367,-89.05528000
35.64453125,-87.67827000
35.67504883,-86.36307000
35.70556641,-86.18791000
35.73608398,-87.88400000
35.76660156,-91.77758000
35.79711914,-94.23138000
35.82763672,-90.44952000
35.85815430,-87.66106000
35.88867188,-86.41593000
35.91918945,-85.94886000
35.94970703,-86.08575000
35.98022461,-87.09109000
36.01074219,-88.57041000
36.04125977,-88.96394000
36.07177734,-88.46001000
36.10229492,-88.71120000
36.13281250,-90.10141000
36.16333008,-91.97998000
36.19384766,-93.37442000
36.22436523,-93.67822000
36.25488281,-92.23670000
36.28540039,-90.40547000
36.31591797,-90.08002000
36.34643555,-91.85616000
36.37695313,-96.04964000
36.40747070,-101.13660000
36.43798828,-97.07145000
36.46850586,-91.20715000
36.49902344,-87.46658000
36.52954102,-85.97630000
36.56005859,-86.69730000
36.59057617,-89.78896000
36.62109375,-95.44240000
36.65161133,-99.15556000
36.68212891,-96.10257000
36.71264648,-93.23769000
36.74316406,-91.98007000
36.77368164,-91.81371000
36.80419922,-91.38072000
36.83471680,-90.31841000
36.86523438,-89.05351000
36.89575195,-87.76119000
36.92626953,-86.74834000
36.95678711,-86.63514000
36.98730469,-87.78832000
37.01782227,-90.06268000
37.04833984,-92.80559000
37.07885742,-94.15222000
37.10937500,-93.38065000
37.13989258,-93.12545000
37.17041016,-93.63615000
37.20092773,-93.51073000
37.23144531,-93.02393000
37.26196289,-92.72655000
37.29248047,-92.92584000
37.32299805,-93.41008000
37.35351563,-93.55606000
37.38403320,-93.40552000
37.41455078,-92.99089000
37.44506836,-92.76738000
37.47558594,-94.22275000
37.50610352,-98.57093000
37.53662109,-103.23030000
37.56713867,-100.99520000
37.59765625,-97.94099000
37.62817383,-95.43253000
37.65869141,-94.32962000
37.68920898,-95.54760000
37.71972656,-100.41940000
37.75024414,-105.49360000
37.78076172,-99.37080000
37.81127930,-95.61855000
37.84179688,-92.27463000
37.87231445,-89.84692000
37.90283203,-89.61017000
37.93334961,-93.41576000
37.96386719,-108.22390000
37.99438477,-91.54542000
38.02490234,-87.51791000
38.05541992,-87.25151000
38.08593750,-89.67049000
38.11645508,-94.02423000
38.14697266,-98.22693000
38.17749023,-99.67666000
38.20800781,-98.90713000
38.23852539,-98.18893000
38.26904297,-96.72711000
38.29956055,-93.63263000
38.33007813,-90.28365000
38.36059570,-88.97301000
38.39111328,-89.47952000
38.42163086,-90.01376000
38.45214844,-89.07806000
38.48266602,-87.47711000
38.51318359,-86.30025000
38.54370117,-85.74978000
38.57421875,-85.36243000
38.60473633,-85.29765000
38.63525391,-86.48856000
38.66577148,-89.84847000
38.69628906,-97.45642000
38.72680664,-107.48620000
38.75732422,-95.54013000
38.78784180,-92.59003000
38.81835938,-92.21677000
38.84887695,-92.83916000
38.87939453,-92.35268000
38.90991211,-90.20898000
38.94042969,-88.31918000
38.97094727,-87.34199000
39.00146484,-86.93723000
39.03198242,-86.68056000
39.06250000,-86.62704000
39.09301758,-87.40706000
39.12353516,-89.07841000
39.15405273,-90.43941000
39.18457031,-90.92239000
39.21508789,-90.87479000
39.24560547,-90.17590000
39.27612305,-89.17862000
39.30664063,-88.63242000
39.33715820,-88.91693000
39.36767578,-89.78074000
39.39819336,-90.83591000
39.42871094,-92.33121000
39.45922852,-93.98787000
39.48974609,-93.61943000
39.52026367,-92.29908000
39.55078125,-92.09793000
39.58129883,-92.52084000
39.61181641,-91.84180000
39.64233398,-90.83566000
39.67285156,-91.12504000
39.70336914,-92.13631000
39.73388672,-90.14961000
39.76440430,-86.57151000
39.79492188,-84.36612000
39.82543945,-83.78724000
39.85595703,-84.54720000
39.88647461,-86.25762000
39.91699219,-88.09917000
39.94750977,-88.59771000
39.97802734,-87.67154000
40.00854492,-86.62490000
40.03906250,-86.48388000
40.06958008,-87.76488000
40.10009766,-89.48212000
40.13061523,-91.00299000
40.16113281,-98.48764000
40.19165039,-95.36602000
40.22216797,-87.48966000
40.25268555,-85.76034000
40.28320313,-87.31792000
40.31372070,-93.10947000
40.34423828,-100.62450000
40.37475586,-94.87106000
40.40527344,-97.37511000
40.43579102,-96.10580000
40.46630859,-90.38551000
40.49682617,-88.36044000
40.52734375,-88.75143000
40.55786133,-90.83286000
40.58837891,-91.77518000
40.61889648,-89.49294000
40.64941406,-88.08844000
40.67993164,-88.69475000
40.71044922,-91.17278000
40.74096680,-95.68083000
40.77148438,-107.02910000
40.80200195,-96.03209000
40.83251953,-88.02048000
40.86303711,-84.44122000
40.89355469,-83.50342000
40.92407227,-83.92398000
40.95458984,-84.20368000
40.98510742,-84.32656000
41.01562500,-85.54605000
41.04614258,-88.16010000
41.07666016,-91.11172000
41.10717773,-93.09198000
41.13769531,-90.63643000
41.16821289,-88.43987000
41.19873047,-91.16974000
41.22924805,-96.93152000
41.25976563,-90.88806000
41.29028320,-90.38737000
41.32080078,-91.95969000
41.35131836,-92.73324000
41.38183594,-95.58379000
41.41235352,-98.69762000
41.44287109,-94.97264000
41.47338867,-91.10423000
41.50390625,-88.56235000
41.53442383,-87.36357000
41.56494141,-87.53056000
41.59545898,-88.65517000
41.62597656,-89.92458000
41.65649414,-91.13888000
41.68701172,-94.11843000
41.71752930,-98.91927000
41.74804688,-91.70006000
41.77856445,-90.03053000
41.80908203,-96.51144000
41.83959961,-91.25798000
41.87011719,-84.94114000
41.90063477,-83.50630000
41.93115234,-84.64074000
41.96166992,-86.87194000
41.99218750,-88.58514000
42.02270508,-88.69902000
42.05322266,-87.40334000
42.08374023,-86.43533000
42.11425781,-86.88644000
42.14477539,-89.11858000
42.17529297,-90.13458000
42.20581055,-89.54299000
42.23632813,-90.21484000
42.26684570,-84.79698000
42.29736328,-82.09153000
42.32788086,-83.20288000
42.35839844,-86.66545000
42.38891602,-91.05957000
42.41943359,-90.90628000
42.44995117,-86.04990000
42.48046875,-83.69057000
42.51098633,-83.30360000
42.54150391,-85.08630000
42.57202148,-90.37151000
42.60253906,-95.37437000
42.63305664,-93.88702000
42.66357422,-100.02300000
42.69409180,-110.43500000
42.72460938,-116.61890000
42.75512695,-95.47034000
42.78564453,-87.99782000
42.81616211,-84.92365000
42.84667969,-83.79077000
42.87719727,-83.51834000
42.90771484,-83.58641000
42.93823242,-84.44923000
42.96875000,-87.51083000
42.99926758,-91.09726000
43.02978516,-88.67213000
43.06030273,-88.68736000
43.09082031,-94.30594000
43.12133789,-98.23193000
43.15185547,-88.64214000
43.18237305,-84.92635000
43.21289063,-84.14749000
43.24340820,-86.12387000
43.27392578,-90.16209000
43.30444336,-93.27199000
43.33496094,-92.04597000
43.36547852,-89.18281000
43.39599609,-87.65128000
43.42651367,-86.75786000
43.45703125,-86.03184000
43.48754883,-86.42589000
43.51806641,-89.11902000
43.54858398,-95.48298000
43.57910156,-111.61570000
43.60961914,-95.46370000
43.64013672,-93.98605000
43.67065430,-99.70872000
43.70117188,-111.27220000
43.73168945,-108.45520000
43.76220703,-98.57334000
43.79272461,-93.22430000
43.82324219,-90.44429000
43.85375977,-88.06116000
43.88427734,-86.81706000
43.91479492,-87.47513000
43.94531250,-89.39793000
43.97583008,-90.46933000
44.00634766,-89.83848000
44.03686523,-89.72092000
44.06738281,-91.96158000
44.09790039,-97.24843000
44.12841797,-94.42254000
44.15893555,-89.31718000
44.18945313,-86.96562000
44.21997070,-86.43350000
44.25048828,-87.00219000
44.28100586,-87.51491000
44.31152344,-86.89975000
44.34204102,-85.99206000
44.37255859,-86.89716000
44.40307617,-91.72433000
44.43359375,-113.76720000
44.46411133,-96.52175000
44.49462891,-93.11186000
44.52514648,-92.23461000
44.55566406,-93.61760000
44.58618164,-101.80980000
44.61669922,-99.75791000
44.64721680,-94.76498000
44.67773438,-92.31824000
44.70825195,-89.35151000
44.73876953,-88.53417000
44.76928711,-90.10101000
44.79980469,-93.80972000
44.83032227,-101.07640000
44.86083984,-102.02110000
44.89135742,-94.56605000
44.92187500,-92.33799000
44.95239258,-93.84328000
44.98291016,-94.92027000
45.01342773,-91.37132000
45.04394531,-91.44119000
45.07446289,-96.41626000
45.10498047,-96.81289000
45.13549805,-93.65642000
45.16601563,-92.94508000
45.19653320,-91.62354000
45.22705078,-91.17786000
45.25756836,-93.33824000
45.28808594,-96.54651000
45.31860352,-95.76667000
45.34912109,-93.01759000
45.37963867,-92.08742000
45.41015625,-93.64702000
45.44067383,-96.94932000
45.47119141,-101.30860000
45.50170898,-106.72200000
45.53222656,-100.98140000
45.56274414,-95.19737000
45.59326172,-94.35021000
45.62377930,-99.05293000
45.65429688,-94.34134000
45.68481445,-88.91676000
45.71533203,-88.10696000
45.74584961,-90.96183000
45.77636719,-98.09417000
45.80688477,-115.65490000
45.83740234,-104.31360000
45.86791992,-98.83452000
45.89843750,-99.70277000
45.92895508,-112.74220000
45.95947266,-97.60657000
45.98999023,-93.72018000
46.02050781,-92.76051000
46.05102539,-92.04308000
46.08154297,-92.34129000
46.11206055,-94.65854000
46.14257813,-99.40881000
46.17309570,-104.80060000
46.20361328,-103.45400000
46.23413086,-100.34860000
46.26464844,-95.24314000
46.29516602,-91.54050000
46.32568359,-89.47133000
46.35620117,-88.55003000
46.38671875,-89.03805000
46.41723633,-91.00520000
46.44775391,-92.41026000
46.47827148,-92.99437000
46.50878906,-96.47399000
46.53930664,-106.61740000
46.56982422,-115.18030000
46.60034180,-102.88100000
46.63085938,-96.40839000
46.66137695,-91.40736000
46.69189453,-88.03914000
46.72241211,-87.19681000
46.75292969,-89.06537000
46.78344727,-93.44945000
46.81396484,-96.41939000
46.84448242,-94.80849000
46.87500000,-94.03614000
46.90551758,-94.60068000
46.93603516,-95.69693000
46.96655273,-96.42735000
46.99707031,-96.53976000
47.02758789,-95.43535000
47.05810547,-93.87363000
47.08862305,-93.69656000
47.11914063,-95.74886000
47.14965820,-101.02220000
47.18017578,-106.23150000
47.21069336,-101.47800000
47.24121094,-100.62610000
47.27172852,-102.86800000
47.30224609,-105.83850000
47.33276367,-111.36570000
47.36328125,-110.48260000
47.39379883,-101.67200000
47.42431641,-100.73500000
47.45483398,-108.68000000
47.48535156,-106.60020000
47.51586914,-102.68190000
47.54638672,-106.93320000
47.57690430,-102.50680000
47.60742188,-100.78820000
47.63793945,-97.46841000
47.66845703,-92.95876000
47.69897461,-91.34270000
47.72949219,-92.63921000
47.76000977,-98.15507000
47.79052734,-103.39700000
47.82104492,-96.54697000
47.85156250,-97.24076000
47.88208008,-100.72810000
47.91259766,-96.13392000
47.94311523,-94.71840000
47.97363281,-96.13891000
48.00415039,-98.46991000
48.03466797,-102.05730000
48.06518555,-116.72320000
48.09570313,-103.47210000
48.12622070,-98.91392000
48.15673828,-100.40590000
48.18725586,-109.13740000
48.21777344,-109.16030000
48.24829102,-106.16260000
48.27880859,-107.68800000
48.30932617,-104.27780000
48.33984375,-97.65576000
48.37036133,-94.35783000
48.40087891,-94.92149000
48.43139648,-98.89764000
48.46191406,-99.77913000
48.49243164,-96.03225000
48.52294922,-94.17001000
48.55346680,-95.59908000
48.58398438,-103.01160000
48.61450195,-107.08130000
48.64501953,-96.39840000
48.67553711,-90.96577000
48.70605469,-89.31917000
48.73657227,-91.59277000
48.76708984,-98.07567000
48.79760742,-102.20130000
48.82812500,-100.72830000
48.85864258,-96.50998000
48.88916016,-94.60079000
48.91967773,-97.44780000
48.95019531,-100.43770000
48.98071289,-93.20363000
49.01123047,-88.44139000
49.04174805,-86.53793000
49.07226563,-87.36031000
49.10278320,-90.52003000
49.13330078,-95.01343000
49.16381836,-99.52861000
49.19433594,-102.19540000
49.22485352,-101.18690000
49.25537109,-99.79966000
49.28588867,-99.56601000
49.31640625,-97.29260000
49.34692383,-92.99015000
49.37744141,-90.21709000
49.40795898,-89.94736000
49.43847656,-91.32880000
49.46899414,-93.02917000
49.49951172,-95.04652000
49.53002930,-97.24672000
49.56054688,-102.25930000
49.59106445,-106.70470000
49.62158203,-94.94397000
49.65209961,-90.24721000
49.68261719,-88.59015000
49.71313477,-89.96239000
49.74365234,-96.30354000
49.77416992,-111.18090000
49.80468750,-99.12260000
49.83520508,-96.99245000
49.86572266,-93.91917000
49.89624023,-93.12534000
49.92675781,-95.43726000
49.95727539,-101.21080000
49.98779297,-98.68458000
50.01831055,-92.88965000
