Frequency,Channel A
(MHz),(dBu)

0.00000000,-28.87806000
0.03051758,-29.19225000
0.06103516,-34.13821000
0.09155273,-43.06251000
0.12207031,-58.48819000
0.15258789,-65.38596000
0.18310547,-59.76385000
0.21362305,-58.71942000
0.24414063,-61.35537000
0.27465820,-66.27682000
0.30517578,-66.85381000
0.33569336,-62.24728000
0.36621094,-58.65130000
0.39672852,-58.50885000
0.42724609,-61.33316000
0.45776367,-61.47918000
0.48828125,-62.17946000
0.51879883,-63.95855000
0.54931641,-65.91878000
0.57983398,-60.26060000
0.61035156,-49.96674000
0.64086914,-45.67152000
0.67138672,-45.04217000
0.70190430,-47.75845000
0.73242188,-54.44627000
0.76293945,-65.17747000
0.79345703,-64.17258000
0.82397461,-63.60439000
0.85449219,-63.05872000
0.88500977,-62.87465000
0.91552734,-69.55820000
0.94604492,-69.75697000
0.97656250,-64.25434000
1.00708008,-65.86772000
1.03759766,-63.74771000
1.06811523,-61.17373000
1.09863281,-62.37749000
1.12915039,-67.39935000
1.15966797,-73.43176000
1.19018555,-71.33928000
1.22070313,-70.15081000
1.25122070,-70.60589000
1.28173828,-73.61348000
1.31225586,-70.24387000
1.34277344,-65.86441000
1.37329102,-65.22410000
1.40380859,-67.97527000
1.43432617,-77.29724000
1.46484375,-79.02564000
1.49536133,-73.52575000
1.52587891,-72.73578000
1.55639648,-68.63690000
1.58691406,-67.09411000
1.61743164,-69.08433000
1.64794922,-75.46817000
1.67846680,-78.20191000
1.70898438,-71.98171000
1.73950195,-72.54254000
1.77001953,-80.54488000
1.80053711,-79.43642000
1.83105469,-78.63075000
1.86157227,-88.28194000
1.89208984,-75.02439000
1.92260742,-71.67963000
1.95312500,-73.28736000
1.98364258,-78.29140000
2.01416016,-72.19745000
2.04467773,-70.49908000
2.07519531,-76.61019000
2.10571289,-76.60538000
2.13623047,-72.15703000
2.16674805,-78.01578000
2.19726563,-76.04035000
2.22778320,-72.32192000
2.25830078,-77.77791000
2.28881836,-87.79804000
2.31933594,-78.70529000
2.34985352,-75.07219000
2.38037109,-72.02380000
2.41088867,-71.52319000
2.44140625,-72.86832000
2.47192383,-79.74100000
2.50244141,-75.21490000
2.53295898,-69.04773000
2.56347656,-68.57140000
2.59399414,-72.46487000
2.62451172,-86.70821000
2.65502930,-79.80511000
2.68554688,-77.52498000
2.71606445,-79.69064000
2.74658203,-75.72816000
2.77709961,-74.64728000
2.80761719,-79.34843000
2.83813477,-81.32203000
2.86865234,-73.21267000
2.89916992,-71.69635000
2.92968750,-76.11427000
2.96020508,-79.08717000
2.99072266,-72.34321000
3.02124023,-73.48715000
3.05175781,-88.61213000
3.08227539,-75.49571000
3.11279297,-71.94285000
3.14331055,-71.32437000
3.17382813,-70.55341000
3.20434570,-71.31074000
3.23486328,-75.08611000
3.26538086,-86.06702000
3.29589844,-79.01747000
3.32641602,-71.33683000
3.35693359,-69.62141000
3.38745117,-72.59793000
3.41796875,-89.13247000
3.44848633,-75.30727000
3.47900391,-71.07093000
3.50952148,-73.14471000
3.54003906,-87.11410000
3.57055664,-74.90581000
3.60107422,-71.46135000
3.63159180,-71.66727000
3.66210938,-72.91356000
3.69262695,-75.75408000
3.72314453,-81.14060000
3.75366211,-74.64207000
3.78417969,-70.86398000
3.81469727,-71.31570000
3.84521484,-76.26253000
3.87573242,-80.87318000
3.90625000,-74.13263000
3.93676758,-71.65575000
3.96728516,-71.69519000
3.99780273,-73.31769000
4.02832031,-75.15510000
4.05883789,-77.58384000
4.08935547,-82.37037000
4.11987305,-73.22538000
4.15039063,-69.21647000
4.18090820,-70.21493000
4.21142578,-79.53806000
4.24194336,-77.16899000
4.27246094,-71.62245000
4.30297852,-73.42263000
4.33349609,-82.55784000
4.36401367,-77.33763000
4.39453125,-73.39367000
4.42504883,-72.47266000
4.45556641,-72.88829000
4.48608398,-75.42139000
4.51660156,-78.32502000
4.54711914,-78.57141000
4.57763672,-80.93681000
4.60815430,-78.21792000
4.63867188,-73.95036000
4.66918945,-72.86617000
4.69970703,-74.38559000
4.73022461,-75.57000000
4.76074219,-73.30870000
4.79125977,-72.09964000
4.82177734,-73.42198000
4.85229492,-77.96254000
4.88281250,-78.64777000
4.91333008,-74.56803000
4.94384766,-73.92612000
4.97436523,-74.37541000
5.00488281,-75.20585000
5.03540039,-79.40373000
5.06591797,-81.47400000
5.09643555,-74.94571000
5.12695313,-73.29918000
5.15747070,-75.61467000
5.18798828,-80.53119000
5.21850586,-81.37126000
5.24902344,-82.09962000
5.27954102,-83.10675000
5.31005859,-83.21432000
5.34057617,-85.59763000
5.37109375,-89.77798000
5.40161133,-90.71395000
5.43212891,-86.38306000
5.46264648,-82.33360000
5.49316406,-81.53584000
5.52368164,-86.25382000
5.55419922,-85.17147000
5.58471680,-76.53802000
5.61523438,-72.86596000
5.64575195,-71.26611000
5.67626953,-69.92780000
5.70678711,-68.72904000
5.73730469,-68.57458000
5.76782227,-69.38713000
5.79833984,-70.41022000
5.82885742,-69.77020000
5.85937500,-67.93982000
5.88989258,-67.70947000
5.92041016,-69.44637000
5.95092773,-69.92349000
5.98144531,-68.34420000
6.01196289,-68.64072000
6.04248047,-71.15736000
6.07299805,-72.14530000
6.10351563,-71.01411000
6.13403320,-71.06061000
6.16455078,-71.51041000
6.19506836,-71.19923000
6.22558594,-71.28328000
6.25610352,-72.82340000
6.28662109,-75.59064000
6.31713867,-78.09374000
6.34765625,-78.01641000
6.37817383,-77.26295000
6.40869141,-77.38188000
6.43920898,-76.85719000
6.46972656,-76.76401000
6.50024414,-78.76532000
6.53076172,-81.07463000
6.56127930,-80.57777000
6.59179688,-78.42947000
6.62231445,-76.83836000
6.65283203,-78.10812000
6.68334961,-84.26235000
6.71386719,-94.85641000
6.74438477,-88.48550000
6.77490234,-90.43866000
6.80541992,-84.63837000
6.83593750,-80.78337000
6.86645508,-80.33311000
6.89697266,-81.43971000
6.92749023,-81.18118000
6.95800781,-80.38692000
6.98852539,-79.37601000
7.01904297,-78.28510000
7.04956055,-78.67591000
7.08007813,-80.28247000
7.11059570,-82.49298000
7.14111328,-87.16987000
7.17163086,-90.39774000
7.20214844,-87.11732000
7.23266602,-88.77960000
7.26318359,-92.50841000
7.29370117,-84.62675000
7.32421875,-81.28700000
7.35473633,-81.31541000
7.38525391,-83.37280000
7.41577148,-85.55846000
7.44628906,-86.14770000
7.47680664,-87.06329000
7.50732422,-88.13528000
7.53784180,-89.12652000
7.56835938,-94.54964000
7.59887695,-102.61830000
7.62939453,-89.91484000
7.65991211,-83.83340000
7.69042969,-80.43262000
7.72094727,-79.64352000
7.75146484,-81.32529000
7.78198242,-85.41641000
7.81250000,-87.92988000
7.84301758,-85.08342000
7.87353516,-84.17316000
7.90405273,-84.81374000
7.93457031,-84.65743000
7.96508789,-83.01171000
7.99560547,-81.60330000
8.02612305,-82.14017000
8.05664063,-84.64503000
8.08715820,-86.20854000
8.11767578,-86.76591000
8.14819336,-88.46978000
8.17871094,-90.45567000
8.20922852,-91.93880000
8.23974609,-92.06909000
8.27026367,-92.72450000
8.30078125,-90.66171000
8.33129883,-87.94189000
8.36181641,-87.88006000
8.39233398,-89.53485000
8.42285156,-91.21929000
8.45336914,-93.67840000
8.48388672,-96.16629000
8.51440430,-92.87706000
8.54492188,-91.75096000
8.57543945,-93.43971000
8.60595703,-90.50164000
8.63647461,-86.08578000
8.66699219,-84.09374000
8.69750977,-84.69408000
8.72802734,-87.53770000
8.75854492,-90.81857000
8.78906250,-90.97385000
8.81958008,-88.94510000
8.85009766,-88.61800000
8.88061523,-88.77083000
8.91113281,-88.92308000
8.94165039,-92.55669000
8.97216797,-114.53600000
9.00268555,-93.34718000
9.03320313,-90.95985000
9.06372070,-93.93431000
9.09423828,-102.37210000
9.12475586,-105.64810000
9.15527344,-100.27540000
9.18579102,-101.83790000
9.21630859,-99.22157000
9.24682617,-93.67031000
9.27734375,-93.31672000
9.30786133,-98.95466000
9.33837891,-110.80460000
9.36889648,-110.64440000
9.39941406,-94.53635000
9.42993164,-89.32106000
9.46044922,-89.76620000
9.49096680,-91.09769000
9.52148438,-87.22813000
9.55200195,-86.32951000
9.58251953,-90.58707000
9.61303711,-101.18910000
9.64355469,-89.75312000
9.67407227,-88.10612000
9.70458984,-91.15253000
9.73510742,-89.29302000
9.76562500,-86.27654000
9.79614258,-87.49394000
9.82666016,-90.02325000
9.85717773,-94.20432000
9.88769531,-92.95226000
9.91821289,-86.21903000
9.94873047,-85.88363000
9.97924805,-86.88911000
10.00976563,-85.14851000
10.04028320,-87.22742000
10.07080078,-101.50680000
10.10131836,-87.45995000
10.13183594,-83.93761000
10.16235352,-84.24548000
10.19287109,-85.32716000
10.22338867,-86.04610000
10.25390625,-88.00781000
10.28442383,-86.67286000
10.31494141,-82.72653000
10.34545898,-81.67182000
10.37597656,-83.46329000
10.40649414,-87.61511000
10.43701172,-93.55011000
10.46752930,-90.09599000
10.49804688,-89.03434000
10.52856445,-95.47176000
10.55908203,-90.42055000
10.58959961,-88.94780000
10.62011719,-97.97242000
10.65063477,-89.85529000
10.68115234,-85.90173000
10.71166992,-85.33878000
10.74218750,-85.92896000
10.77270508,-88.17016000
10.80322266,-92.68854000
10.83374023,-98.68465000
10.86425781,-102.57020000
10.89477539,-102.81570000
10.92529297,-96.11165000
10.95581055,-88.16495000
10.98632813,-83.09436000
11.01684570,-81.07703000
11.04736328,-81.54110000
11.07788086,-83.78661000
11.10839844,-87.90556000
11.13891602,-99.44138000
11.16943359,-95.34003000
11.19995117,-90.28695000
11.23046875,-88.88314000
11.26098633,-84.51172000
11.29150391,-81.12250000
11.32202148,-81.44431000
11.35253906,-88.14107000
11.38305664,-95.76248000
11.41357422,-87.69406000
11.44409180,-86.08605000
11.47460938,-85.08253000
11.50512695,-88.78719000
11.53564453,-86.86809000
11.56616211,-84.42470000
11.59667969,-87.82493000
11.62719727,-82.64220000
11.65771484,-79.37035000
11.68823242,-80.33846000
11.71875000,-82.39980000
11.74926758,-81.06208000
11.77978516,-76.96463000
11.81030273,-73.76113000
11.84082031,-73.27275000
11.87133789,-76.27745000
11.90185547,-85.67257000
11.93237305,-91.91707000
11.96289063,-86.34657000
11.99340820,-83.97935000
12.02392578,-79.23212000
12.05444336,-77.56588000
12.08496094,-78.87302000
12.11547852,-82.36012000
12.14599609,-87.27556000
12.17651367,-90.71366000
12.20703125,-92.54970000
12.23754883,-95.78468000
12.26806641,-91.63676000
12.29858398,-93.27491000
12.32910156,-92.87529000
12.35961914,-89.68288000
12.39013672,-89.14791000
12.42065430,-88.75253000
12.45117188,-88.90228000
12.48168945,-93.49947000
12.51220703,-93.01067000
12.54272461,-82.61415000
12.57324219,-79.46924000
12.60375977,-80.03278000
12.63427734,-84.19341000
12.66479492,-95.94433000
12.69531250,-91.66570000
12.72583008,-86.49414000
12.75634766,-84.34081000
12.78686523,-85.18423000
12.81738281,-89.86543000
12.84790039,-84.06615000
12.87841797,-80.28769000
12.90893555,-79.91824000
12.93945313,-81.17419000
12.96997070,-82.18430000
13.00048828,-82.76982000
13.03100586,-85.98378000
13.06152344,-103.54900000
13.09204102,-90.19420000
13.12255859,-91.04290000
13.15307617,-93.64099000
13.18359375,-83.89180000
13.21411133,-82.80359000
13.24462891,-87.01607000
13.27514648,-99.60163000
13.30566406,-96.02985000
13.33618164,-86.17379000
13.36669922,-79.95667000
13.39721680,-76.58263000
13.42773438,-75.66819000
13.45825195,-75.97932000
13.48876953,-73.62412000
13.51928711,-69.70514000
13.54980469,-67.66387000
13.58032227,-67.98650000
13.61083984,-70.14039000
13.64135742,-73.12266000
13.67187500,-76.89370000
13.70239258,-79.33336000
13.73291016,-75.29300000
13.76342773,-74.12194000
13.79394531,-77.37244000
13.82446289,-83.68948000
13.85498047,-83.38103000
13.88549805,-83.96275000
13.91601563,-86.36499000
13.94653320,-86.18361000
13.97705078,-84.62280000
14.00756836,-81.76727000
14.03808594,-80.30656000
14.06860352,-82.01332000
14.09912109,-86.71133000
14.12963867,-87.13375000
14.16015625,-85.56699000
14.19067383,-86.04834000
14.22119141,-87.35213000
14.25170898,-87.63080000
14.28222656,-84.26482000
14.31274414,-81.19434000
14.34326172,-81.09677000
14.37377930,-84.04662000
14.40429688,-88.61993000
14.43481445,-95.26618000
14.46533203,-114.35070000
14.49584961,-109.18210000
14.52636719,-94.11726000
14.55688477,-86.66542000
14.58740234,-83.88233000
14.61791992,-82.26749000
14.64843750,-80.44099000
14.67895508,-79.92072000
14.70947266,-81.91782000
14.73999023,-86.98091000
14.77050781,-96.80872000
14.80102539,-97.39432000
14.83154297,-90.18513000
14.86206055,-86.53381000
14.89257813,-84.72928000
14.92309570,-84.97911000
14.95361328,-88.84392000
14.98413086,-101.16000000
15.01464844,-88.76132000
15.04516602,-85.85316000
15.07568359,-85.40943000
15.10620117,-84.71710000
15.13671875,-86.70712000
15.16723633,-90.40417000
15.19775391,-78.98021000
15.22827148,-73.94965000
15.25878906,-72.86406000
15.28930664,-75.12147000
15.31982422,-80.65739000
15.35034180,-87.17171000
15.38085938,-88.83279000
15.41137695,-87.88174000
15.44189453,-86.57874000
15.47241211,-85.12845000
15.50292969,-83.71486000
15.53344727,-82.77648000
15.56396484,-82.90996000
15.59448242,-85.47649000
15.62500000,-93.35153000
15.65551758,-106.41430000
15.68603516,-98.05271000
15.71655273,-94.87466000
15.74707031,-90.89946000
15.77758789,-90.39265000
15.80810547,-92.38239000
15.83862305,-96.49960000
15.86914063,-105.41490000
15.89965820,-104.70230000
15.93017578,-100.59740000
15.96069336,-93.38477000
15.99121094,-90.63702000
16.02172852,-92.60117000
16.05224609,-93.84032000
16.08276367,-91.01784000
16.11328125,-93.41778000
16.14379883,-96.30154000
16.17431641,-89.16579000
16.20483398,-88.17440000
16.23535156,-90.83592000
16.26586914,-90.74225000
16.29638672,-90.41515000
16.32690430,-95.79581000
16.35742188,-98.99493000
16.38793945,-91.33887000
16.41845703,-89.21265000
16.44897461,-89.22134000
16.47949219,-90.35417000
16.51000977,-91.71676000
16.54052734,-92.79599000
16.57104492,-92.62391000
16.60156250,-90.93769000
16.63208008,-89.73106000
16.66259766,-89.78900000
16.69311523,-90.58081000
16.72363281,-91.10684000
16.75415039,-91.55962000
16.78466797,-92.14797000
16.81518555,-93.07057000
16.84570313,-96.17619000
16.87622070,-98.53192000
16.90673828,-92.39906000
16.93725586,-90.50844000
16.96777344,-92.46098000
16.99829102,-94.32617000
17.02880859,-93.97255000
17.05932617,-95.29698000
17.08984375,-96.54556000
17.12036133,-97.00614000
17.15087891,-96.03856000
17.18139648,-97.24730000
17.21191406,-98.72413000
17.24243164,-92.41109000
17.27294922,-90.12643000
17.30346680,-91.27708000
17.33398438,-94.69983000
17.36450195,-101.51790000
17.39501953,-105.83650000
17.42553711,-99.17195000
17.45605469,-100.62320000
17.48657227,-97.32803000
17.51708984,-90.91216000
17.54760742,-89.80080000
17.57812500,-95.05387000
17.60864258,-104.84350000
17.63916016,-94.13759000
17.66967773,-89.18270000
17.70019531,-82.67892000
17.73071289,-80.22320000
17.76123047,-82.68950000
17.79174805,-95.37956000
17.82226563,-89.12431000
17.85278320,-87.76920000
17.88330078,-94.49437000
17.91381836,-107.40690000
17.94433594,-104.22640000
17.97485352,-93.73208000
18.00537109,-89.04842000
18.03588867,-88.59491000
18.06640625,-90.77641000
18.09692383,-94.09340000
18.12744141,-95.15994000
18.15795898,-95.70358000
18.18847656,-101.73550000
18.21899414,-105.04040000
18.24951172,-94.71629000
18.28002930,-90.67128000
18.31054688,-88.94912000
18.34106445,-88.71950000
18.37158203,-89.30016000
18.40209961,-90.64353000
18.43261719,-93.24509000
18.46313477,-96.45855000
18.49365234,-96.17339000
18.52416992,-93.30878000
18.55468750,-91.79772000
18.58520508,-92.42596000
18.61572266,-95.55209000
18.64624023,-102.21060000
18.67675781,-106.44130000
18.70727539,-109.85130000
18.73779297,-106.53110000
18.76831055,-100.50980000
18.79882813,-100.34460000
18.82934570,-102.02620000
18.85986328,-100.38360000
18.89038086,-99.94078000
18.92089844,-104.49530000
18.95141602,-113.28410000
18.98193359,-104.29310000
19.01245117,-102.21930000
19.04296875,-100.53670000
19.07348633,-98.94255000
19.10400391,-100.06000000
19.13452148,-103.42260000
19.16503906,-99.30569000
19.19555664,-97.87134000
19.22607422,-102.85550000
19.25659180,-107.40170000
19.28710938,-100.52600000
19.31762695,-100.74980000
19.34814453,-104.64370000
19.37866211,-106.40010000
19.40917969,-99.74071000
19.43969727,-96.89326000
19.47021484,-98.27084000
19.50073242,-103.02300000
19.53125000,-104.60700000
19.56176758,-99.99818000
19.59228516,-98.38387000
19.62280273,-101.88560000
19.65332031,-112.02460000
19.68383789,-108.52860000
19.71435547,-99.87472000
19.74487305,-97.44037000
19.77539063,-99.22014000
19.80590820,-98.36434000
19.83642578,-95.05391000
19.86694336,-94.30531000
19.89746094,-95.70268000
19.92797852,-97.92556000
19.95849609,-101.42980000
19.98901367,-105.28200000
20.01953125,-95.51041000
20.05004883,-91.36230000
20.08056641,-89.81442000
20.11108398,-89.16996000
20.14160156,-89.15538000
20.17211914,-90.78635000
20.20263672,-96.86614000
20.23315430,-104.43700000
20.26367188,-93.45953000
20.29418945,-91.20795000
20.32470703,-92.47369000
20.35522461,-96.42183000
20.38574219,-95.68904000
20.41625977,-91.89491000
20.44677734,-89.21691000
20.47729492,-86.91530000
20.50781250,-85.96825000
20.53833008,-87.38491000
20.56884766,-91.79306000
20.59936523,-94.82037000
20.62988281,-92.97513000
20.66040039,-95.77841000
20.69091797,-111.56460000
20.72143555,-99.64720000
20.75195313,-97.78322000
20.78247070,-96.49291000
20.81298828,-93.46943000
20.84350586,-91.56172000
20.87402344,-90.05576000
20.90454102,-88.72979000
20.93505859,-88.55602000
20.96557617,-90.31666000
20.99609375,-93.56061000
21.02661133,-96.07449000
21.05712891,-99.04179000
21.08764648,-108.72620000
21.11816406,-97.25987000
21.14868164,-90.92721000
21.17919922,-88.94151000
21.20971680,-89.61438000
21.24023438,-92.01402000
21.27075195,-96.10847000
21.30126953,-101.93660000
21.33178711,-103.87640000
21.36230469,-106.84550000
21.39282227,-101.75560000
21.42333984,-100.94040000
21.45385742,-93.50371000
21.48437500,-88.94654000
21.51489258,-88.40203000
21.54541016,-90.78658000
21.57592773,-94.57168000
21.60644531,-94.85851000
21.63696289,-92.58162000
21.66748047,-92.81442000
21.69799805,-98.68817000
21.72851563,-97.69743000
21.75903320,-90.85432000
21.78955078,-89.93873000
21.82006836,-92.52213000
21.85058594,-96.63206000
21.88110352,-96.88475000
21.91162109,-92.00829000
21.94213867,-88.53812000
21.97265625,-88.02458000
22.00317383,-90.49249000
22.03369141,-95.12512000
22.06420898,-97.49390000
22.09472656,-95.03434000
22.12524414,-93.25031000
22.15576172,-94.39780000
22.18627930,-96.96990000
22.21679688,-96.36437000
22.24731445,-94.73930000
22.27783203,-94.55661000
22.30834961,-97.19012000
22.33886719,-103.82750000
22.36938477,-104.15530000
22.39990234,-100.57720000
22.43041992,-105.03760000
22.46093750,-103.41500000
22.49145508,-93.73560000
22.52197266,-91.14870000
22.55249023,-91.79427000
22.58300781,-94.88094000
22.61352539,-100.54920000
22.64404297,-102.46040000
22.67456055,-101.54570000
22.70507813,-105.46050000
22.73559570,-106.45990000
22.76611328,-105.72150000
22.79663086,-97.13845000
22.82714844,-91.09975000
22.85766602,-89.60411000
22.88818359,-92.48165000
22.91870117,-102.83600000
22.94921875,-105.70160000
22.97973633,-101.54280000
23.01025391,-104.56260000
23.04077148,-106.31040000
23.07128906,-98.73402000
23.10180664,-94.33408000
23.13232422,-93.55441000
23.16284180,-94.29947000
23.19335938,-94.16652000
23.22387695,-95.05093000
23.25439453,-98.47561000
23.28491211,-104.19180000
23.31542969,-104.95030000
23.34594727,-101.88780000
23.37646484,-100.01120000
23.40698242,-96.51145000
23.43750000,-95.32115000
23.46801758,-98.63221000
23.49853516,-96.99948000
23.52905273,-94.29809000
23.55957031,-97.20631000
23.59008789,-101.95390000
23.62060547,-102.00700000
23.65112305,-116.08800000
23.68164063,-97.72083000
23.71215820,-93.70251000
23.74267578,-94.38762000
23.77319336,-101.07230000
23.80371094,-102.86930000
23.83422852,-93.38280000
23.86474609,-91.83151000
23.89526367,-95.60747000
23.92578125,-103.02060000
23.95629883,-94.33758000
23.98681641,-91.27648000
24.01733398,-91.07842000
24.04785156,-92.75009000
24.07836914,-96.86530000
24.10888672,-102.80990000
24.13940430,-102.44510000
24.16992188,-105.99020000
24.20043945,-109.31910000
24.23095703,-102.03480000
24.26147461,-100.53260000
24.29199219,-102.38570000
24.32250977,-108.61820000
24.35302734,-105.47760000
24.38354492,-103.38970000
24.41406250,-102.37650000
24.44458008,-99.32915000
24.47509766,-102.15890000
24.50561523,-123.41510000
24.53613281,-103.53230000
24.56665039,-98.35427000
24.59716797,-93.49979000
24.62768555,-92.23543000
24.65820313,-94.37169000
24.68872070,-97.16514000
24.71923828,-97.12741000
24.74975586,-96.77676000
24.78027344,-92.55560000
24.81079102,-88.49651000
24.84130859,-86.75504000
24.87182617,-86.96362000
24.90234375,-88.21667000
24.93286133,-89.15492000
24.96337891,-89.69606000
24.99389648,-91.46766000
25.02441406,-94.64944000
25.05493164,-93.04239000
25.08544922,-90.27394000
25.11596680,-89.09549000
25.14648438,-88.45818000
25.17700195,-88.16045000
25.20751953,-88.91354000
25.23803711,-91.02856000
25.26855469,-93.67896000
25.29907227,-96.79466000
25.32958984,-100.33970000
25.36010742,-101.62610000
25.39062500,-107.93260000
25.42114258,-115.43910000
25.45166016,-106.32170000
25.48217773,-92.49509000
25.51269531,-87.39761000
25.54321289,-86.72107000
25.57373047,-90.02916000
25.60424805,-97.55225000
25.63476563,-92.82529000
25.66528320,-88.90189000
25.69580078,-88.03143000
25.72631836,-87.46664000
25.75683594,-86.03713000
25.78735352,-85.40409000
25.81787109,-86.37297000
25.84838867,-89.21954000
25.87890625,-93.63748000
25.90942383,-98.87424000
25.93994141,-105.64810000
25.97045898,-99.09781000
26.00097656,-97.21863000
26.03149414,-100.78840000
26.06201172,-115.66110000
26.09252930,-100.95490000
26.12304688,-96.96658000
26.15356445,-95.55663000
26.18408203,-95.06378000
26.21459961,-93.45925000
26.24511719,-92.59858000
26.27563477,-94.36108000
26.30615234,-95.70283000
26.33666992,-93.60504000
26.36718750,-93.35780000
26.39770508,-95.07931000
26.42822266,-95.66945000
26.45874023,-95.28703000
26.48925781,-92.71523000
26.51977539,-89.63310000
26.55029297,-88.37849000
26.58081055,-88.83160000
26.61132813,-90.98824000
26.64184570,-96.16458000
26.67236328,-104.93950000
26.70288086,-108.77150000
26.73339844,-108.20350000
26.76391602,-101.81470000
26.79443359,-99.61478000
26.82495117,-91.82465000
26.85546875,-89.63676000
26.88598633,-92.78565000
26.91650391,-102.16400000
26.94702148,-97.11402000
26.97753906,-94.01852000
27.00805664,-92.46747000
27.03857422,-90.96549000
27.06909180,-89.06064000
27.09960938,-87.23341000
27.13012695,-85.96531000
27.16064453,-85.68193000
27.19116211,-86.95967000
27.22167969,-90.35049000
27.25219727,-96.86841000
27.28271484,-105.18910000
27.31323242,-97.50462000
27.34375000,-93.52609000
27.37426758,-92.08572000
27.40478516,-91.40866000
27.43530273,-89.78038000
27.46582031,-87.95319000
27.49633789,-87.10323000
27.52685547,-87.32375000
27.55737305,-88.44445000
27.58789063,-90.76791000
27.61840820,-95.49973000
27.64892578,-99.08759000
27.67944336,-94.95950000
27.70996094,-95.74502000
27.74047852,-97.51776000
27.77099609,-93.73928000
27.80151367,-94.33586000
27.83203125,-101.03830000
27.86254883,-99.84674000
27.89306641,-98.77979000
27.92358398,-97.71761000
27.95410156,-91.92294000
27.98461914,-89.69304000
28.01513672,-91.01292000
28.04565430,-95.24965000
28.07617188,-94.21159000
28.10668945,-91.55853000
28.13720703,-91.70285000
28.16772461,-92.90269000
28.19824219,-92.55734000
28.22875977,-91.22379000
28.25927734,-90.92456000
28.28979492,-91.84679000
28.32031250,-92.38519000
28.35083008,-92.03469000
28.38134766,-92.61997000
28.41186523,-95.12106000
28.44238281,-99.83840000
28.47290039,-106.71490000
28.50341797,-111.41700000
28.53393555,-106.63530000
28.56445313,-101.10840000
28.59497070,-99.07809000
28.62548828,-103.94510000
28.65600586,-102.43420000
28.68652344,-93.42903000
28.71704102,-90.04355000
28.74755859,-88.76807000
28.77807617,-88.64395000
28.80859375,-89.05902000
28.83911133,-88.91014000
28.86962891,-88.15421000
28.90014648,-88.24027000
28.93066406,-89.75522000
28.96118164,-91.66940000
28.99169922,-92.33348000
29.02221680,-92.57298000
29.05273438,-93.95012000
29.08325195,-99.45507000
29.11376953,-98.14713000
29.14428711,-90.03925000
29.17480469,-87.66341000
29.20532227,-88.67319000
29.23583984,-92.12345000
29.26635742,-95.06039000
29.29687500,-93.56265000
29.32739258,-91.74889000
29.35791016,-92.42137000
29.38842773,-98.04671000
29.41894531,-109.49090000
29.44946289,-98.33038000
29.47998047,-98.79703000
29.51049805,-100.67180000
29.54101563,-99.13727000
29.57153320,-100.04800000
29.60205078,-102.75970000
29.63256836,-105.05950000
29.66308594,-105.07370000
29.69360352,-100.42470000
29.72412109,-96.42895000
29.75463867,-93.90453000
29.78515625,-91.74198000
29.81567383,-90.06133000
29.84619141,-89.74899000
29.87670898,-91.07939000
29.90722656,-94.18843000
29.93774414,-98.86711000
29.96826172,-96.64893000
29.99877930,-92.16534000
30.02929688,-90.20363000
30.05981445,-90.31557000
30.09033203,-92.14450000
30.12084961,-94.57383000
30.15136719,-95.56800000
30.18188477,-96.83412000
30.21240234,-100.87250000
30.24291992,-104.66960000
30.27343750,-103.77380000
30.30395508,-103.02550000
30.33447266,-100.12760000
30.36499023,-97.00095000
30.39550781,-95.86815000
30.42602539,-96.07791000
30.45654297,-94.57567000
30.48706055,-93.10605000
30.51757813,-93.62112000
30.54809570,-96.15455000
30.57861328,-99.00336000
30.60913086,-95.85046000
30.63964844,-91.57906000
30.67016602,-89.35947000
30.70068359,-89.16091000
30.73120117,-90.78194000
30.76171875,-93.73950000
30.79223633,-96.83943000
30.82275391,-97.11629000
30.85327148,-92.94099000
30.88378906,-89.70016000
30.91430664,-88.73465000
30.94482422,-89.38348000
30.97534180,-89.20650000
31.00585938,-87.61745000
31.03637695,-87.68394000
31.06689453,-90.65564000
31.09741211,-96.73722000
31.12792969,-105.61090000
31.15844727,-117.10310000
31.18896484,-118.56140000
31.21948242,-101.98190000
31.25000000,-95.50241000
31.28051758,-93.27531000
31.31103516,-95.15089000
31.34155273,-105.84540000
31.37207031,-100.43180000
31.40258789,-93.29018000
31.43310547,-90.83647000
31.46362305,-91.22398000
31.49414063,-93.46703000
31.52465820,-93.65010000
31.55517578,-91.55614000
31.58569336,-90.94385000
31.61621094,-94.08767000
31.64672852,-106.12190000
31.67724609,-94.56010000
31.70776367,-90.89398000
31.73828125,-91.17705000
31.76879883,-93.65771000
31.79931641,-95.87968000
31.82983398,-93.82317000
31.86035156,-90.89507000
31.89086914,-90.51182000
31.92138672,-93.63461000
31.95190430,-99.30502000
31.98242188,-97.33308000
32.01293945,-94.93318000
32.04345703,-93.78424000
32.07397461,-93.38395000
32.10449219,-94.78562000
32.13500977,-97.19792000
32.16552734,-93.10164000
32.19604492,-89.34093000
32.22656250,-88.33258000
32.25708008,-89.75125000
32.28759766,-93.40263000
32.31811523,-97.22308000
32.34863281,-97.20150000
32.37915039,-96.37259000
32.40966797,-95.28350000
32.44018555,-93.56400000
32.47070313,-93.49936000
32.50122070,-97.41165000
32.53173828,-98.59776000
32.56225586,-92.40872000
32.59277344,-90.63149000
32.62329102,-92.33956000
32.65380859,-97.87327000
32.68432617,-98.15619000
32.71484375,-92.06771000
32.74536133,-90.55599000
32.77587891,-92.75896000
32.80639648,-95.68740000
32.83691406,-94.42992000
32.86743164,-93.46631000
32.89794922,-93.69699000
32.92846680,-94.80691000
32.95898438,-95.97061000
32.98950195,-96.34934000
33.02001953,-98.83218000
33.05053711,-101.23970000
33.08105469,-94.10229000
33.11157227,-91.09592000
33.14208984,-91.47585000
33.17260742,-94.71413000
33.20312500,-101.39610000
33.23364258,-101.84440000
33.26416016,-97.56068000
33.29467773,-97.22047000
33.32519531,-97.98019000
33.35571289,-96.71350000
33.38623047,-94.69802000
33.41674805,-92.62768000
33.44726563,-91.05804000
33.47778320,-90.71457000
33.50830078,-90.81971000
33.53881836,-89.05796000
33.56933594,-86.70923000
33.59985352,-85.63710000
33.63037109,-85.79692000
33.66088867,-86.50383000
33.69140625,-87.59090000
33.72192383,-89.81279000
33.75244141,-93.92911000
33.78295898,-96.83518000
33.81347656,-93.96216000
33.84399414,-92.71664000
33.87451172,-94.63234000
33.90502930,-96.05676000
33.93554688,-90.46364000
33.96606445,-86.70354000
33.99658203,-85.60542000
34.02709961,-87.15485000
34.05761719,-91.91608000
34.08813477,-94.30205000
34.11865234,-89.88433000
34.14916992,-87.80942000
34.17968750,-87.32730000
34.21020508,-87.44221000
34.24072266,-87.20287000
34.27124023,-86.67770000
34.30175781,-87.03667000
34.33227539,-87.86854000
34.36279297,-86.82629000
34.39331055,-85.41492000
34.42382813,-85.67000000
34.45434570,-87.87354000
34.48486328,-90.45678000
34.51538086,-89.97567000
34.54589844,-88.92242000
34.57641602,-88.94695000
34.60693359,-89.15427000
34.63745117,-88.07761000
34.66796875,-86.30217000
34.69848633,-85.44566000
34.72900391,-86.08929000
34.75952148,-87.98912000
34.79003906,-89.37382000
34.82055664,-88.24284000
34.85107422,-86.68034000
34.88159180,-86.33032000
34.91210938,-87.46739000
34.94262695,-89.41087000
34.97314453,-89.87016000
35.00366211,-88.70569000
35.03417969,-88.13186000
35.06469727,-89.12560000
35.09521484,-91.70113000
35.12573242,-92.71222000
35.15625000,-91.31150000
35.18676758,-91.63098000
35.21728516,-93.56933000
35.24780273,-93.10500000
35.27832031,-90.27184000
35.30883789,-88.02116000
35.33935547,-86.91080000
35.36987305,-87.14061000
35.40039063,-88.56110000
35.43090820,-89.80068000
35.46142578,-89.37294000
35.49194336,-88.43793000
35.52246094,-87.91985000
35.55297852,-88.10838000
35.58349609,-89.25782000
35.61401367,-90.57439000
35.64453125,-89.88331000
35.67504883,-88.39459000
35.70556641,-88.17277000
35.73608398,-89.70630000
35.76660156,-93.28563000
35.79711914,-99.43272000
35.82763672,-100.85430000
35.85815430,-95.96870000
35.88867188,-92.30099000
35.91918945,-89.66714000
35.94970703,-88.32454000
35.98022461,-88.62266000
36.01074219,-91.50474000
36.04125977,-102.27050000
36.07177734,-95.67890000
36.10229492,-89.48197000
36.13281250,-88.28778000
36.16333008,-89.28168000
36.19384766,-90.13954000
36.22436523,-90.02663000
36.25488281,-90.26210000
36.28540039,-91.15724000
36.31591797,-92.03377000
36.34643555,-93.46040000
36.37695313,-96.82400000
36.40747070,-98.89378000
36.43798828,-96.42945000
36.46850586,-94.63874000
36.49902344,-93.00441000
36.52954102,-90.91136000
36.56005859,-89.43208000
36.59057617,-89.86211000
36.62109375,-92.97395000
36.65161133,-95.33179000
36.68212891,-91.65879000
36.71264648,-89.09385000
36.74316406,-87.98869000
36.77368164,-87.87724000
36.80419922,-88.86730000
36.83471680,-90.43999000
36.86523438,-90.23660000
36.89575195,-89.17520000
36.92626953,-89.91032000
36.95678711,-93.19467000
36.98730469,-96.05298000
37.01782227,-93.25961000
37.04833984,-90.88917000
37.07885742,-89.39180000
37.10937500,-88.06779000
37.13989258,-87.68568000
37.17041016,-89.72687000
37.20092773,-96.67384000
37.23144531,-101.09020000
37.26196289,-94.16282000
37.29248047,-93.65688000
37.32299805,-96.89809000
37.35351563,-94.86205000
37.38403320,-89.72912000
37.41455078,-87.65266000
37.44506836,-87.68966000
37.47558594,-88.43784000
37.50610352,-89.14577000
37.53662109,-90.69206000
37.56713867,-92.24555000
37.59765625,-91.48518000
37.62817383,-90.85468000
37.65869141,-92.23769000
37.68920898,-96.13868000
37.71972656,-95.90562000
37.75024414,-91.47243000
37.78076172,-90.08345000
37.81127930,-91.30757000
37.84179688,-92.38585000
37.87231445,-90.94529000
37.90283203,-89.98219000
37.93334961,-89.17627000
37.96386719,-87.39486000
37.99438477,-86.22229000
38.02490234,-86.74371000
38.05541992,-89.12617000
38.08593750,-93.18467000
38.11645508,-97.83620000
38.14697266,-103.10140000
38.17749023,-104.88250000
38.20800781,-95.24438000
38.23852539,-91.67731000
38.26904297,-91.56538000
38.29956055,-94.43620000
38.33007813,-100.05440000
38.36059570,-100.93220000
38.39111328,-97.73858000
38.42163086,-94.90005000
38.45214844,-92.10994000
38.48266602,-90.26364000
38.51318359,-89.95742000
38.54370117,-91.07977000
38.57421875,-92.83004000
38.60473633,-93.52020000
38.63525391,-93.49432000
38.66577148,-96.68064000
38.69628906,-115.59090000
38.72680664,-94.55695000
38.75732422,-90.45921000
38.78784180,-89.07967000
38.81835938,-88.36107000
38.84887695,-87.92018000
38.87939453,-87.28537000
38.90991211,-86.38324000
38.94042969,-85.91434000
38.97094727,-86.26123000
39.00146484,-87.41988000
39.03198242,-89.56989000
39.06250000,-93.42746000
39.09301758,-100.77490000
39.12353516,-101.91240000
39.15405273,-95.12119000
39.18457031,-93.37088000
39.21508789,-96.12004000
39.24560547,-106.08060000
39.27612305,-96.81479000
39.30664063,-91.88638000
39.33715820,-90.72127000
39.36767578,-93.44966000
39.39819336,-104.78960000
39.42871094,-96.28702000
39.45922852,-93.61205000
39.48974609,-96.01451000
39.52026367,-101.42640000
39.55078125,-108.31200000
39.58129883,-107.33250000
39.61181641,-98.67102000
39.64233398,-93.45169000
39.67285156,-91.48213000
39.70336914,-91.85235000
39.73388672,-92.84336000
39.76440430,-92.60475000
39.79492188,-92.10530000
39.82543945,-92.65189000
39.85595703,-94.39030000
39.88647461,-101.11000000
39.91699219,-100.72210000
39.94750977,-92.20956000
39.97802734,-90.89607000
40.00854492,-92.80090000
40.03906250,-95.24593000
40.06958008,-95.61792000
40.10009766,-96.79310000
40.13061523,-99.31393000
40.16113281,-94.76918000
40.19165039,-93.97927000
40.22216797,-100.27130000
40.25268555,-101.90270000
40.28320313,-94.04668000
40.31372070,-91.69801000
40.34423828,-91.02252000
40.37475586,-90.15930000
40.40527344,-89.76696000
40.43579102,-91.49887000
40.46630859,-93.86334000
40.49682617,-95.39772000
40.52734375,-102.33030000
40.55786133,-93.85558000
40.58837891,-89.31636000
40.61889648,-88.86215000
40.64941406,-90.41486000
40.67993164,-92.19573000
40.71044922,-92.66699000
40.74096680,-93.86584000
40.77148438,-97.62677000
40.80200195,-99.46586000
40.83251953,-96.27430000
40.86303711,-93.55194000
40.89355469,-91.40423000
40.92407227,-88.81099000
40.95458984,-87.11487000
40.98510742,-88.51380000
41.01562500,-96.33224000
41.04614258,-101.37480000
41.07666016,-94.40001000
41.10717773,-96.73339000
41.13769531,-98.44327000
41.16821289,-94.78363000
41.19873047,-97.87500000
41.22924805,-110.31980000
41.25976563,-95.52926000
41.29028320,-91.86549000
41.32080078,-88.44863000
41.35131836,-85.92284000
41.38183594,-84.90907000
41.41235352,-85.09011000
41.44287109,-87.33913000
41.47338867,-93.92934000
41.50390625,-95.93401000
41.53442383,-92.27970000
41.56494141,-90.97324000
41.59545898,-90.90739000
41.62597656,-94.56572000
41.65649414,-103.90770000
41.68701172,-97.79289000
41.71752930,-95.37030000
41.74804688,-95.35301000
41.77856445,-94.47493000
41.80908203,-94.91486000
41.83959961,-92.34542000
41.87011719,-89.12619000
41.90063477,-88.47199000
41.93115234,-88.92242000
41.96166992,-89.50570000
41.99218750,-89.33670000
42.02270508,-87.83863000
42.05322266,-87.57636000
42.08374023,-88.48016000
42.11425781,-88.81336000
42.14477539,-89.18106000
42.17529297,-87.56618000
42.20581055,-86.34883000
42.23632813,-88.05733000
42.26684570,-92.64991000
42.29736328,-98.30962000
42.32788086,-90.66581000
42.35839844,-86.47796000
42.38891602,-86.09585000
42.41943359,-87.51329000
42.44995117,-88.30226000
42.48046875,-87.38806000
42.51098633,-86.99571000
42.54150391,-89.63135000
42.57202148,-94.38885000
42.60253906,-92.95248000
42.63305664,-93.23823000
42.66357422,-97.95989000
42.69409180,-105.82090000
42.72460938,-99.05782000
42.75512695,-96.96736000
42.78564453,-102.94880000
42.81616211,-89.21699000
42.84667969,-84.08398000
42.87719727,-84.02643000
42.90771484,-89.46522000
42.93823242,-102.65210000
42.96875000,-89.99046000
42.99926758,-86.82977000
43.02978516,-86.13979000
43.06030273,-88.13801000
43.09082031,-91.71441000
43.12133789,-91.57951000
43.15185547,-86.77208000
43.18237305,-83.26819000
43.21289063,-83.05091000
43.24340820,-86.25721000
43.27392578,-94.52005000
43.30444336,-92.95418000
43.33496094,-86.13631000
43.36547852,-84.09372000
43.39599609,-85.06690000
43.42651367,-87.86976000
43.45703125,-89.94446000
43.48754883,-89.88008000
43.51806641,-89.42067000
43.54858398,-90.02259000
43.57910156,-92.29415000
43.60961914,-94.80305000
43.64013672,-92.25566000
43.67065430,-89.99676000
43.70117188,-90.38879000
43.73168945,-92.03663000
43.76220703,-91.57738000
43.79272461,-90.21910000
43.82324219,-89.53285000
43.85375977,-88.97652000
43.88427734,-89.14673000
43.91479492,-91.27236000
43.94531250,-97.92568000
43.97583008,-101.50010000
44.00634766,-92.14880000
44.03686523,-90.42774000
44.06738281,-91.79356000
44.09790039,-92.67745000
44.12841797,-90.80908000
44.15893555,-87.87926000
44.18945313,-86.20071000
44.21997070,-86.71771000
44.25048828,-90.12421000
44.28100586,-98.99079000
44.31152344,-94.34135000
44.34204102,-89.55647000
44.37255859,-89.35440000
44.40307617,-92.04620000
44.43359375,-94.85325000
44.46411133,-93.15144000
44.49462891,-89.58333000
44.52514648,-88.06579000
44.55566406,-89.26553000
44.58618164,-94.14230000
44.61669922,-110.28740000
44.64721680,-92.11636000
44.67773438,-87.31316000
44.70825195,-86.51839000
44.73876953,-88.98483000
44.76928711,-93.72758000
44.79980469,-96.16607000
44.83032227,-96.96178000
44.86083984,-95.11235000
44.89135742,-93.82847000
44.92187500,-94.83972000
44.95239258,-96.91335000
44.98291016,-94.97804000
45.01342773,-91.46694000
45.04394531,-91.45001000
45.07446289,-95.08813000
45.10498047,-99.33389000
45.13549805,-94.69092000
45.16601563,-89.12077000
45.19653320,-87.04478000
45.22705078,-87.92009000
45.25756836,-89.83028000
45.28808594,-89.15939000
45.31860352,-88.01141000
45.34912109,-89.00786000
45.37963867,-93.02420000
45.41015625,-100.34080000
45.44067383,-104.58390000
45.47119141,-98.54468000
45.50170898,-93.23765000
45.53222656,-92.00299000
45.56274414,-93.58177000
45.59326172,-96.67969000
45.62377930,-101.50780000
45.65429688,-101.68850000
45.68481445,-96.00137000
45.71533203,-94.42333000
45.74584961,-95.19099000
45.77636719,-94.60938000
45.80688477,-91.69030000
45.83740234,-89.50696000
45.86791992,-89.61297000
45.89843750,-92.03952000
45.92895508,-96.35539000
45.95947266,-101.61170000
45.98999023,-97.08640000
46.02050781,-94.13972000
46.05102539,-96.61591000
46.08154297,-105.17550000
46.11206055,-100.36300000
46.14257813,-97.87701000
46.17309570,-98.30791000
46.20361328,-104.17760000
46.23413086,-107.68780000
46.26464844,-97.91635000
46.29516602,-93.83131000
46.32568359,-91.21896000
46.35620117,-90.28743000
46.38671875,-91.68024000
46.41723633,-94.78113000
46.44775391,-95.05294000
46.47827148,-93.61971000
46.50878906,-93.72301000
46.53930664,-95.17007000
46.56982422,-96.59029000
46.60034180,-98.34398000
46.63085938,-103.09100000
46.66137695,-96.04852000
46.69189453,-91.08176000
46.72241211,-90.77560000
46.75292969,-95.39878000
46.78344727,-102.51010000
46.81396484,-94.72846000
46.84448242,-92.00761000
46.87500000,-91.52264000
46.90551758,-92.21732000
46.93603516,-93.35041000
46.96655273,-94.69682000
46.99707031,-98.57562000
47.02758789,-104.45110000
47.05810547,-93.49529000
47.08862305,-89.52711000
47.11914063,-89.38086000
47.14965820,-91.93833000
47.18017578,-93.38510000
47.21069336,-92.58942000
47.24121094,-93.39148000
47.27172852,-94.67207000
47.30224609,-95.33554000
47.33276367,-97.63831000
47.36328125,-101.78560000
47.39379883,-101.03540000
47.42431641,-97.50466000
47.45483398,-94.19234000
47.48535156,-91.81870000
47.51586914,-91.67789000
47.54638672,-95.08308000
47.57690430,-103.56720000
47.60742188,-101.16120000
47.63793945,-101.19250000
47.66845703,-106.56730000
47.69897461,-100.20550000
47.72949219,-94.37546000
47.76000977,-92.04709000
47.79052734,-93.31310000
47.82104492,-99.30771000
47.85156250,-111.05040000
47.88208008,-105.02620000
47.91259766,-95.75381000
47.94311523,-92.82943000
47.97363281,-93.74352000
48.00415039,-95.85724000
48.03466797,-96.96002000
48.06518555,-98.92802000
48.09570313,-102.65800000
48.12622070,-100.30460000
48.15673828,-95.04956000
48.18725586,-93.76602000
48.21777344,-96.96548000
48.24829102,-107.10010000
48.27880859,-118.20880000
48.30932617,-106.47230000
48.33984375,-100.15090000
48.37036133,-98.44570000
48.40087891,-98.76289000
48.43139648,-99.55247000
48.46191406,-100.45140000
48.49243164,-103.26630000
48.52294922,-121.24380000
48.55346680,-101.53880000
48.58398438,-96.34576000
48.61450195,-94.37337000
48.64501953,-93.25468000
48.67553711,-92.23675000
48.70605469,-91.70605000
48.73657227,-92.27810000
48.76708984,-94.30421000
48.79760742,-99.11416000
48.82812500,-105.03220000
48.85864258,-95.33024000
48.88916016,-92.15542000
48.91967773,-92.34473000
48.95019531,-92.07867000
48.98071289,-88.83338000
49.01123047,-85.67535000
49.04174805,-84.67683000
49.07226563,-86.45384000
49.10278320,-91.50886000
49.13330078,-101.83970000
49.16381836,-103.64680000
49.19433594,-99.42245000
49.22485352,-97.76662000
49.25537109,-97.04240000
49.28588867,-97.35035000
49.31640625,-92.92902000
49.34692383,-89.20667000
49.37744141,-88.63998000
49.40795898,-90.66817000
49.43847656,-94.43368000
49.46899414,-98.84476000
49.49951172,-101.87340000
49.53002930,-101.30860000
49.56054688,-101.78130000
49.59106445,-104.73070000
49.62158203,-108.78160000
49.65209961,-102.54320000
49.68261719,-95.10880000
49.71313477,-92.60167000
49.74365234,-93.39683000
49.77416992,-97.00482000
49.80468750,-105.00460000
49.83520508,-105.74400000
49.86572266,-97.27234000
49.89624023,-95.06361000
49.92675781,-94.66724000
49.95727539,-93.50372000
49.98779297,-90.84698000
50.01831055,-87.94556000
