Frequency,Channel A
(MHz),(dBu)

0.00000000,-31.54256000
0.03051758,-31.87802000
0.06103516,-36.76207000
0.09155273,-44.51234000
0.12207031,-52.22407000
0.15258789,-57.24058000
0.18310547,-63.65855000
0.21362305,-68.26460000
0.24414063,-66.21845000
0.27465820,-63.74977000
0.30517578,-61.63007000
0.33569336,-61.13491000
0.36621094,-61.65314000
0.39672852,-58.96307000
0.42724609,-56.69083000
0.45776367,-57.29130000
0.48828125,-59.14156000
0.51879883,-58.80862000
0.54931641,-53.47070000
0.57983398,-48.44733000
0.61035156,-45.06380000
0.64086914,-43.06628000
0.67138672,-42.67473000
0.70190430,-44.31576000
0.73242188,-48.17056000
0.76293945,-53.74952000
0.79345703,-59.80787000
0.82397461,-64.36784000
0.85449219,-65.12784000
0.88500977,-67.18172000
0.91552734,-76.12281000
0.94604492,-65.50843000
0.97656250,-63.60808000
1.00708008,-69.50150000
1.03759766,-66.84548000
1.06811523,-62.75961000
1.09863281,-63.72791000
1.12915039,-67.16891000
1.15966797,-76.22361000
1.19018555,-74.16245000
1.22070313,-67.84792000
1.25122070,-69.01788000
1.28173828,-72.77528000
1.31225586,-68.30662000
1.34277344,-65.04716000
1.37329102,-66.12908000
1.40380859,-76.82639000
1.43432617,-70.40376000
1.46484375,-65.14625000
1.49536133,-66.46656000
1.52587891,-71.33081000
1.55639648,-72.88464000
1.58691406,-79.68787000
1.61743164,-73.20696000
1.64794922,-68.71457000
1.67846680,-68.87794000
1.70898438,-71.46262000
1.73950195,-76.68225000
1.77001953,-73.81544000
1.80053711,-71.47369000
1.83105469,-72.70540000
1.86157227,-74.34940000
1.89208984,-72.93281000
1.92260742,-69.52744000
1.95312500,-68.96588000
1.98364258,-73.93541000
2.01416016,-73.43713000
2.04467773,-67.80356000
2.07519531,-68.29166000
2.10571289,-75.15521000
2.13623047,-75.84830000
2.16674805,-69.63987000
2.19726563,-67.80595000
2.22778320,-68.32700000
2.25830078,-71.11397000
2.28881836,-74.12672000
2.31933594,-74.69486000
2.34985352,-74.87103000
2.38037109,-71.99685000
2.41088867,-71.00311000
2.44140625,-74.71832000
2.47192383,-84.31629000
2.50244141,-77.61069000
2.53295898,-73.96568000
2.56347656,-71.87236000
2.59399414,-72.27020000
2.62451172,-74.10730000
2.65502930,-72.60051000
2.68554688,-71.54718000
2.71606445,-71.24143000
2.74658203,-70.62679000
2.77709961,-71.58365000
2.80761719,-72.11430000
2.83813477,-70.80217000
2.86865234,-71.57109000
2.89916992,-75.84480000
2.92968750,-73.95512000
2.96020508,-69.90401000
2.99072266,-69.93781000
3.02124023,-69.61852000
3.05175781,-67.36733000
3.08227539,-68.25513000
3.11279297,-73.07819000
3.14331055,-70.18306000
3.17382813,-66.66818000
3.20434570,-66.60479000
3.23486328,-69.67783000
3.26538086,-77.05852000
3.29589844,-74.68317000
3.32641602,-70.41708000
3.35693359,-69.69814000
3.38745117,-70.42850000
3.41796875,-69.75379000
3.44848633,-67.98331000
3.47900391,-67.50301000
3.50952148,-68.71357000
3.54003906,-69.48139000
3.57055664,-68.25401000
3.60107422,-68.23104000
3.63159180,-68.77554000
3.66210938,-67.40955000
3.69262695,-66.89977000
3.72314453,-67.60458000
3.75366211,-67.88217000
3.78417969,-68.63332000
3.81469727,-68.68094000
3.84521484,-67.49186000
3.87573242,-67.56646000
3.90625000,-67.03658000
3.93676758,-65.54907000
3.96728516,-65.21642000
3.99780273,-66.10281000
4.02832031,-67.59315000
4.05883789,-67.43311000
4.08935547,-66.46623000
4.11987305,-67.43650000
4.15039063,-68.27409000
4.18090820,-67.00926000
4.21142578,-66.87833000
4.24194336,-68.16972000
4.27246094,-69.70773000
4.30297852,-68.78570000
4.33349609,-66.07261000
4.36401367,-64.51484000
4.39453125,-63.88221000
4.42504883,-64.03882000
4.45556641,-65.43560000
4.48608398,-66.78948000
4.51660156,-66.72955000
4.54711914,-67.31368000
4.57763672,-68.37174000
4.60815430,-68.15633000
4.63867188,-68.04745000
4.66918945,-68.58502000
4.69970703,-69.11684000
4.73022461,-70.19217000
4.76074219,-71.07141000
4.79125977,-70.37097000
4.82177734,-70.73737000
4.85229492,-72.60154000
4.88281250,-71.93151000
4.91333008,-70.72340000
4.94384766,-71.08300000
4.97436523,-70.93208000
5.00488281,-70.36991000
5.03540039,-72.54170000
5.06591797,-79.06406000
5.09643555,-72.62187000
5.12695313,-69.50745000
5.15747070,-71.15464000
5.18798828,-78.60383000
5.21850586,-83.02950000
5.24902344,-75.58746000
5.27954102,-74.58747000
5.31005859,-77.95946000
5.34057617,-93.54209000
5.37109375,-80.38579000
5.40161133,-75.99158000
5.43212891,-74.95398000
5.46264648,-74.41495000
5.49316406,-73.72409000
5.52368164,-73.80338000
5.55419922,-74.97223000
5.58471680,-73.74249000
5.61523438,-69.80383000
5.64575195,-67.08709000
5.67626953,-66.01817000
5.70678711,-66.36880000
5.73730469,-67.26089000
5.76782227,-66.28740000
5.79833984,-64.34211000
5.82885742,-63.58236000
5.85937500,-64.03657000
5.88989258,-65.17998000
5.92041016,-66.20261000
5.95092773,-65.70117000
5.98144531,-64.63876000
6.01196289,-64.76064000
6.04248047,-66.37186000
6.07299805,-67.64890000
6.10351563,-66.28746000
6.13403320,-65.24251000
6.16455078,-66.02906000
6.19506836,-68.28951000
6.22558594,-70.26304000
6.25610352,-70.09669000
6.28662109,-69.26920000
6.31713867,-69.09155000
6.34765625,-70.14368000
6.37817383,-72.85796000
6.40869141,-75.41541000
6.43920898,-75.09760000
6.46972656,-76.05374000
6.50024414,-80.12882000
6.53076172,-78.77066000
6.56127930,-75.01709000
6.59179688,-75.11826000
6.62231445,-79.66390000
6.65283203,-84.06953000
6.68334961,-78.91878000
6.71386719,-77.28416000
6.74438477,-77.72018000
6.77490234,-80.21033000
6.80541992,-84.17233000
6.83593750,-82.60418000
6.86645508,-82.01165000
6.89697266,-82.60942000
6.92749023,-83.55466000
6.95800781,-95.51761000
6.98852539,-83.73852000
7.01904297,-77.91653000
7.04956055,-77.35330000
7.08007813,-80.74303000
7.11059570,-88.41451000
7.14111328,-83.42953000
7.17163086,-81.46404000
7.20214844,-84.51350000
7.23266602,-95.71460000
7.26318359,-89.79489000
7.29370117,-82.32182000
7.32421875,-80.07002000
7.35473633,-81.91138000
7.38525391,-87.03690000
7.41577148,-85.11932000
7.44628906,-83.41077000
7.47680664,-83.74902000
7.50732422,-85.48808000
7.53784180,-89.63055000
7.56835938,-89.19171000
7.59887695,-84.91021000
7.62939453,-82.97660000
7.65991211,-83.93902000
7.69042969,-89.24400000
7.72094727,-92.46654000
7.75146484,-85.55687000
7.78198242,-83.99156000
7.81250000,-86.42417000
7.84301758,-87.14916000
7.87353516,-83.07219000
7.90405273,-81.13570000
7.93457031,-81.60468000
7.96508789,-85.64446000
7.99560547,-92.49770000
8.02612305,-84.91980000
8.05664063,-82.81084000
8.08715820,-84.59880000
8.11767578,-88.02168000
8.14819336,-90.62839000
8.17871094,-97.21618000
8.20922852,-89.32761000
8.23974609,-84.65740000
8.27026367,-84.25040000
8.30078125,-87.10300000
8.33129883,-96.33544000
8.36181641,-92.64530000
8.39233398,-86.08974000
8.42285156,-84.58844000
8.45336914,-85.42500000
8.48388672,-87.50223000
8.51440430,-91.00890000
8.54492188,-100.93310000
8.57543945,-93.75482000
8.60595703,-86.57607000
8.63647461,-84.25008000
8.66699219,-84.45311000
8.69750977,-86.41505000
8.72802734,-89.19846000
8.75854492,-90.46516000
8.78906250,-90.58369000
8.81958008,-92.42075000
8.85009766,-95.50666000
8.88061523,-96.17696000
8.91113281,-106.32060000
8.94165039,-96.01517000
8.97216797,-91.17712000
9.00268555,-94.77957000
9.03320313,-99.26450000
9.06372070,-89.78761000
9.09423828,-87.49699000
9.12475586,-88.91648000
9.15527344,-95.12757000
9.18579102,-108.50430000
9.21630859,-95.13353000
9.24682617,-95.02686000
9.27734375,-94.80786000
9.30786133,-88.02700000
9.33837891,-86.09433000
9.36889648,-88.73207000
9.39941406,-96.52930000
9.42993164,-99.98366000
9.46044922,-100.83070000
9.49096680,-97.68590000
9.52148438,-95.43306000
9.55200195,-94.40418000
9.58251953,-91.19518000
9.61303711,-89.85683000
9.64355469,-87.72678000
9.67407227,-84.61392000
9.70458984,-83.98996000
9.73510742,-86.57350000
9.76562500,-92.14158000
9.79614258,-90.37230000
9.82666016,-83.25698000
9.85717773,-80.40486000
9.88769531,-81.72242000
9.91821289,-86.60178000
9.94873047,-88.86588000
9.97924805,-95.88818000
10.00976563,-91.47414000
10.04028320,-84.51476000
10.07080078,-83.61769000
10.10131836,-84.58848000
10.13183594,-83.23853000
10.16235352,-81.94978000
10.19287109,-85.41229000
10.22338867,-99.47786000
10.25390625,-83.16415000
10.28442383,-81.68893000
10.31494141,-86.59364000
10.34545898,-88.18526000
10.37597656,-81.65275000
10.40649414,-79.61091000
10.43701172,-80.16442000
10.46752930,-82.76406000
10.49804688,-87.07761000
10.52856445,-92.55081000
10.55908203,-97.10330000
10.58959961,-94.01027000
10.62011719,-88.08864000
10.65063477,-86.36756000
10.68115234,-88.78005000
10.71166992,-97.17183000
10.74218750,-90.75415000
10.77270508,-83.85552000
10.80322266,-80.93498000
10.83374023,-80.16748000
10.86425781,-80.40450000
10.89477539,-80.82953000
10.92529297,-81.25359000
10.95581055,-81.23059000
10.98632813,-80.56329000
11.01684570,-80.32985000
11.04736328,-80.80571000
11.07788086,-80.88329000
11.10839844,-81.59283000
11.13891602,-85.62957000
11.16943359,-90.27507000
11.19995117,-84.44144000
11.23046875,-83.57733000
11.26098633,-83.22041000
11.29150391,-80.53897000
11.32202148,-80.56947000
11.35253906,-84.60914000
11.38305664,-87.00691000
11.41357422,-84.11125000
11.44409180,-84.93430000
11.47460938,-87.76211000
11.50512695,-89.55674000
11.53564453,-93.48735000
11.56616211,-91.87588000
11.59667969,-86.87252000
11.62719727,-81.23778000
11.65771484,-77.28466000
11.68823242,-76.09692000
11.71875000,-77.30664000
11.74926758,-79.50185000
11.77978516,-83.82559000
11.81030273,-94.25354000
11.84082031,-79.06260000
11.87133789,-76.63157000
11.90185547,-79.34066000
11.93237305,-84.08165000
11.96289063,-81.33076000
11.99340820,-81.40703000
12.02392578,-81.88091000
12.05444336,-79.85146000
12.08496094,-81.32161000
12.11547852,-89.12800000
12.14599609,-85.88945000
12.17651367,-82.71347000
12.20703125,-85.49501000
12.23754883,-92.55833000
12.26806641,-85.26123000
12.29858398,-82.28469000
12.32910156,-82.43777000
12.35961914,-83.11111000
12.39013672,-82.31800000
12.42065430,-82.01206000
12.45117188,-83.14576000
12.48168945,-85.37041000
12.51220703,-89.00401000
12.54272461,-97.48055000
12.57324219,-97.40050000
12.60375977,-91.09805000
12.63427734,-91.97047000
12.66479492,-87.82006000
12.69531250,-79.93806000
12.72583008,-75.84519000
12.75634766,-74.67029000
12.78686523,-76.38490000
12.81738281,-81.86597000
12.84790039,-95.55923000
12.87841797,-90.27087000
12.90893555,-83.76126000
12.93945313,-81.00078000
12.96997070,-80.18089000
13.00048828,-79.25808000
13.03100586,-78.60019000
13.06152344,-78.05053000
13.09204102,-77.59223000
13.12255859,-79.06261000
13.15307617,-82.24621000
13.18359375,-81.80703000
13.21411133,-79.99925000
13.24462891,-81.45702000
13.27514648,-91.48959000
13.30566406,-85.18177000
13.33618164,-78.81805000
13.36669922,-78.30409000
13.39721680,-80.97149000
13.42773438,-84.90776000
13.45825195,-91.90656000
13.48876953,-82.66473000
13.51928711,-72.06056000
13.54980469,-67.85294000
13.58032227,-67.53210000
13.61083984,-70.68727000
13.64135742,-78.25697000
13.67187500,-86.78810000
13.70239258,-77.50377000
13.73291016,-73.45483000
13.76342773,-72.22324000
13.79394531,-73.24092000
13.82446289,-75.21174000
13.85498047,-76.43932000
13.88549805,-77.69810000
13.91601563,-81.00159000
13.94653320,-84.34910000
13.97705078,-81.27509000
14.00756836,-80.80486000
14.03808594,-84.05984000
14.06860352,-89.29059000
14.09912109,-92.33073000
14.12963867,-89.84898000
14.16015625,-87.16347000
14.19067383,-85.55981000
14.22119141,-85.67879000
14.25170898,-89.31635000
14.28222656,-85.14919000
14.31274414,-81.60910000
14.34326172,-85.07671000
14.37377930,-86.00822000
14.40429688,-79.07877000
14.43481445,-77.43640000
14.46533203,-78.27354000
14.49584961,-80.02805000
14.52636719,-81.39423000
14.55688477,-81.30379000
14.58740234,-80.62003000
14.61791992,-80.89462000
14.64843750,-81.45076000
14.67895508,-80.74500000
14.70947266,-80.02199000
14.73999023,-81.04674000
14.77050781,-84.85943000
14.80102539,-91.08913000
14.83154297,-93.12816000
14.86206055,-95.12337000
14.89257813,-94.59143000
14.92309570,-86.30586000
14.95361328,-83.06387000
14.98413086,-83.99661000
15.01464844,-89.19270000
15.04516602,-92.48352000
15.07568359,-88.91895000
15.10620117,-86.37584000
15.13671875,-84.46384000
15.16723633,-82.05807000
15.19775391,-78.98600000
15.22827148,-76.44431000
15.25878906,-75.32281000
15.28930664,-76.25397000
15.31982422,-79.82718000
15.35034180,-86.28844000
15.38085938,-93.36598000
15.41137695,-94.03859000
15.44189453,-85.73638000
15.47241211,-82.04444000
15.50292969,-81.85121000
15.53344727,-85.31097000
15.56396484,-95.17086000
15.59448242,-92.82348000
15.62500000,-87.83479000
15.65551758,-85.29684000
15.68603516,-84.65529000
15.71655273,-86.25535000
15.74707031,-89.87573000
15.77758789,-93.49732000
15.80810547,-93.15041000
15.83862305,-93.77861000
15.86914063,-94.95556000
15.89965820,-96.92496000
15.93017578,-107.68790000
15.96069336,-91.86023000
15.99121094,-85.14306000
16.02172852,-82.14695000
16.05224609,-82.32071000
16.08276367,-86.24088000
16.11328125,-98.87028000
16.14379883,-94.04961000
16.17431641,-88.38229000
16.20483398,-87.34474000
16.23535156,-88.77056000
16.26586914,-90.45861000
16.29638672,-89.30536000
16.32690430,-86.04935000
16.35742188,-83.94125000
16.38793945,-83.92163000
16.41845703,-85.48595000
16.44897461,-86.53784000
16.47949219,-86.80101000
16.51000977,-87.29255000
16.54052734,-87.49114000
16.57104492,-88.01746000
16.60156250,-89.18160000
16.63208008,-90.64063000
16.66259766,-89.62666000
16.69311523,-86.72355000
16.72363281,-85.60596000
16.75415039,-85.69729000
16.78466797,-85.21204000
16.81518555,-85.37233000
16.84570313,-87.91624000
16.87622070,-92.47257000
16.90673828,-94.62310000
16.93725586,-93.14297000
16.96777344,-90.74402000
16.99829102,-89.67498000
17.02880859,-91.36690000
17.05932617,-93.95705000
17.08984375,-91.32109000
17.12036133,-90.74001000
17.15087891,-95.23718000
17.18139648,-106.92490000
17.21191406,-97.16641000
17.24243164,-95.79008000
17.27294922,-97.28812000
17.30346680,-97.49677000
17.33398438,-99.70931000
17.36450195,-105.07240000
17.39501953,-94.52931000
17.42553711,-91.92332000
17.45605469,-95.03293000
17.48657227,-113.85150000
17.51708984,-97.48296000
17.54760742,-94.19141000
17.57812500,-94.45744000
17.60864258,-98.00417000
17.63916016,-109.70310000
17.66967773,-114.04520000
17.70019531,-95.87439000
17.73071289,-89.17334000
17.76123047,-88.34842000
17.79174805,-89.80701000
17.82226563,-86.28750000
17.85278320,-84.24944000
17.88330078,-85.20688000
17.91381836,-88.66958000
17.94433594,-95.23241000
17.97485352,-100.85840000
18.00537109,-96.11584000
18.03588867,-95.64620000
18.06640625,-97.52223000
18.09692383,-99.70261000
18.12744141,-100.59940000
18.15795898,-97.21580000
18.18847656,-95.36106000
18.21899414,-96.32584000
18.24951172,-100.41820000
18.28002930,-111.39700000
18.31054688,-113.16150000
18.34106445,-106.86200000
18.37158203,-106.64100000
18.40209961,-118.61970000
18.43261719,-100.45860000
18.46313477,-95.40234000
18.49365234,-94.61816000
18.52416992,-97.10873000
18.55468750,-102.14860000
18.58520508,-99.52216000
18.61572266,-95.87581000
18.64624023,-93.95097000
18.67675781,-93.35709000
18.70727539,-93.82848000
18.73779297,-94.94218000
18.76831055,-96.58767000
18.79882813,-98.66055000
18.82934570,-100.76400000
18.85986328,-104.26580000
18.89038086,-115.42580000
18.92089844,-107.75490000
18.95141602,-102.52340000
18.98193359,-101.73750000
19.01245117,-105.79770000
19.04296875,-105.56720000
19.07348633,-97.57878000
19.10400391,-93.10362000
19.13452148,-91.53344000
19.16503906,-92.93670000
19.19555664,-98.23862000
19.22607422,-111.11300000
19.25659180,-106.73720000
19.28710938,-100.15860000
19.31762695,-95.47426000
19.34814453,-94.36814000
19.37866211,-96.67174000
19.40917969,-102.44720000
19.43969727,-103.88100000
19.47021484,-99.49017000
19.50073242,-97.21407000
19.53125000,-96.60062000
19.56176758,-97.45036000
19.59228516,-98.75140000
19.62280273,-98.99472000
19.65332031,-98.54736000
19.68383789,-96.61401000
19.71435547,-94.43353000
19.74487305,-93.85112000
19.77539063,-94.84250000
19.80590820,-96.44950000
19.83642578,-97.26686000
19.86694336,-96.76134000
19.89746094,-96.14758000
19.92797852,-96.58744000
19.95849609,-99.12851000
19.98901367,-105.02490000
20.01953125,-116.67050000
20.05004883,-103.44850000
20.08056641,-99.74387000
20.11108398,-104.03420000
20.14160156,-104.09630000
20.17211914,-96.82992000
20.20263672,-97.10537000
20.23315430,-96.80890000
20.26367188,-90.67416000
20.29418945,-87.71593000
20.32470703,-87.28229000
20.35522461,-89.09615000
20.38574219,-94.88313000
20.41625977,-112.01800000
20.44677734,-96.64302000
20.47729492,-94.34839000
20.50781250,-92.05086000
20.53833008,-90.87990000
20.56884766,-91.04504000
20.59936523,-90.47158000
20.62988281,-90.28738000
20.66040039,-91.76609000
20.69091797,-92.72163000
20.72143555,-91.43360000
20.75195313,-91.23161000
20.78247070,-91.99932000
20.81298828,-91.05405000
20.84350586,-90.64342000
20.87402344,-93.68295000
20.90454102,-100.79320000
20.93505859,-107.20550000
20.96557617,-99.73308000
20.99609375,-93.73947000
21.02661133,-91.75978000
21.05712891,-91.93249000
21.08764648,-94.24350000
21.11816406,-99.45751000
21.14868164,-109.23170000
21.17919922,-99.53996000
21.20971680,-93.75230000
21.24023438,-92.11913000
21.27075195,-94.87077000
21.30126953,-98.28969000
21.33178711,-91.45000000
21.36230469,-89.06174000
21.39282227,-90.57529000
21.42333984,-96.42068000
21.45385742,-102.79330000
21.48437500,-103.16650000
21.51489258,-115.20060000
21.54541016,-101.04000000
21.57592773,-101.44010000
21.60644531,-103.94130000
21.63696289,-94.48387000
21.66748047,-90.24342000
21.69799805,-89.69682000
21.72851563,-92.52057000
21.75903320,-98.48240000
21.78955078,-100.00410000
21.82006836,-94.59406000
21.85058594,-90.82249000
21.88110352,-89.45736000
21.91162109,-90.33981000
21.94213867,-92.49916000
21.97265625,-92.93049000
22.00317383,-91.74098000
22.03369141,-91.72536000
22.06420898,-94.08582000
22.09472656,-99.69781000
22.12524414,-108.66410000
22.15576172,-107.49040000
22.18627930,-102.29360000
22.21679688,-104.94380000
22.24731445,-101.63840000
22.27783203,-94.61761000
22.30834961,-93.16315000
22.33886719,-95.79146000
22.36938477,-105.00690000
22.39990234,-106.25020000
22.43041992,-97.46211000
22.46093750,-93.20545000
22.49145508,-90.80428000
22.52197266,-91.30896000
22.55249023,-96.13731000
22.58300781,-104.90960000
22.61352539,-98.79779000
22.64404297,-96.42743000
22.67456055,-96.18473000
22.70507813,-96.96910000
22.73559570,-95.89172000
22.76611328,-91.71634000
22.79663086,-87.76971000
22.82714844,-85.96143000
22.85766602,-86.69234000
22.88818359,-89.50320000
22.91870117,-92.99280000
22.94921875,-96.01508000
22.97973633,-99.29015000
23.01025391,-101.60740000
23.04077148,-101.47860000
23.07128906,-104.67960000
23.10180664,-100.81530000
23.13232422,-96.77373000
23.16284180,-97.06227000
23.19335938,-97.62104000
23.22387695,-96.12877000
23.25439453,-97.72200000
23.28491211,-97.70116000
23.31542969,-92.54703000
23.34594727,-90.72562000
23.37646484,-92.09365000
23.40698242,-96.48991000
23.43750000,-101.52870000
23.46801758,-100.39800000
23.49853516,-96.20551000
23.52905273,-95.26028000
23.55957031,-98.51226000
23.59008789,-105.14580000
23.62060547,-104.95700000
23.65112305,-98.68267000
23.68164063,-96.15054000
23.71215820,-95.75589000
23.74267578,-94.85271000
23.77319336,-92.31923000
23.80371094,-89.50932000
23.83422852,-87.71354000
23.86474609,-87.55939000
23.89526367,-89.15741000
23.92578125,-92.34702000
23.95629883,-97.30865000
23.98681641,-101.17760000
24.01733398,-96.74390000
24.04785156,-93.72708000
24.07836914,-92.07292000
24.10888672,-90.03705000
24.13940430,-87.48298000
24.16992188,-86.38444000
24.20043945,-88.05623000
24.23095703,-93.38063000
24.26147461,-99.71947000
24.29199219,-96.78732000
24.32250977,-95.75600000
24.35302734,-95.22897000
24.38354492,-93.18393000
24.41406250,-91.23373000
24.44458008,-89.57157000
24.47509766,-87.64228000
24.50561523,-86.04153000
24.53613281,-85.96156000
24.56665039,-88.24335000
24.59716797,-93.24047000
24.62768555,-95.72368000
24.65820313,-94.19035000
24.68872070,-93.30280000
24.71923828,-92.03698000
24.74975586,-91.91192000
24.78027344,-93.56696000
24.81079102,-95.11713000
24.84130859,-93.30756000
24.87182617,-91.82520000
24.90234375,-92.05360000
24.93286133,-92.21496000
24.96337891,-91.49216000
24.99389648,-90.25331000
25.02441406,-89.67111000
25.05493164,-91.16554000
25.08544922,-95.52283000
25.11596680,-107.76080000
25.14648438,-102.31750000
25.17700195,-97.29648000
25.20751953,-98.38464000
25.23803711,-103.00010000
25.26855469,-120.24720000
25.29907227,-99.37059000
25.32958984,-95.98409000
25.36010742,-94.46198000
25.39062500,-92.41322000
25.42114258,-91.74687000
25.45166016,-91.15368000
25.48217773,-90.08418000
25.51269531,-90.61037000
25.54321289,-94.04373000
25.57373047,-95.97414000
25.60424805,-97.02996000
25.63476563,-101.03650000
25.66528320,-98.09837000
25.69580078,-106.12630000
25.72631836,-95.34550000
25.75683594,-88.73687000
25.78735352,-87.26014000
25.81787109,-88.69081000
25.84838867,-92.03929000
25.87890625,-94.56191000
25.90942383,-92.12167000
25.93994141,-88.46973000
25.97045898,-87.15086000
26.00097656,-89.39205000
26.03149414,-98.42338000
26.06201172,-101.24840000
26.09252930,-94.11079000
26.12304688,-92.19139000
26.15356445,-91.74365000
26.18408203,-93.28320000
26.21459961,-95.59417000
26.24511719,-96.20871000
26.27563477,-98.23447000
26.30615234,-96.83102000
26.33666992,-92.73125000
26.36718750,-90.91582000
26.39770508,-90.50261000
26.42822266,-90.95006000
26.45874023,-91.80890000
26.48925781,-91.59523000
26.51977539,-90.14381000
26.55029297,-88.95529000
26.58081055,-88.91017000
26.61132813,-90.58297000
26.64184570,-94.00834000
26.67236328,-97.17752000
26.70288086,-98.25720000
26.73339844,-97.78697000
26.76391602,-98.67829000
26.79443359,-101.27160000
26.82495117,-93.08870000
26.85546875,-89.32626000
26.88598633,-89.44382000
26.91650391,-93.30048000
26.94702148,-100.94710000
26.97753906,-103.88600000
27.00805664,-99.57793000
27.03857422,-95.40036000
27.06909180,-94.35190000
27.09960938,-95.43704000
27.13012695,-98.74359000
27.16064453,-103.70110000
27.19116211,-98.24322000
27.22167969,-95.47211000
27.25219727,-96.44765000
27.28271484,-99.10183000
27.31323242,-100.47080000
27.34375000,-102.10200000
27.37426758,-103.72460000
27.40478516,-103.41310000
27.43530273,-101.90650000
27.46582031,-95.63846000
27.49633789,-91.73758000
27.52685547,-92.40219000
27.55737305,-99.47572000
27.58789063,-95.54795000
27.61840820,-92.72101000
27.64892578,-94.51776000
27.67944336,-97.60436000
27.70996094,-98.85315000
27.74047852,-96.83278000
27.77099609,-93.34706000
27.80151367,-90.30022000
27.83203125,-88.62038000
27.86254883,-88.93326000
27.89306641,-91.57150000
27.92358398,-96.45567000
27.95410156,-99.21136000
27.98461914,-93.69051000
28.01513672,-90.13324000
28.04565430,-90.15533000
28.07617188,-92.98943000
28.10668945,-95.23502000
28.13720703,-97.47159000
28.16772461,-104.95840000
28.19824219,-108.43260000
28.22875977,-101.69460000
28.25927734,-100.64560000
28.28979492,-95.65193000
28.32031250,-89.89705000
28.35083008,-87.12788000
28.38134766,-86.81012000
28.41186523,-88.21729000
28.44238281,-90.14653000
28.47290039,-91.23727000
28.50341797,-91.38652000
28.53393555,-91.33652000
28.56445313,-92.45842000
28.59497070,-97.00398000
28.62548828,-105.25240000
28.65600586,-95.64461000
28.68652344,-92.36301000
28.71704102,-92.40032000
28.74755859,-94.87259000
28.77807617,-100.04680000
28.80859375,-108.93550000
28.83911133,-105.11400000
28.86962891,-97.61061000
28.90014648,-92.80208000
28.93066406,-90.25687000
28.96118164,-89.67963000
28.99169922,-90.10992000
29.02221680,-89.56154000
29.05273438,-88.31293000
29.08325195,-87.83977000
29.11376953,-88.70331000
29.14428711,-91.90549000
29.17480469,-100.08810000
29.20532227,-117.47720000
29.23583984,-107.20860000
29.26635742,-97.91611000
29.29687500,-91.55598000
29.32739258,-88.61645000
29.35791016,-87.61385000
29.38842773,-87.59190000
29.41894531,-88.34634000
29.44946289,-90.29015000
29.47998047,-92.58028000
29.51049805,-92.79126000
29.54101563,-91.81260000
29.57153320,-91.27364000
29.60205078,-92.33359000
29.63256836,-96.17322000
29.66308594,-105.34120000
29.69360352,-106.98480000
29.72412109,-101.38780000
29.75463867,-97.10905000
29.78515625,-93.18523000
29.81567383,-90.46223000
29.84619141,-88.87605000
29.87670898,-88.18350000
29.90722656,-88.26859000
29.93774414,-89.30135000
29.96826172,-90.15390000
29.99877930,-89.61982000
30.02929688,-89.76489000
30.05981445,-91.37181000
30.09033203,-92.85777000
30.12084961,-92.52280000
30.15136719,-91.38589000
30.18188477,-91.09695000
30.21240234,-92.76132000
30.24291992,-97.92290000
30.27343750,-106.27170000
30.30395508,-101.98530000
30.33447266,-104.74240000
30.36499023,-103.02650000
30.39550781,-100.36310000
30.42602539,-104.49950000
30.45654297,-110.71380000
30.48706055,-105.31880000
30.51757813,-100.14510000
30.54809570,-94.37534000
30.57861328,-91.17912000
30.60913086,-90.24214000
30.63964844,-91.13626000
30.67016602,-93.01836000
30.70068359,-92.12109000
30.73120117,-89.54568000
30.76171875,-88.43243000
30.79223633,-88.53870000
30.82275391,-88.75039000
30.85327148,-88.45668000
30.88378906,-87.97704000
30.91430664,-87.98507000
30.94482422,-89.46471000
30.97534180,-93.22881000
31.00585938,-93.68106000
31.03637695,-91.55922000
31.06689453,-93.93727000
31.09741211,-99.90050000
31.12792969,-94.86824000
31.15844727,-91.45326000
31.18896484,-89.73923000
31.21948242,-89.35323000
31.25000000,-90.01436000
31.28051758,-91.09129000
31.31103516,-92.33751000
31.34155273,-93.78969000
31.37207031,-94.64108000
31.40258789,-93.63977000
31.43310547,-92.19864000
31.46362305,-91.74905000
31.49414063,-92.61051000
31.52465820,-94.62109000
31.55517578,-96.03851000
31.58569336,-93.60195000
31.61621094,-91.11821000
31.64672852,-90.68045000
31.67724609,-91.56490000
31.70776367,-91.83216000
31.73828125,-91.69719000
31.76879883,-91.80800000
31.79931641,-90.95397000
31.82983398,-90.72818000
31.86035156,-92.59406000
31.89086914,-95.87169000
31.92138672,-100.12260000
31.95190430,-100.51380000
31.98242188,-97.84138000
32.01293945,-99.84917000
32.04345703,-99.82394000
32.07397461,-98.44016000
32.10449219,-101.49110000
32.13500977,-97.93262000
32.16552734,-94.71776000
32.19604492,-93.74976000
32.22656250,-92.30447000
32.25708008,-91.02794000
32.28759766,-90.71354000
32.31811523,-90.99659000
32.34863281,-91.91788000
32.37915039,-94.46165000
32.40966797,-99.78548000
32.44018555,-101.87310000
32.47070313,-99.09737000
32.50122070,-97.58852000
32.53173828,-95.33950000
32.56225586,-93.12300000
32.59277344,-92.37794000
32.62329102,-93.63316000
32.65380859,-96.96059000
32.68432617,-100.94340000
32.71484375,-99.44202000
32.74536133,-94.97994000
32.77587891,-91.87958000
32.80639648,-90.80222000
32.83691406,-91.25804000
32.86743164,-91.60857000
32.89794922,-91.06956000
32.92846680,-91.40764000
32.95898438,-94.23270000
32.98950195,-98.74847000
33.02001953,-98.49133000
33.05053711,-93.18796000
33.08105469,-88.34109000
33.11157227,-86.57457000
33.14208984,-87.60555000
33.17260742,-90.42660000
33.20312500,-93.17783000
33.23364258,-94.77740000
33.26416016,-93.74709000
33.29467773,-91.26450000
33.32519531,-89.38969000
33.35571289,-88.59641000
33.38623047,-89.02969000
33.41674805,-90.52150000
33.44726563,-92.21889000
33.47778320,-92.65785000
33.50830078,-91.65878000
33.53881836,-90.17131000
33.56933594,-88.75815000
33.59985352,-87.71541000
33.63037109,-87.27959000
33.66088867,-87.72809000
33.69140625,-88.91732000
33.72192383,-89.31332000
33.75244141,-87.88844000
33.78295898,-86.26034000
33.81347656,-85.62590000
33.84399414,-86.33239000
33.87451172,-88.20789000
33.90502930,-90.46380000
33.93554688,-92.16066000
33.96606445,-93.53516000
33.99658203,-95.44818000
34.02709961,-97.13645000
34.05761719,-96.44872000
34.08813477,-93.84495000
34.11865234,-91.33961000
34.14916992,-89.74959000
34.17968750,-88.92122000
34.21020508,-88.54607000
34.24072266,-88.17989000
34.27124023,-87.17679000
34.30175781,-85.56779000
34.33227539,-84.28314000
34.36279297,-83.99728000
34.39331055,-84.66750000
34.42382813,-85.59877000
34.45434570,-85.90967000
34.48486328,-85.66174000
34.51538086,-85.57366000
34.54589844,-86.29264000
34.57641602,-88.22231000
34.60693359,-91.25382000
34.63745117,-94.22229000
34.66796875,-94.95152000
34.69848633,-93.95004000
34.72900391,-93.42616000
34.75952148,-93.56149000
34.79003906,-92.93735000
34.82055664,-90.69130000
34.85107422,-88.16280000
34.88159180,-86.27583000
34.91210938,-84.99228000
34.94262695,-84.16785000
34.97314453,-83.86658000
35.00366211,-84.16148000
35.03417969,-84.95398000
35.06469727,-85.93401000
35.09521484,-86.76072000
35.12573242,-87.13721000
35.15625000,-86.70364000
35.18676758,-85.79172000
35.21728516,-85.52637000
35.24780273,-86.85287000
35.27832031,-89.99059000
35.30883789,-92.49496000
35.33935547,-91.62711000
35.36987305,-90.36846000
35.40039063,-89.02454000
35.43090820,-88.04520000
35.46142578,-88.34158000
35.49194336,-90.21893000
35.52246094,-93.23154000
35.55297852,-93.06343000
35.58349609,-88.82365000
35.61401367,-85.90536000
35.64453125,-85.12541000
35.67504883,-85.87775000
35.70556641,-86.57864000
35.73608398,-86.17162000
35.76660156,-85.56496000
35.79711914,-85.73126000
35.82763672,-86.90835000
35.85815430,-88.58646000
35.88867188,-89.72105000
35.91918945,-89.68506000
35.94970703,-88.95492000
35.98022461,-88.25726000
36.01074219,-88.14930000
36.04125977,-89.18484000
36.07177734,-91.47935000
36.10229492,-93.23779000
36.13281250,-91.52846000
36.16333008,-88.50892000
36.19384766,-86.81546000
36.22436523,-86.81906000
36.25488281,-87.58923000
36.28540039,-87.71381000
36.31591797,-87.57064000
36.34643555,-88.27247000
36.37695313,-89.86598000
36.40747070,-92.06413000
36.43798828,-94.37811000
36.46850586,-94.32236000
36.49902344,-92.67318000
36.52954102,-91.09902000
36.56005859,-90.25325000
36.59057617,-90.76302000
36.62109375,-91.88544000
36.65161133,-91.05608000
36.68212891,-88.83155000
36.71264648,-87.79266000
36.74316406,-88.80898000
36.77368164,-91.75828000
36.80419922,-95.04558000
36.83471680,-95.39180000
36.86523438,-92.17110000
36.89575195,-88.85828000
36.92626953,-86.94460000
36.95678711,-86.35257000
36.98730469,-86.73383000
37.01782227,-87.69272000
37.04833984,-88.89809000
37.07885742,-90.31251000
37.10937500,-92.08115000
37.13989258,-93.89268000
37.17041016,-94.39496000
37.20092773,-92.66441000
37.23144531,-90.94530000
37.26196289,-91.38587000
37.29248047,-94.28387000
37.32299805,-96.21805000
37.35351563,-94.81982000
37.38403320,-91.46915000
37.41455078,-88.58644000
37.44506836,-87.31078000
37.47558594,-87.24178000
37.50610352,-88.16229000
37.53662109,-89.88892000
37.56713867,-92.12495000
37.59765625,-96.39198000
37.62817383,-105.76030000
37.65869141,-98.51689000
37.68920898,-97.36802000
37.71972656,-95.81209000
37.75024414,-91.69090000
37.78076172,-90.94762000
37.81127930,-93.22147000
37.84179688,-96.67772000
37.87231445,-101.28920000
37.90283203,-103.12210000
37.93334961,-97.87286000
37.96386719,-94.79339000
37.99438477,-92.78336000
38.02490234,-91.83061000
38.05541992,-91.42874000
38.08593750,-90.70599000
38.11645508,-89.71130000
38.14697266,-89.68368000
38.17749023,-91.72509000
38.20800781,-95.23671000
38.23852539,-96.66869000
38.26904297,-93.86534000
38.29956055,-89.10681000
38.33007813,-87.09337000
38.36059570,-87.91637000
38.39111328,-90.69032000
38.42163086,-94.13493000
38.45214844,-97.91167000
38.48266602,-103.10800000
38.51318359,-101.43190000
38.54370117,-99.80930000
38.57421875,-105.21950000
38.60473633,-108.98940000
38.63525391,-104.74390000
38.66577148,-102.99780000
38.69628906,-102.65850000
38.72680664,-111.89580000
38.75732422,-98.83511000
38.78784180,-95.55103000
38.81835938,-93.70248000
38.84887695,-90.10520000
38.87939453,-88.11221000
38.90991211,-87.97398000
38.94042969,-88.33416000
38.97094727,-88.43094000
39.00146484,-88.82958000
39.03198242,-89.81229000
39.06250000,-90.89568000
39.09301758,-91.33896000
39.12353516,-91.88209000
39.15405273,-93.17963000
39.18457031,-93.56335000
39.21508789,-93.91896000
39.24560547,-95.06325000
39.27612305,-94.21116000
39.30664063,-92.63996000
39.33715820,-92.76669000
39.36767578,-96.11958000
39.39819336,-102.83970000
39.42871094,-108.01400000
39.45922852,-97.00410000
39.48974609,-91.12700000
39.52026367,-88.95122000
39.55078125,-89.93210000
39.58129883,-93.93950000
39.61181641,-93.91698000
39.64233398,-91.34537000
39.67285156,-92.15752000
39.70336914,-98.48148000
39.73388672,-99.46117000
39.76440430,-94.36908000
39.79492188,-94.72778000
39.82543945,-97.61337000
39.85595703,-101.87600000
39.88647461,-101.28300000
39.91699219,-92.60837000
39.94750977,-88.69079000
39.97802734,-87.96333000
40.00854492,-89.37016000
40.03906250,-91.35011000
40.06958008,-91.10710000
40.10009766,-88.37422000
40.13061523,-85.81161000
40.16113281,-84.53908000
40.19165039,-84.69391000
40.22216797,-86.60800000
40.25268555,-91.42419000
40.28320313,-97.05112000
40.31372070,-93.10870000
40.34423828,-91.39243000
40.37475586,-91.14673000
40.40527344,-90.45754000
40.43579102,-88.67240000
40.46630859,-86.64069000
40.49682617,-85.58674000
40.52734375,-86.78384000
40.55786133,-89.90062000
40.58837891,-89.84512000
40.61889648,-89.33833000
40.64941406,-92.90933000
40.67993164,-94.96314000
40.71044922,-89.24374000
40.74096680,-87.60379000
40.77148438,-88.93973000
40.80200195,-91.06900000
40.83251953,-92.97645000
40.86303711,-97.98051000
40.89355469,-105.10100000
40.92407227,-101.57810000
40.95458984,-102.79000000
40.98510742,-94.98700000
41.01562500,-90.93095000
41.04614258,-90.00106000
41.07666016,-90.26570000
41.10717773,-88.95525000
41.13769531,-85.79543000
41.16821289,-82.96030000
41.19873047,-81.52969000
41.22924805,-81.60422000
41.25976563,-83.01614000
41.29028320,-85.62468000
41.32080078,-88.73272000
41.35131836,-89.97459000
41.38183594,-88.55186000
41.41235352,-87.55858000
41.44287109,-89.97565000
41.47338867,-97.58513000
41.50390625,-88.00826000
41.53442383,-84.35220000
41.56494141,-85.59346000
41.59545898,-94.22028000
41.62597656,-93.06979000
41.65649414,-87.26729000
41.68701172,-88.38647000
41.71752930,-96.45171000
41.74804688,-94.66516000
41.77856445,-88.48494000
41.80908203,-85.98048000
41.83959961,-84.67517000
41.87011719,-84.73893000
41.90063477,-86.67966000
41.93115234,-90.32750000
41.96166992,-93.95647000
41.99218750,-97.16579000
42.02270508,-102.65820000
42.05322266,-95.28239000
42.08374023,-89.71848000
42.11425781,-88.54071000
42.14477539,-88.54745000
42.17529297,-85.61966000
42.20581055,-84.39011000
42.23632813,-85.01292000
42.26684570,-83.29776000
42.29736328,-81.92580000
42.32788086,-83.23337000
42.35839844,-86.43750000
42.38891602,-89.41908000
42.41943359,-91.94351000
42.44995117,-90.85515000
42.48046875,-87.21539000
42.51098633,-84.92418000
42.54150391,-84.56419000
42.57202148,-85.67824000
42.60253906,-86.32201000
42.63305664,-86.85555000
42.66357422,-89.65181000
42.69409180,-95.98224000
42.72460938,-100.47390000
42.75512695,-99.00239000
42.78564453,-96.90344000
42.81616211,-92.67807000
42.84667969,-90.31284000
42.87719727,-91.59339000
42.90771484,-92.73018000
42.93823242,-91.90085000
42.96875000,-99.62299000
42.99926758,-96.32162000
43.02978516,-93.28452000
43.06030273,-103.40250000
43.09082031,-97.99714000
43.12133789,-92.47173000
43.15185547,-90.07053000
43.18237305,-87.99423000
43.21289063,-87.69955000
43.24340820,-90.64717000
43.27392578,-96.42812000
43.30444336,-96.65519000
43.33496094,-91.03089000
43.36547852,-88.15181000
43.39599609,-88.89161000
43.42651367,-94.68063000
43.45703125,-95.40556000
43.48754883,-86.81009000
43.51806641,-83.96156000
43.54858398,-84.46773000
43.57910156,-87.60428000
43.60961914,-91.44008000
43.64013672,-91.18188000
43.67065430,-87.93353000
43.70117188,-86.58255000
43.73168945,-88.16667000
43.76220703,-93.45525000
43.79272461,-108.97640000
43.82324219,-92.83334000
43.85375977,-88.01624000
43.88427734,-87.71470000
43.91479492,-91.30554000
43.94531250,-96.39117000
43.97583008,-95.54848000
44.00634766,-92.85588000
44.03686523,-93.82881000
44.06738281,-103.84160000
44.09790039,-95.58567000
44.12841797,-90.04773000
44.15893555,-87.28404000
44.18945313,-85.74675000
44.21997070,-86.02280000
44.25048828,-88.62263000
44.28100586,-92.27795000
44.31152344,-93.76265000
44.34204102,-92.01763000
44.37255859,-90.38007000
44.40307617,-91.36681000
44.43359375,-96.09914000
44.46411133,-111.08370000
44.49462891,-91.58761000
44.52514648,-86.93628000
44.55566406,-86.31784000
44.58618164,-88.22437000
44.61669922,-90.28020000
44.64721680,-89.86047000
44.67773438,-88.14648000
44.70825195,-87.91359000
44.73876953,-90.64856000
44.76928711,-98.75198000
44.79980469,-102.27880000
44.83032227,-92.85023000
44.86083984,-89.66615000
44.89135742,-89.40318000
44.92187500,-91.71092000
44.95239258,-94.71077000
44.98291016,-91.74866000
45.01342773,-88.74963000
45.04394531,-88.91231000
45.07446289,-92.87780000
45.10498047,-104.49170000
45.13549805,-99.90562000
45.16601563,-96.13937000
45.19653320,-97.17025000
45.22705078,-100.35810000
45.25756836,-101.41160000
45.28808594,-96.13837000
45.31860352,-90.75888000
45.34912109,-88.60345000
45.37963867,-89.12972000
45.41015625,-91.35937000
45.44067383,-94.71591000
45.47119141,-101.02830000
45.50170898,-104.65070000
45.53222656,-97.36839000
45.56274414,-96.02957000
45.59326172,-96.73267000
45.62377930,-95.27488000
45.65429688,-92.20306000
45.68481445,-90.89321000
45.71533203,-92.36403000
45.74584961,-95.80613000
45.77636719,-97.67712000
45.80688477,-97.21588000
45.83740234,-97.56425000
45.86791992,-98.33878000
45.89843750,-100.02560000
45.92895508,-103.40680000
45.95947266,-101.63470000
45.98999023,-95.10398000
46.02050781,-91.23503000
46.05102539,-90.69820000
46.08154297,-93.03254000
46.11206055,-97.30300000
46.14257813,-98.41338000
46.17309570,-94.68839000
46.20361328,-93.63544000
46.23413086,-97.18866000
46.26464844,-113.69420000
46.29516602,-101.14010000
46.32568359,-95.36073000
46.35620117,-92.48738000
46.38671875,-92.80734000
46.41723633,-97.45797000
46.44775391,-102.99580000
46.47827148,-99.15874000
46.50878906,-100.57030000
46.53930664,-102.79780000
46.56982422,-100.21470000
46.60034180,-102.74470000
46.63085938,-121.86770000
46.66137695,-100.45220000
46.69189453,-95.38941000
46.72241211,-94.03774000
46.75292969,-97.81612000
46.78344727,-106.82360000
46.81396484,-93.46417000
46.84448242,-90.09696000
46.87500000,-90.04673000
46.90551758,-92.00427000
46.93603516,-94.95312000
46.96655273,-96.40494000
46.99707031,-95.44106000
47.02758789,-95.62852000
47.05810547,-98.93292000
47.08862305,-106.25240000
47.11914063,-102.16670000
47.14965820,-98.72931000
47.18017578,-96.93423000
47.21069336,-94.96645000
47.24121094,-94.51438000
47.27172852,-96.80948000
47.30224609,-100.87700000
47.33276367,-100.08740000
47.36328125,-100.34810000
47.39379883,-107.64490000
47.42431641,-106.05320000
47.45483398,-98.78012000
47.48535156,-96.85455000
47.51586914,-98.37829000
47.54638672,-105.93470000
47.57690430,-108.64890000
47.60742188,-102.42560000
47.63793945,-101.26430000
47.66845703,-99.70481000
47.69897461,-98.02774000
47.72949219,-97.86763000
47.76000977,-101.89690000
47.79052734,-115.67040000
47.82104492,-116.77560000
47.85156250,-108.02420000
47.88208008,-97.94974000
47.91259766,-94.49761000
47.94311523,-94.28207000
47.97363281,-95.86104000
48.00415039,-96.62299000
48.03466797,-97.71162000
48.06518555,-103.93180000
48.09570313,-106.80820000
48.12622070,-100.92220000
48.15673828,-101.72480000
48.18725586,-103.53860000
48.21777344,-102.23870000
48.24829102,-100.17440000
48.27880859,-96.98792000
48.30932617,-92.16930000
48.33984375,-88.37122000
48.37036133,-86.96639000
48.40087891,-88.23035000
48.43139648,-91.64864000
48.46191406,-94.78652000
48.49243164,-95.75055000
48.52294922,-96.03741000
48.55346680,-96.92638000
48.58398438,-96.95436000
48.61450195,-95.13214000
48.64501953,-92.96140000
48.67553711,-91.19644000
48.70605469,-90.71338000
48.73657227,-91.81143000
48.76708984,-92.63081000
48.79760742,-92.19719000
48.82812500,-92.63405000
48.85864258,-94.28267000
48.88916016,-96.78282000
48.91967773,-100.20880000
48.95019531,-107.38040000
48.98071289,-101.70580000
49.01123047,-94.72050000
49.04174805,-93.88319000
49.07226563,-99.34648000
49.10278320,-116.87060000
49.13330078,-104.40260000
49.16381836,-111.08680000
49.19433594,-104.58670000
49.22485352,-98.78995000
49.25537109,-98.95440000
49.28588867,-107.54520000
49.31640625,-96.00098000
49.34692383,-90.43523000
49.37744141,-89.64272000
49.40795898,-92.06753000
49.43847656,-94.14779000
49.46899414,-94.46000000
49.49951172,-96.14981000
49.53002930,-96.38923000
49.56054688,-96.40672000
49.59106445,-100.32880000
49.62158203,-97.29439000
49.65209961,-90.46684000
49.68261719,-87.76763000
49.71313477,-87.85323000
49.74365234,-89.45276000
49.77416992,-90.63255000
49.80468750,-90.65095000
49.83520508,-90.31746000
49.86572266,-90.71648000
49.89624023,-92.16876000
49.92675781,-93.89166000
49.95727539,-96.72446000
49.98779297,-100.97960000
50.01831055,-94.54739000
