Frequency,Channel A
(MHz),(dBu)

0.00000000,-22.36746000
0.03051758,-22.78177000
0.06103516,-28.10907000
0.09155273,-37.97855000
0.12207031,-53.56760000
0.15258789,-63.77617000
0.18310547,-71.83920000
0.21362305,-67.30048000
0.24414063,-68.41829000
0.27465820,-66.46848000
0.30517578,-64.25394000
0.33569336,-63.13671000
0.36621094,-62.66245000
0.39672852,-64.24745000
0.42724609,-73.46114000
0.45776367,-71.84444000
0.48828125,-68.55260000
0.51879883,-71.79996000
0.54931641,-69.16585000
0.57983398,-69.32413000
0.61035156,-70.71133000
0.64086914,-63.66311000
0.67138672,-61.75266000
0.70190430,-62.08439000
0.73242188,-61.49331000
0.76293945,-61.80336000
0.79345703,-64.76082000
0.82397461,-68.09574000
0.85449219,-67.58324000
0.88500977,-69.69552000
0.91552734,-73.26433000
0.94604492,-74.39522000
0.97656250,-70.82968000
1.00708008,-69.14026000
1.03759766,-73.37280000
1.06811523,-66.48665000
1.09863281,-63.17309000
1.12915039,-63.72940000
1.15966797,-65.81223000
1.19018555,-66.89355000
1.22070313,-66.67777000
1.25122070,-67.86418000
1.28173828,-72.29900000
1.31225586,-78.31557000
1.34277344,-68.62701000
1.37329102,-65.56741000
1.40380859,-67.64752000
1.43432617,-76.40600000
1.46484375,-86.28349000
1.49536133,-75.36136000
1.52587891,-73.28561000
1.55639648,-80.16273000
1.58691406,-82.01817000
1.61743164,-79.29124000
1.64794922,-90.90972000
1.67846680,-78.08126000
1.70898438,-78.50275000
1.73950195,-86.50857000
1.77001953,-85.73727000
1.80053711,-75.64668000
1.83105469,-73.60823000
1.86157227,-78.27510000
1.89208984,-86.80927000
1.92260742,-86.31863000
1.95312500,-82.39251000
1.98364258,-73.09189000
2.01416016,-71.73616000
2.04467773,-76.77051000
2.07519531,-82.03442000
2.10571289,-76.62546000
2.13623047,-80.43057000
2.16674805,-102.63820000
2.19726563,-86.83278000
2.22778320,-90.66316000
2.25830078,-78.42709000
2.28881836,-72.95590000
2.31933594,-72.20712000
2.34985352,-73.39295000
2.38037109,-74.62829000
2.41088867,-74.16681000
2.44140625,-73.01411000
2.47192383,-73.99667000
2.50244141,-77.34102000
2.53295898,-79.90960000
2.56347656,-75.20271000
2.59399414,-72.98692000
2.62451172,-73.23693000
2.65502930,-74.87978000
2.68554688,-78.70016000
2.71606445,-83.90214000
2.74658203,-81.24158000
2.77709961,-75.30589000
2.80761719,-73.06115000
2.83813477,-75.73884000
2.86865234,-81.60992000
2.89916992,-81.45094000
2.92968750,-98.42828000
2.96020508,-75.29710000
2.99072266,-71.86463000
3.02124023,-75.33421000
3.05175781,-86.84819000
3.08227539,-79.32870000
3.11279297,-88.07214000
3.14331055,-78.43745000
3.17382813,-79.78305000
3.20434570,-83.71830000
3.23486328,-73.95249000
3.26538086,-72.85822000
3.29589844,-76.71785000
3.32641602,-81.32248000
3.35693359,-76.10466000
3.38745117,-74.33029000
3.41796875,-76.14173000
3.44848633,-76.94453000
3.47900391,-73.57997000
3.50952148,-72.73991000
3.54003906,-74.65844000
3.57055664,-76.82722000
3.60107422,-73.80107000
3.63159180,-71.81619000
3.66210938,-72.26949000
3.69262695,-75.45429000
3.72314453,-88.51734000
3.75366211,-76.32851000
3.78417969,-72.57850000
3.81469727,-73.82721000
3.84521484,-78.44208000
3.87573242,-88.65517000
3.90625000,-84.29192000
3.93676758,-78.24335000
3.96728516,-77.62114000
3.99780273,-83.11559000
4.02832031,-80.78383000
4.05883789,-80.94548000
4.08935547,-86.42267000
4.11987305,-76.46414000
4.15039063,-78.34117000
4.18090820,-94.60232000
4.21142578,-78.23476000
4.24194336,-78.34344000
4.27246094,-85.38642000
4.30297852,-83.46619000
4.33349609,-78.76198000
4.36401367,-80.76683000
4.39453125,-94.65859000
4.42504883,-90.48209000
4.45556641,-95.53123000
4.48608398,-86.36269000
4.51660156,-78.72878000
4.54711914,-75.84601000
4.57763672,-76.75526000
4.60815430,-81.80386000
4.63867188,-86.94291000
4.66918945,-83.30535000
4.69970703,-81.39092000
4.73022461,-79.55473000
4.76074219,-76.15602000
4.79125977,-74.21742000
4.82177734,-74.25043000
4.85229492,-77.17863000
4.88281250,-89.05183000
4.91333008,-83.58606000
4.94384766,-79.97174000
4.97436523,-81.45148000
5.00488281,-79.70202000
5.03540039,-74.96741000
5.06591797,-71.92544000
5.09643555,-72.19994000
5.12695313,-77.76839000
5.15747070,-81.65969000
5.18798828,-76.88927000
5.21850586,-76.79343000
5.24902344,-77.31231000
5.27954102,-79.38147000
5.31005859,-87.91150000
5.34057617,-85.78304000
5.37109375,-78.89139000
5.40161133,-76.65637000
5.43212891,-76.15801000
5.46264648,-78.27829000
5.49316406,-87.65014000
5.52368164,-84.85594000
5.55419922,-78.18612000
5.58471680,-77.43442000
5.61523438,-78.31979000
5.64575195,-78.10512000
5.67626953,-77.51187000
5.70678711,-78.44341000
5.73730469,-77.57385000
5.76782227,-75.37748000
5.79833984,-75.50925000
5.82885742,-76.54015000
5.85937500,-78.27316000
5.88989258,-82.83024000
5.92041016,-83.90186000
5.95092773,-77.89037000
5.98144531,-74.67503000
6.01196289,-73.97727000
6.04248047,-73.32156000
6.07299805,-72.15935000
6.10351563,-73.24921000
6.13403320,-76.81470000
6.16455078,-77.14268000
6.19506836,-75.63551000
6.22558594,-73.62214000
6.25610352,-73.17951000
6.28662109,-74.76100000
6.31713867,-74.46431000
6.34765625,-73.07128000
6.37817383,-74.31294000
6.40869141,-78.62092000
6.43920898,-84.35417000
6.46972656,-89.31278000
6.50024414,-90.44151000
6.53076172,-83.88742000
6.56127930,-79.43790000
6.59179688,-78.05868000
6.62231445,-76.78062000
6.65283203,-75.73642000
6.68334961,-77.33592000
6.71386719,-81.81789000
6.74438477,-83.06304000
6.77490234,-81.32628000
6.80541992,-83.14988000
6.83593750,-92.71867000
6.86645508,-85.62770000
6.89697266,-80.26233000
6.92749023,-78.15762000
6.95800781,-77.14735000
6.98852539,-77.35162000
7.01904297,-80.67455000
7.04956055,-99.71355000
7.08007813,-82.69852000
7.11059570,-79.77354000
7.14111328,-82.64442000
7.17163086,-88.64137000
7.20214844,-88.02576000
7.23266602,-88.91675000
7.26318359,-88.31552000
7.29370117,-84.21684000
7.32421875,-82.33092000
7.35473633,-84.34436000
7.38525391,-88.36349000
7.41577148,-85.11646000
7.44628906,-85.00813000
7.47680664,-90.17910000
7.50732422,-93.51530000
7.53784180,-91.04936000
7.56835938,-95.59958000
7.59887695,-119.41360000
7.62939453,-102.80460000
7.65991211,-95.23265000
7.69042969,-94.06972000
7.72094727,-98.45325000
7.75146484,-88.91189000
7.78198242,-88.15329000
7.81250000,-99.90234000
7.84301758,-88.18717000
7.87353516,-84.42944000
7.90405273,-84.74139000
7.93457031,-85.40078000
7.96508789,-87.05997000
7.99560547,-92.11314000
8.02612305,-99.63111000
8.05664063,-97.57426000
8.08715820,-86.94927000
8.11767578,-83.40997000
8.14819336,-84.71420000
8.17871094,-90.62564000
8.20922852,-91.31142000
8.23974609,-87.67445000
8.27026367,-87.17780000
8.30078125,-89.02084000
8.33129883,-84.46636000
8.36181641,-80.55665000
8.39233398,-80.52071000
8.42285156,-84.82687000
8.45336914,-98.83990000
8.48388672,-89.94714000
8.51440430,-86.71632000
8.54492188,-86.68759000
8.57543945,-85.78685000
8.60595703,-83.96133000
8.63647461,-83.63129000
8.66699219,-84.73462000
8.69750977,-84.96833000
8.72802734,-84.14834000
8.75854492,-85.11029000
8.78906250,-91.01595000
8.81958008,-91.78271000
8.85009766,-84.65923000
8.88061523,-83.76302000
8.91113281,-86.72171000
8.94165039,-89.12567000
8.97216797,-86.54417000
9.00268555,-85.96945000
9.03320313,-87.95798000
9.06372070,-89.26324000
9.09423828,-86.85248000
9.12475586,-85.49076000
9.15527344,-87.12822000
9.18579102,-95.27306000
9.21630859,-91.40929000
9.24682617,-84.53188000
9.27734375,-82.80898000
9.30786133,-84.03354000
9.33837891,-88.23189000
9.36889648,-93.86252000
9.39941406,-88.89545000
9.42993164,-87.40338000
9.46044922,-93.57433000
9.49096680,-93.42688000
9.52148438,-84.60548000
9.55200195,-82.60238000
9.58251953,-82.93901000
9.61303711,-83.13187000
9.64355469,-83.28423000
9.67407227,-85.84924000
9.70458984,-95.72272000
9.73510742,-90.45264000
9.76562500,-83.46921000
9.79614258,-80.68158000
9.82666016,-80.17002000
9.85717773,-81.75218000
9.88769531,-84.36575000
9.91821289,-85.63217000
9.94873047,-86.88824000
9.97924805,-89.87888000
10.00976563,-94.75664000
10.04028320,-93.56628000
10.07080078,-93.60783000
10.10131836,-99.94178000
10.13183594,-87.01188000
10.16235352,-84.59204000
10.19287109,-88.28010000
10.22338867,-97.51907000
10.25390625,-88.44592000
10.28442383,-84.91586000
10.31494141,-83.82981000
10.34545898,-85.23175000
10.37597656,-86.72654000
10.40649414,-84.30424000
10.43701172,-81.82732000
10.46752930,-81.03432000
10.49804688,-82.21473000
10.52856445,-85.25489000
10.55908203,-88.74673000
10.58959961,-88.18192000
10.62011719,-86.64486000
10.65063477,-84.74210000
10.68115234,-85.06896000
10.71166992,-92.80417000
10.74218750,-91.40178000
10.77270508,-84.17675000
10.80322266,-82.70970000
10.83374023,-83.10902000
10.86425781,-83.26596000
10.89477539,-82.26463000
10.92529297,-82.80323000
10.95581055,-87.68738000
10.98632813,-104.80250000
11.01684570,-95.66529000
11.04736328,-91.19052000
11.07788086,-86.97850000
11.10839844,-90.00037000
11.13891602,-89.73461000
11.16943359,-81.55759000
11.19995117,-78.71519000
11.23046875,-77.86276000
11.26098633,-78.48317000
11.29150391,-82.00420000
11.32202148,-87.44304000
11.35253906,-83.84278000
11.38305664,-84.50470000
11.41357422,-87.44919000
11.44409180,-83.73477000
11.47460938,-80.11475000
11.50512695,-78.76365000
11.53564453,-78.53774000
11.56616211,-77.18758000
11.59667969,-76.15585000
11.62719727,-76.70723000
11.65771484,-77.86696000
11.68823242,-77.48205000
11.71875000,-78.26472000
11.74926758,-82.65960000
11.77978516,-82.47379000
11.81030273,-79.39964000
11.84082031,-79.26126000
11.87133789,-80.69254000
11.90185547,-79.20249000
11.93237305,-77.84487000
11.96289063,-80.94052000
11.99340820,-83.97652000
12.02392578,-80.07667000
12.05444336,-78.90524000
12.08496094,-77.68233000
12.11547852,-77.12038000
12.14599609,-78.64429000
12.17651367,-81.71558000
12.20703125,-85.42591000
12.23754883,-87.35677000
12.26806641,-86.49953000
12.29858398,-92.94138000
12.32910156,-87.38956000
12.35961914,-79.03227000
12.39013672,-76.75358000
12.42065430,-77.74222000
12.45117188,-81.94305000
12.48168945,-90.82694000
12.51220703,-99.82782000
12.54272461,-99.77681000
12.57324219,-88.52806000
12.60375977,-86.76772000
12.63427734,-89.20765000
12.66479492,-88.32431000
12.69531250,-82.15411000
12.72583008,-79.48518000
12.75634766,-79.40054000
12.78686523,-78.60331000
12.81738281,-77.74409000
12.84790039,-79.70050000
12.87841797,-83.41928000
12.90893555,-81.01207000
12.93945313,-80.40963000
12.96997070,-83.47179000
13.00048828,-80.90604000
13.03100586,-78.17239000
13.06152344,-79.14533000
13.09204102,-82.87633000
13.12255859,-85.23341000
13.15307617,-85.66841000
13.18359375,-82.14520000
13.21411133,-77.23553000
13.24462891,-74.58754000
13.27514648,-73.72133000
13.30566406,-74.37123000
13.33618164,-76.55041000
13.36669922,-78.86601000
13.39721680,-78.94218000
13.42773438,-79.09259000
13.45825195,-79.20928000
13.48876953,-73.98099000
13.51928711,-68.65292000
13.54980469,-66.30559000
13.58032227,-67.13987000
13.61083984,-71.49291000
13.64135742,-80.58490000
13.67187500,-78.56596000
13.70239258,-70.43108000
13.73291016,-66.24559000
13.76342773,-65.89672000
13.79394531,-69.99327000
13.82446289,-81.41866000
13.85498047,-81.97503000
13.88549805,-84.25327000
13.91601563,-85.82637000
13.94653320,-84.97028000
13.97705078,-84.37128000
14.00756836,-80.59567000
14.03808594,-78.69710000
14.06860352,-79.45266000
14.09912109,-83.93181000
14.12963867,-90.94923000
14.16015625,-87.24509000
14.19067383,-89.82693000
14.22119141,-95.54458000
14.25170898,-86.93211000
14.28222656,-84.94409000
14.31274414,-84.88985000
14.34326172,-83.74788000
14.37377930,-81.60219000
14.40429688,-79.74240000
14.43481445,-78.93549000
14.46533203,-79.38872000
14.49584961,-80.43652000
14.52636719,-80.95184000
14.55688477,-80.49027000
14.58740234,-80.19160000
14.61791992,-81.84903000
14.64843750,-86.79977000
14.67895508,-94.85950000
14.70947266,-94.45083000
14.73999023,-87.94509000
14.77050781,-85.69066000
14.80102539,-88.34367000
14.83154297,-91.48650000
14.86206055,-88.73168000
14.89257813,-87.90381000
14.92309570,-87.61582000
14.95361328,-89.72395000
14.98413086,-100.22010000
15.01464844,-98.52340000
15.04516602,-99.02702000
15.07568359,-95.42130000
15.10620117,-90.17180000
15.13671875,-88.42726000
15.16723633,-90.09174000
15.19775391,-93.32950000
15.22827148,-89.80854000
15.25878906,-92.57224000
15.28930664,-97.64056000
15.31982422,-88.30716000
15.35034180,-89.78738000
15.38085938,-109.42740000
15.41137695,-88.17809000
15.44189453,-86.31131000
15.47241211,-89.64027000
15.50292969,-95.85196000
15.53344727,-97.85637000
15.56396484,-96.25556000
15.59448242,-95.91414000
15.62500000,-96.98088000
15.65551758,-88.21883000
15.68603516,-83.90847000
15.71655273,-83.70621000
15.74707031,-85.88438000
15.77758789,-89.67063000
15.80810547,-99.89333000
15.83862305,-97.23322000
15.86914063,-94.41817000
15.89965820,-97.92091000
15.93017578,-99.27113000
15.96069336,-95.31734000
15.99121094,-93.15101000
16.02172852,-96.12121000
16.05224609,-98.13720000
16.08276367,-92.37176000
16.11328125,-93.42426000
16.14379883,-94.75377000
16.17431641,-89.64493000
16.20483398,-86.74683000
16.23535156,-86.32450000
16.26586914,-87.22512000
16.29638672,-87.49595000
16.32690430,-88.86638000
16.35742188,-96.22720000
16.38793945,-94.65648000
16.41845703,-87.87050000
16.44897461,-87.57170000
16.47949219,-90.95417000
16.51000977,-92.76025000
16.54052734,-93.06877000
16.57104492,-98.59208000
16.60156250,-102.22380000
16.63208008,-96.12648000
16.66259766,-93.52014000
16.69311523,-91.77145000
16.72363281,-94.31586000
16.75415039,-100.51900000
16.78466797,-89.95303000
16.81518555,-86.59489000
16.84570313,-87.07077000
16.87622070,-90.20844000
16.90673828,-92.24106000
16.93725586,-91.89711000
16.96777344,-89.83685000
16.99829102,-87.57722000
17.02880859,-88.02579000
17.05932617,-91.29338000
17.08984375,-94.51190000
17.12036133,-93.42862000
17.15087891,-91.18839000
17.18139648,-90.98427000
17.21191406,-92.79474000
17.24243164,-94.56356000
17.27294922,-97.53012000
17.30346680,-105.23770000
17.33398438,-102.90120000
17.36450195,-98.77776000
17.39501953,-96.76030000
17.42553711,-94.91147000
17.45605469,-93.29716000
17.48657227,-93.32702000
17.51708984,-94.93336000
17.54760742,-95.59625000
17.57812500,-93.99643000
17.60864258,-93.21013000
17.63916016,-96.32270000
17.66967773,-97.16562000
17.70019531,-90.77287000
17.73071289,-90.63282000
17.76123047,-100.87220000
17.79174805,-93.61301000
17.82226563,-89.06579000
17.85278320,-89.73225000
17.88330078,-92.29195000
17.91381836,-95.10548000
17.94433594,-97.87228000
17.97485352,-106.03570000
18.00537109,-103.45160000
18.03588867,-95.37654000
18.06640625,-92.34784000
18.09692383,-91.26449000
18.12744141,-93.11893000
18.15795898,-100.25860000
18.18847656,-119.11430000
18.21899414,-107.30870000
18.24951172,-98.71446000
18.28002930,-98.76472000
18.31054688,-100.68840000
18.34106445,-92.84226000
18.37158203,-88.50182000
18.40209961,-87.50266000
18.43261719,-90.36537000
18.46313477,-100.01730000
18.49365234,-105.49510000
18.52416992,-103.32670000
18.55468750,-114.32230000
18.58520508,-102.33320000
18.61572266,-97.26411000
18.64624023,-96.00359000
18.67675781,-98.38714000
18.70727539,-107.64990000
18.73779297,-106.22370000
18.76831055,-98.74984000
18.79882813,-98.18833000
18.82934570,-105.53170000
18.85986328,-100.29940000
18.89038086,-95.03590000
18.92089844,-94.76271000
18.95141602,-96.81901000
18.98193359,-97.49581000
19.01245117,-97.21487000
19.04296875,-97.70615000
19.07348633,-97.12124000
19.10400391,-96.70322000
19.13452148,-97.34260000
19.16503906,-98.23367000
19.19555664,-98.84218000
19.22607422,-100.52960000
19.25659180,-105.11480000
19.28710938,-109.56220000
19.31762695,-102.02610000
19.34814453,-96.60783000
19.37866211,-94.25968000
19.40917969,-94.73782000
19.43969727,-97.94556000
19.47021484,-101.30670000
19.50073242,-99.03650000
19.53125000,-99.86479000
19.56176758,-109.33800000
19.59228516,-99.47099000
19.62280273,-96.23313000
19.65332031,-97.90863000
19.68383789,-99.55921000
19.71435547,-97.45349000
19.74487305,-97.94122000
19.77539063,-103.59190000
19.80590820,-116.09320000
19.83642578,-101.96820000
19.86694336,-99.11969000
19.89746094,-100.12300000
19.92797852,-105.35640000
19.95849609,-110.40760000
19.98901367,-105.08900000
20.01953125,-101.76460000
20.05004883,-99.02894000
20.08056641,-97.59254000
20.11108398,-97.31713000
20.14160156,-96.60890000
20.17211914,-94.84608000
20.20263672,-92.15916000
20.23315430,-87.72098000
20.26367188,-85.32616000
20.29418945,-86.92900000
20.32470703,-93.80771000
20.35522461,-91.68158000
20.38574219,-90.37896000
20.41625977,-92.82912000
20.44677734,-91.22348000
20.47729492,-90.29123000
20.50781250,-89.29414000
20.53833008,-86.05846000
20.56884766,-84.93146000
20.59936523,-87.86125000
20.62988281,-99.68448000
20.66040039,-97.03564000
20.69091797,-92.81902000
20.72143555,-96.53358000
20.75195313,-96.72181000
20.78247070,-87.65103000
20.81298828,-85.65590000
20.84350586,-87.39135000
20.87402344,-90.57468000
20.90454102,-91.62994000
20.93505859,-90.16704000
20.96557617,-89.66182000
20.99609375,-91.75205000
21.02661133,-96.26900000
21.05712891,-97.80183000
21.08764648,-94.86536000
21.11816406,-95.25384000
21.14868164,-99.98244000
21.17919922,-95.62462000
21.20971680,-92.18162000
21.24023438,-92.63103000
21.27075195,-98.87877000
21.30126953,-101.48410000
21.33178711,-92.70914000
21.36230469,-92.25838000
21.39282227,-96.63722000
21.42333984,-100.58470000
21.45385742,-97.39753000
21.48437500,-96.81973000
21.51489258,-90.37795000
21.54541016,-86.77245000
21.57592773,-88.31969000
21.60644531,-100.26780000
21.63696289,-94.43376000
21.66748047,-90.31023000
21.69799805,-90.72055000
21.72851563,-91.09071000
21.75903320,-90.70676000
21.78955078,-92.31454000
21.82006836,-99.25264000
21.85058594,-98.97519000
21.88110352,-95.27467000
21.91162109,-95.11891000
21.94213867,-93.34396000
21.97265625,-92.30710000
22.00317383,-93.54042000
22.03369141,-95.07230000
22.06420898,-94.45396000
22.09472656,-93.46424000
22.12524414,-94.39990000
22.15576172,-96.87677000
22.18627930,-97.24480000
22.21679688,-93.61337000
22.24731445,-91.04728000
22.27783203,-90.37473000
22.30834961,-89.20367000
22.33886719,-89.76752000
22.36938477,-96.89967000
22.39990234,-102.01640000
22.43041992,-93.64635000
22.46093750,-90.85376000
22.49145508,-90.29037000
22.52197266,-91.16586000
22.55249023,-92.25606000
22.58300781,-99.31594000
22.61352539,-92.31293000
22.64404297,-88.28838000
22.67456055,-90.18636000
22.70507813,-97.39491000
22.73559570,-102.77720000
22.76611328,-98.07349000
22.79663086,-95.16370000
22.82714844,-94.28867000
22.85766602,-91.29356000
22.88818359,-89.42174000
22.91870117,-90.62642000
22.94921875,-94.56653000
22.97973633,-97.32397000
23.01025391,-98.53769000
23.04077148,-103.78910000
23.07128906,-104.83360000
23.10180664,-99.95508000
23.13232422,-101.14020000
23.16284180,-94.85032000
23.19335938,-90.54108000
23.22387695,-89.71658000
23.25439453,-90.60854000
23.28491211,-91.86809000
23.31542969,-92.05413000
23.34594727,-92.23322000
23.37646484,-95.82024000
23.40698242,-103.93310000
23.43750000,-98.11378000
23.46801758,-94.22467000
23.49853516,-90.45277000
23.52905273,-88.88489000
23.55957031,-89.41215000
23.59008789,-90.51537000
23.62060547,-91.81141000
23.65112305,-95.66570000
23.68164063,-101.18240000
23.71215820,-98.85690000
23.74267578,-106.51620000
23.77319336,-100.35480000
23.80371094,-93.36159000
23.83422852,-92.03533000
23.86474609,-93.58437000
23.89526367,-96.80637000
23.92578125,-99.07081000
23.95629883,-99.04741000
23.98681641,-98.02272000
24.01733398,-95.26950000
24.04785156,-96.21494000
24.07836914,-107.68650000
24.10888672,-97.42670000
24.13940430,-91.06705000
24.16992188,-88.00352000
24.20043945,-87.63193000
24.23095703,-90.52147000
24.26147461,-96.13335000
24.29199219,-99.06548000
24.32250977,-96.26855000
24.35302734,-91.88899000
24.38354492,-91.02901000
24.41406250,-92.00474000
24.44458008,-92.81242000
24.47509766,-94.00653000
24.50561523,-93.58364000
24.53613281,-93.98576000
24.56665039,-99.30766000
24.59716797,-111.54720000
24.62768555,-104.13740000
24.65820313,-106.28450000
24.68872070,-107.01540000
24.71923828,-106.23100000
24.74975586,-102.31150000
24.78027344,-96.01755000
24.81079102,-92.48529000
24.84130859,-91.83086000
24.87182617,-92.77347000
24.90234375,-91.92214000
24.93286133,-88.91738000
24.96337891,-86.83715000
24.99389648,-87.21787000
25.02441406,-90.37141000
25.05493164,-95.23248000
25.08544922,-100.24690000
25.11596680,-114.72150000
25.14648438,-102.23410000
25.17700195,-95.83588000
25.20751953,-93.59096000
25.23803711,-94.31519000
25.26855469,-96.39226000
25.29907227,-94.63026000
25.32958984,-91.81687000
25.36010742,-91.22626000
25.39062500,-93.13371000
25.42114258,-96.30434000
25.45166016,-96.61079000
25.48217773,-95.33631000
25.51269531,-94.51756000
25.54321289,-94.43549000
25.57373047,-95.71471000
25.60424805,-96.20448000
25.63476563,-92.53929000
25.66528320,-89.39922000
25.69580078,-88.71953000
25.72631836,-91.08981000
25.75683594,-98.70586000
25.78735352,-102.98870000
25.81787109,-94.99104000
25.84838867,-92.89107000
25.87890625,-94.27618000
25.90942383,-99.82813000
25.93994141,-98.67333000
25.97045898,-96.58035000
26.00097656,-98.65082000
26.03149414,-102.45100000
26.06201172,-103.24240000
26.09252930,-103.85220000
26.12304688,-107.57490000
26.15356445,-117.83840000
26.18408203,-101.18190000
26.21459961,-100.83070000
26.24511719,-112.89340000
26.27563477,-96.03889000
26.30615234,-94.41881000
26.33666992,-98.19382000
26.36718750,-102.88690000
26.39770508,-100.87080000
26.42822266,-95.29634000
26.45874023,-92.17106000
26.48925781,-92.43648000
26.51977539,-95.53146000
26.55029297,-97.02782000
26.58081055,-101.41270000
26.61132813,-101.66560000
26.64184570,-96.84444000
26.67236328,-105.29460000
26.70288086,-96.90342000
26.73339844,-91.44727000
26.76391602,-91.81137000
26.79443359,-94.45332000
26.82495117,-95.01076000
26.85546875,-93.26567000
26.88598633,-93.17146000
26.91650391,-95.96960000
26.94702148,-101.53430000
26.97753906,-118.66260000
27.00805664,-100.63030000
27.03857422,-97.58595000
27.06909180,-98.65796000
27.09960938,-100.25400000
27.13012695,-99.06059000
27.16064453,-97.10440000
27.19116211,-96.91921000
27.22167969,-98.21995000
27.25219727,-102.49490000
27.28271484,-107.89510000
27.31323242,-96.49201000
27.34375000,-93.47827000
27.37426758,-92.26648000
27.40478516,-91.68771000
27.43530273,-94.92981000
27.46582031,-107.73480000
27.49633789,-95.03353000
27.52685547,-94.03194000
27.55737305,-98.81618000
27.58789063,-99.41346000
27.61840820,-98.02776000
27.64892578,-99.48750000
27.67944336,-100.36490000
27.70996094,-100.91280000
27.74047852,-101.54870000
27.77099609,-100.58090000
27.80151367,-98.05289000
27.83203125,-94.94179000
27.86254883,-92.59441000
27.89306641,-92.13562000
27.92358398,-94.29130000
27.95410156,-101.39560000
27.98461914,-100.53290000
28.01513672,-94.47264000
28.04565430,-94.23959000
28.07617188,-98.89889000
28.10668945,-106.21500000
28.13720703,-96.77242000
28.16772461,-91.92989000
28.19824219,-90.45486000
28.22875977,-92.48630000
28.25927734,-98.55748000
28.28979492,-102.14610000
28.32031250,-101.90260000
28.35083008,-98.56862000
28.38134766,-98.26427000
28.41186523,-105.02480000
28.44238281,-113.66850000
28.47290039,-101.88300000
28.50341797,-92.82172000
28.53393555,-88.60362000
28.56445313,-87.09343000
28.59497070,-86.86865000
28.62548828,-88.07840000
28.65600586,-91.58235000
28.68652344,-95.05914000
28.71704102,-96.74812000
28.74755859,-100.95490000
28.77807617,-103.37720000
28.80859375,-102.76470000
28.83911133,-104.92500000
28.86962891,-110.94860000
28.90014648,-97.70466000
28.93066406,-94.30177000
28.96118164,-95.64040000
28.99169922,-101.60910000
29.02221680,-100.28420000
29.05273438,-94.75762000
29.08325195,-92.87656000
29.11376953,-94.86286000
29.14428711,-107.22870000
29.17480469,-97.48376000
29.20532227,-91.59489000
29.23583984,-91.10226000
29.26635742,-94.96608000
29.29687500,-99.36565000
29.32739258,-94.89313000
29.35791016,-93.32299000
29.38842773,-93.51032000
29.41894531,-94.49715000
29.44946289,-96.39418000
29.47998047,-99.77126000
29.51049805,-99.69909000
29.54101563,-94.48184000
29.57153320,-92.34608000
29.60205078,-94.03447000
29.63256836,-104.26640000
29.66308594,-96.47500000
29.69360352,-89.82054000
29.72412109,-88.05344000
29.75463867,-88.56508000
29.78515625,-90.32629000
29.81567383,-94.45400000
29.84619141,-100.23990000
29.87670898,-96.12372000
29.90722656,-95.31712000
29.93774414,-95.93782000
29.96826172,-94.54743000
29.99877930,-94.01102000
30.02929688,-96.15090000
30.05981445,-101.18780000
30.09033203,-105.12620000
30.12084961,-107.28380000
30.15136719,-114.86000000
30.18188477,-111.75760000
30.21240234,-102.11810000
30.24291992,-98.70004000
30.27343750,-97.82430000
30.30395508,-98.04883000
30.33447266,-98.49661000
30.36499023,-97.97951000
30.39550781,-95.26799000
30.42602539,-92.71156000
30.45654297,-92.22276000
30.48706055,-94.12014000
30.51757813,-98.10068000
30.54809570,-105.52580000
30.57861328,-107.20240000
30.60913086,-97.20849000
30.63964844,-94.10259000
30.67016602,-93.17435000
30.70068359,-92.28593000
30.73120117,-91.01028000
30.76171875,-90.58717000
30.79223633,-92.35748000
30.82275391,-97.63048000
30.85327148,-102.80890000
30.88378906,-100.15000000
30.91430664,-101.05200000
30.94482422,-103.22880000
30.97534180,-97.75377000
31.00585938,-93.23102000
31.03637695,-91.57734000
31.06689453,-91.48566000
31.09741211,-93.27099000
31.12792969,-98.04927000
31.15844727,-98.72847000
31.18896484,-99.23103000
31.21948242,-106.73960000
31.25000000,-96.95595000
31.28051758,-93.58201000
31.31103516,-94.95618000
31.34155273,-98.89873000
31.37207031,-95.12910000
31.40258789,-91.51748000
31.43310547,-90.29266000
31.46362305,-90.77454000
31.49414063,-93.16682000
31.52465820,-99.17038000
31.55517578,-107.02200000
31.58569336,-96.52902000
31.61621094,-92.51244000
31.64672852,-91.24825000
31.67724609,-92.40040000
31.70776367,-96.28632000
31.73828125,-101.21980000
31.76879883,-95.96579000
31.79931641,-92.04421000
31.82983398,-91.49642000
31.86035156,-92.40451000
31.89086914,-92.33987000
31.92138672,-91.67418000
31.95190430,-91.51855000
31.98242188,-92.66267000
32.01293945,-94.87556000
32.04345703,-96.08353000
32.07397461,-95.79922000
32.10449219,-97.13410000
32.13500977,-98.65517000
32.16552734,-95.14159000
32.19604492,-94.65802000
32.22656250,-97.04745000
32.25708008,-97.26235000
32.28759766,-97.60937000
32.31811523,-103.18010000
32.34863281,-114.77920000
32.37915039,-105.01160000
32.40966797,-108.10310000
32.44018555,-113.30820000
32.47070313,-113.40360000
32.50122070,-104.25630000
32.53173828,-99.15940000
32.56225586,-96.30952000
32.59277344,-94.96858000
32.62329102,-94.81624000
32.65380859,-95.20062000
32.68432617,-96.23328000
32.71484375,-100.35270000
32.74536133,-111.67560000
32.77587891,-97.75552000
32.80639648,-95.89965000
32.83691406,-100.14360000
32.86743164,-101.99140000
32.89794922,-98.14287000
32.92846680,-98.69392000
32.95898438,-99.64775000
32.98950195,-97.88010000
33.02001953,-94.82603000
33.05053711,-93.02737000
33.08105469,-93.34874000
33.11157227,-95.54094000
33.14208984,-98.89355000
33.17260742,-101.37900000
33.20312500,-99.33394000
33.23364258,-94.21530000
33.26416016,-92.26703000
33.29467773,-94.35893000
33.32519531,-102.21200000
33.35571289,-109.46930000
33.38623047,-102.50290000
33.41674805,-98.04902000
33.44726563,-94.42697000
33.47778320,-92.53021000
33.50830078,-91.88419000
33.53881836,-92.10178000
33.56933594,-93.18201000
33.59985352,-95.18117000
33.63037109,-97.48513000
33.66088867,-98.41489000
33.69140625,-97.86805000
33.72192383,-98.79518000
33.75244141,-106.69910000
33.78295898,-104.05210000
33.81347656,-96.77131000
33.84399414,-95.97987000
33.87451172,-99.44054000
33.90502930,-111.31750000
33.93554688,-108.18750000
33.96606445,-102.11150000
33.99658203,-99.66743000
34.02709961,-100.05530000
34.05761719,-100.68560000
34.08813477,-97.16476000
34.11865234,-94.89223000
34.14916992,-94.58575000
34.17968750,-95.04179000
34.21020508,-95.85281000
34.24072266,-97.48635000
34.27124023,-101.50020000
34.30175781,-120.71100000
34.33227539,-99.82809000
34.36279297,-96.55232000
34.39331055,-98.29716000
34.42382813,-107.67050000
34.45434570,-102.56860000
34.48486328,-95.55917000
34.51538086,-92.79176000
34.54589844,-91.18966000
34.57641602,-90.12457000
34.60693359,-90.16357000
34.63745117,-92.10456000
34.66796875,-96.67113000
34.69848633,-104.35450000
34.72900391,-109.46660000
34.75952148,-109.74780000
34.79003906,-109.21460000
34.82055664,-107.16490000
34.85107422,-108.16260000
34.88159180,-139.97910000
34.91210938,-104.50810000
34.94262695,-100.40310000
34.97314453,-100.82070000
35.00366211,-103.83060000
35.03417969,-105.01810000
35.06469727,-105.14950000
35.09521484,-118.87700000
35.12573242,-101.89500000
35.15625000,-97.28165000
35.18676758,-95.83228000
35.21728516,-93.86130000
35.24780273,-92.49154000
35.27832031,-92.66959000
35.30883789,-93.16132000
35.33935547,-92.33177000
35.36987305,-91.33156000
35.40039063,-92.17911000
35.43090820,-96.51688000
35.46142578,-112.17080000
35.49194336,-102.85310000
35.52246094,-99.71211000
35.55297852,-101.09410000
35.58349609,-102.15760000
35.61401367,-99.39514000
35.64453125,-96.26061000
35.67504883,-95.45134000
35.70556641,-98.09127000
35.73608398,-106.97770000
35.76660156,-102.42860000
35.79711914,-99.50843000
35.82763672,-102.88770000
35.85815430,-105.39650000
35.88867188,-96.68652000
35.91918945,-91.31108000
35.94970703,-89.00940000
35.98022461,-89.79773000
36.01074219,-93.74039000
36.04125977,-99.30515000
36.07177734,-100.40170000
36.10229492,-98.26059000
36.13281250,-98.09296000
36.16333008,-101.55190000
36.19384766,-106.15820000
36.22436523,-106.20700000
36.25488281,-102.71870000
36.28540039,-99.71886000
36.31591797,-98.47787000
36.34643555,-97.54175000
36.37695313,-96.41190000
36.40747070,-96.39007000
36.43798828,-98.72224000
36.46850586,-102.26840000
36.49902344,-101.24670000
36.52954102,-99.04835000
36.56005859,-98.16298000
36.59057617,-98.43198000
36.62109375,-97.31290000
36.65161133,-93.97514000
36.68212891,-92.17137000
36.71264648,-92.36688000
36.74316406,-93.99353000
36.77368164,-96.18266000
36.80419922,-98.49269000
36.83471680,-101.16290000
36.86523438,-101.46160000
36.89575195,-99.78111000
36.92626953,-95.77935000
36.95678711,-94.70468000
36.98730469,-100.13240000
37.01782227,-101.14330000
37.04833984,-93.00973000
37.07885742,-91.05380000
37.10937500,-91.40128000
37.13989258,-92.05792000
37.17041016,-91.73299000
37.20092773,-91.60519000
37.23144531,-93.19038000
37.26196289,-96.58527000
37.29248047,-98.05103000
37.32299805,-95.25136000
37.35351563,-92.92035000
37.38403320,-92.20737000
37.41455078,-93.58974000
37.44506836,-98.03304000
37.47558594,-105.52130000
37.50610352,-108.24780000
37.53662109,-116.99400000
37.56713867,-101.96750000
37.59765625,-96.83247000
37.62817383,-95.25580000
37.65869141,-94.75714000
37.68920898,-93.93693000
37.71972656,-93.49681000
37.75024414,-93.75726000
37.78076172,-94.15859000
37.81127930,-94.76418000
37.84179688,-96.23158000
37.87231445,-97.53940000
37.90283203,-95.87726000
37.93334961,-93.00056000
37.96386719,-91.00732000
37.99438477,-90.74116000
38.02490234,-92.13548000
38.05541992,-93.90334000
38.08593750,-95.54474000
38.11645508,-99.10694000
38.14697266,-105.71440000
38.17749023,-101.24860000
38.20800781,-98.07568000
38.23852539,-97.97180000
38.26904297,-98.30087000
38.29956055,-98.73025000
38.33007813,-97.56567000
38.36059570,-94.50271000
38.39111328,-93.08488000
38.42163086,-91.25514000
38.45214844,-88.65346000
38.48266602,-87.79964000
38.51318359,-88.93330000
38.54370117,-91.14256000
38.57421875,-93.13489000
38.60473633,-94.55774000
38.63525391,-96.31509000
38.66577148,-99.47910000
38.69628906,-107.67500000
38.72680664,-106.91950000
38.75732422,-97.71918000
38.78784180,-94.62653000
38.81835938,-94.89167000
38.84887695,-97.40676000
38.87939453,-95.91602000
38.90991211,-94.06657000
38.94042969,-96.41078000
38.97094727,-103.53030000
39.00146484,-92.45480000
39.03198242,-87.58096000
39.06250000,-86.62160000
39.09301758,-88.90556000
39.12353516,-94.23962000
39.15405273,-93.25438000
39.18457031,-89.17441000
39.21508789,-88.32969000
39.24560547,-90.60477000
39.27612305,-96.03329000
39.30664063,-101.79950000
39.33715820,-102.49780000
39.36767578,-100.63820000
39.39819336,-96.61498000
39.42871094,-93.94561000
39.45922852,-93.43975000
39.48974609,-93.71667000
39.52026367,-93.21115000
39.55078125,-93.30545000
39.58129883,-96.53556000
39.61181641,-98.27562000
39.64233398,-92.35512000
39.67285156,-91.57733000
39.70336914,-95.01080000
39.73388672,-97.93571000
39.76440430,-96.90036000
39.79492188,-96.26860000
39.82543945,-95.90402000
39.85595703,-91.36632000
39.88647461,-87.74888000
39.91699219,-86.52507000
39.94750977,-86.89843000
39.97802734,-88.75626000
40.00854492,-92.80197000
40.03906250,-93.57234000
40.06958008,-90.54848000
40.10009766,-90.50517000
40.13061523,-91.73862000
40.16113281,-92.10419000
40.19165039,-91.98254000
40.22216797,-92.19318000
40.25268555,-91.99431000
40.28320313,-88.83335000
40.31372070,-86.56844000
40.34423828,-86.82731000
40.37475586,-89.93091000
40.40527344,-97.87491000
40.43579102,-110.22060000
40.46630859,-99.13566000
40.49682617,-96.16957000
40.52734375,-94.86386000
40.55786133,-95.93658000
40.58837891,-96.92634000
40.61889648,-94.51603000
40.64941406,-90.99140000
40.67993164,-89.94116000
40.71044922,-91.23608000
40.74096680,-92.87032000
40.77148438,-91.96626000
40.80200195,-89.53087000
40.83251953,-88.33090000
40.86303711,-89.50249000
40.89355469,-93.22273000
40.92407227,-95.08215000
40.95458984,-91.20521000
40.98510742,-89.11742000
41.01562500,-89.36160000
41.04614258,-91.23580000
41.07666016,-97.32620000
41.10717773,-101.89940000
41.13769531,-92.00716000
41.16821289,-90.55833000
41.19873047,-88.69292000
41.22924805,-85.78973000
41.25976563,-85.36020000
41.29028320,-86.34721000
41.32080078,-85.79865000
41.35131836,-84.60408000
41.38183594,-84.32099000
41.41235352,-84.94719000
41.44287109,-84.93117000
41.47338867,-83.77110000
41.50390625,-83.04919000
41.53442383,-83.93867000
41.56494141,-86.63960000
41.59545898,-88.59337000
41.62597656,-90.09447000
41.65649414,-94.27798000
41.68701172,-96.44383000
41.71752930,-97.92300000
41.74804688,-109.34460000
41.77856445,-98.07222000
41.80908203,-92.74291000
41.83959961,-91.23055000
41.87011719,-92.02618000
41.90063477,-94.89037000
41.93115234,-98.79944000
41.96166992,-113.95600000
41.99218750,-95.17172000
42.02270508,-90.58449000
42.05322266,-92.02434000
42.08374023,-100.85870000
42.11425781,-95.74722000
42.14477539,-92.73574000
42.17529297,-95.06461000
42.20581055,-102.03360000
42.23632813,-96.64484000
42.26684570,-92.66554000
42.29736328,-89.77522000
42.32788086,-88.90749000
42.35839844,-90.43723000
42.38891602,-92.62840000
42.41943359,-95.26639000
42.44995117,-93.30186000
42.48046875,-90.30421000
42.51098633,-91.06380000
42.54150391,-98.13989000
42.57202148,-103.67230000
42.60253906,-95.79041000
42.63305664,-96.24427000
42.66357422,-94.23083000
42.69409180,-90.85606000
42.72460938,-89.57027000
42.75512695,-90.24512000
42.78564453,-94.24508000
42.81616211,-105.76010000
42.84667969,-90.63878000
42.87719727,-86.30621000
42.90771484,-85.59806000
42.93823242,-86.74205000
42.96875000,-87.26991000
42.99926758,-85.65189000
43.02978516,-84.30500000
43.06030273,-84.94969000
43.09082031,-88.42125000
43.12133789,-94.13850000
43.15185547,-90.07675000
43.18237305,-85.95273000
43.21289063,-84.79412000
43.24340820,-85.90694000
43.27392578,-87.78363000
43.30444336,-87.48842000
43.33496094,-85.68948000
43.36547852,-84.85631000
43.39599609,-85.57298000
43.42651367,-87.54961000
43.45703125,-89.82625000
43.48754883,-89.56168000
43.51806641,-87.32428000
43.54858398,-86.74391000
43.57910156,-89.05199000
43.60961914,-95.16153000
43.64013672,-104.30110000
43.67065430,-95.66171000
43.70117188,-90.82455000
43.73168945,-88.83811000
43.76220703,-88.33221000
43.79272461,-88.66250000
43.82324219,-88.85575000
43.85375977,-86.76673000
43.88427734,-84.86343000
43.91479492,-84.96909000
43.94531250,-86.32316000
43.97583008,-87.14725000
44.00634766,-87.10387000
44.03686523,-87.43941000
44.06738281,-89.24595000
44.09790039,-92.08321000
44.12841797,-92.27399000
44.15893555,-89.92356000
44.18945313,-88.14035000
44.21997070,-87.93293000
44.25048828,-89.47688000
44.28100586,-92.38415000
44.31152344,-98.47279000
44.34204102,-102.94390000
44.37255859,-92.22801000
44.40307617,-90.79337000
44.43359375,-95.17926000
44.46411133,-104.14730000
44.49462891,-94.03844000
44.52514648,-90.04767000
44.55566406,-88.42603000
44.58618164,-88.68716000
44.61669922,-90.71996000
44.64721680,-92.75272000
44.67773438,-91.36238000
44.70825195,-89.79843000
44.73876953,-90.43893000
44.76928711,-93.45331000
44.79980469,-96.92419000
44.83032227,-94.96521000
44.86083984,-92.51276000
44.89135742,-92.70763000
44.92187500,-92.39625000
44.95239258,-90.59821000
44.98291016,-92.01415000
45.01342773,-97.08153000
45.04394531,-93.56688000
45.07446289,-91.71006000
45.10498047,-94.44526000
45.13549805,-97.57531000
45.16601563,-92.63123000
45.19653320,-90.11830000
45.22705078,-90.79576000
45.25756836,-94.48543000
45.28808594,-97.20486000
45.31860352,-93.49911000
45.34912109,-90.84603000
45.37963867,-90.35713000
45.41015625,-91.83224000
45.44067383,-95.49100000
45.47119141,-105.39280000
45.50170898,-98.44880000
45.53222656,-93.35899000
45.56274414,-92.26837000
45.59326172,-91.12416000
45.62377930,-89.42343000
45.65429688,-88.91263000
45.68481445,-89.87213000
45.71533203,-92.16836000
45.74584961,-95.95638000
45.77636719,-96.79457000
45.80688477,-92.09126000
45.83740234,-89.11835000
45.86791992,-88.37410000
45.89843750,-89.68147000
45.92895508,-92.35385000
45.95947266,-95.95150000
45.98999023,-96.11972000
46.02050781,-91.09696000
46.05102539,-89.29353000
46.08154297,-90.38590000
46.11206055,-94.04076000
46.14257813,-102.01190000
46.17309570,-110.40460000
46.20361328,-103.78240000
46.23413086,-106.46710000
46.26464844,-114.59250000
46.29516602,-102.39030000
46.32568359,-94.97741000
46.35620117,-90.93772000
46.38671875,-90.56721000
46.41723633,-94.92310000
46.44775391,-104.14310000
46.47827148,-100.29230000
46.50878906,-100.91020000
46.53930664,-98.88460000
46.56982422,-94.73267000
46.60034180,-92.28906000
46.63085938,-90.99217000
46.66137695,-90.40247000
46.69189453,-90.49303000
46.72241211,-92.00291000
46.75292969,-96.54036000
46.78344727,-106.64710000
46.81396484,-100.16360000
46.84448242,-95.57621000
46.87500000,-93.27530000
46.90551758,-92.43118000
46.93603516,-92.96302000
46.96655273,-93.98833000
46.99707031,-93.67194000
47.02758789,-92.78436000
47.05810547,-94.06457000
47.08862305,-98.23883000
47.11914063,-95.91856000
47.14965820,-93.64449000
47.18017578,-94.76894000
47.21069336,-97.45919000
47.24121094,-101.11280000
47.27172852,-104.20970000
47.30224609,-101.48830000
47.33276367,-98.58082000
47.36328125,-97.65476000
47.39379883,-97.97334000
47.42431641,-96.66195000
47.45483398,-93.88271000
47.48535156,-91.96095000
47.51586914,-91.13599000
47.54638672,-91.60995000
47.57690430,-93.58475000
47.60742188,-93.48935000
47.63793945,-91.32225000
47.66845703,-91.95050000
47.69897461,-97.24072000
47.72949219,-103.20510000
47.76000977,-98.41813000
47.79052734,-99.65127000
47.82104492,-108.13080000
47.85156250,-111.50720000
47.88208008,-109.93830000
47.91259766,-102.44830000
47.94311523,-96.61637000
47.97363281,-93.60159000
48.00415039,-91.42458000
48.03466797,-90.33256000
48.06518555,-90.05856000
48.09570313,-89.89935000
48.12622070,-90.13657000
48.15673828,-91.06529000
48.18725586,-92.49677000
48.21777344,-95.22018000
48.24829102,-99.45583000
48.27880859,-98.93516000
48.30932617,-97.75571000
48.33984375,-97.63420000
48.37036133,-98.51080000
48.40087891,-104.97340000
48.43139648,-109.93860000
48.46191406,-103.95480000
48.49243164,-104.29530000
48.52294922,-98.18969000
48.55346680,-94.48952000
48.58398438,-93.44035000
48.61450195,-93.66676000
48.64501953,-94.06564000
48.67553711,-92.82775000
48.70605469,-90.80753000
48.73657227,-90.47835000
48.76708984,-92.18118000
48.79760742,-94.24401000
48.82812500,-93.61298000
48.85864258,-91.12422000
48.88916016,-90.10565000
48.91967773,-91.54866000
48.95019531,-93.06477000
48.98071289,-90.76389000
49.01123047,-88.01862000
49.04174805,-87.50444000
49.07226563,-90.66967000
49.10278320,-102.45610000
49.13330078,-99.64850000
49.16381836,-94.96445000
49.19433594,-95.35336000
49.22485352,-96.79570000
49.25537109,-96.96153000
49.28588867,-96.10619000
49.31640625,-94.32249000
49.34692383,-93.14259000
49.37744141,-93.86786000
49.40795898,-97.35072000
49.43847656,-101.73470000
49.46899414,-98.92371000
49.49951172,-97.86717000
49.53002930,-98.59882000
49.56054688,-98.03921000
49.59106445,-96.20682000
49.62158203,-92.80381000
49.65209961,-88.66985000
49.68261719,-85.98903000
49.71313477,-85.57404000
49.74365234,-87.57243000
49.77416992,-91.88574000
49.80468750,-98.65271000
49.83520508,-104.63060000
49.86572266,-99.21347000
49.89624023,-96.69908000
49.92675781,-95.75552000
49.95727539,-94.74099000
49.98779297,-92.51559000
50.01831055,-89.65675000
