Frequency,Channel A
(MHz),(dBu)

0.00000000,-28.40122000
0.03051758,-28.71078000
0.06103516,-33.72988000
0.09155273,-43.25556000
0.12207031,-60.67759000
0.15258789,-69.33807000
0.18310547,-60.39673000
0.21362305,-59.48697000
0.24414063,-61.90295000
0.27465820,-66.30283000
0.30517578,-76.85976000
0.33569336,-64.55058000
0.36621094,-58.76703000
0.39672852,-55.60904000
0.42724609,-54.71641000
0.45776367,-56.04696000
0.48828125,-58.10336000
0.51879883,-56.72615000
0.54931641,-51.67612000
0.57983398,-46.34324000
0.61035156,-42.15042000
0.64086914,-39.76844000
0.67138672,-39.67383000
0.70190430,-42.23940000
0.73242188,-47.71522000
0.76293945,-55.39662000
0.79345703,-60.96841000
0.82397461,-62.30851000
0.85449219,-62.44682000
0.88500977,-61.59090000
0.91552734,-60.43632000
0.94604492,-57.52969000
0.97656250,-54.95255000
1.00708008,-53.98142000
1.03759766,-54.91751000
1.06811523,-57.81882000
1.09863281,-63.35209000
1.12915039,-76.44997000
1.15966797,-72.75388000
1.19018555,-73.93203000
1.22070313,-75.28342000
1.25122070,-68.37804000
1.28173828,-67.28209000
1.31225586,-67.13862000
1.34277344,-68.11036000
1.37329102,-75.32239000
1.40380859,-74.82799000
1.43432617,-68.06636000
1.46484375,-66.58022000
1.49536133,-66.15951000
1.52587891,-65.52924000
1.55639648,-66.11900000
1.58691406,-70.38350000
1.61743164,-74.47066000
1.64794922,-68.58185000
1.67846680,-67.34204000
1.70898438,-67.78430000
1.73950195,-69.68520000
1.77001953,-75.38937000
1.80053711,-71.66679000
1.83105469,-70.13203000
1.86157227,-74.30922000
1.89208984,-81.54324000
1.92260742,-76.07523000
1.95312500,-70.04894000
1.98364258,-67.20551000
2.01416016,-67.99811000
2.04467773,-73.37905000
2.07519531,-78.93147000
2.10571289,-71.77068000
2.13623047,-68.58979000
2.16674805,-67.19237000
2.19726563,-66.89471000
2.22778320,-67.98268000
2.25830078,-70.67981000
2.28881836,-75.81404000
2.31933594,-87.66878000
2.34985352,-82.96529000
2.38037109,-81.22898000
2.41088867,-81.36407000
2.44140625,-79.46922000
2.47192383,-78.66356000
2.50244141,-82.85572000
2.53295898,-93.97614000
2.56347656,-87.05090000
2.59399414,-88.57850000
2.62451172,-76.60285000
2.65502930,-72.78064000
2.68554688,-72.68381000
2.71606445,-73.70892000
2.74658203,-76.52061000
2.77709961,-86.94685000
2.80761719,-81.34386000
2.83813477,-79.38088000
2.86865234,-85.63827000
2.89916992,-97.59338000
2.92968750,-89.11983000
2.96020508,-81.02189000
2.99072266,-76.55601000
3.02124023,-75.08215000
3.05175781,-77.73416000
3.08227539,-90.67773000
3.11279297,-86.79849000
3.14331055,-89.75653000
3.17382813,-90.60107000
3.20434570,-83.45410000
3.23486328,-83.30396000
3.26538086,-89.40437000
3.29589844,-83.23241000
3.32641602,-78.48217000
3.35693359,-79.21675000
3.38745117,-86.28444000
3.41796875,-83.18080000
3.44848633,-77.47935000
3.47900391,-77.70272000
3.50952148,-77.84410000
3.54003906,-74.09067000
3.57055664,-73.17691000
3.60107422,-74.14767000
3.63159180,-72.62986000
3.66210938,-72.34084000
3.69262695,-72.97462000
3.72314453,-73.81853000
3.75366211,-76.84042000
3.78417969,-74.91662000
3.81469727,-72.59020000
3.84521484,-71.77327000
3.87573242,-70.21698000
3.90625000,-69.87827000
3.93676758,-71.82977000
3.96728516,-75.26457000
3.99780273,-74.55685000
4.02832031,-74.22508000
4.05883789,-79.83142000
4.08935547,-80.73651000
4.11987305,-76.66328000
4.15039063,-76.06764000
4.18090820,-73.83462000
4.21142578,-73.73966000
4.24194336,-78.88726000
4.27246094,-84.45222000
4.30297852,-79.01762000
4.33349609,-79.64626000
4.36401367,-81.00549000
4.39453125,-82.77621000
4.42504883,-84.58297000
4.45556641,-78.02974000
4.48608398,-77.51283000
4.51660156,-83.86570000
4.54711914,-80.41138000
4.57763672,-78.75489000
4.60815430,-80.57642000
4.63867188,-81.25031000
4.66918945,-81.09261000
4.69970703,-86.61304000
4.73022461,-85.78017000
4.76074219,-76.98485000
4.79125977,-76.13445000
4.82177734,-78.80249000
4.85229492,-80.72715000
4.88281250,-79.14938000
4.91333008,-78.64109000
4.94384766,-80.80489000
4.97436523,-75.41342000
5.00488281,-71.96790000
5.03540039,-72.51003000
5.06591797,-77.03038000
5.09643555,-88.63091000
5.12695313,-92.04925000
5.15747070,-85.50629000
5.18798828,-81.10803000
5.21850586,-77.38150000
5.24902344,-77.23803000
5.27954102,-83.10876000
5.31005859,-88.30225000
5.34057617,-82.15504000
5.37109375,-82.30194000
5.40161133,-86.13997000
5.43212891,-88.01109000
5.46264648,-82.30232000
5.49316406,-80.89777000
5.52368164,-83.03468000
5.55419922,-91.52632000
5.58471680,-85.25493000
5.61523438,-81.99580000
5.64575195,-90.25001000
5.67626953,-79.37566000
5.70678711,-75.76693000
5.73730469,-78.93025000
5.76782227,-82.88277000
5.79833984,-80.08545000
5.82885742,-81.02374000
5.85937500,-84.04911000
5.88989258,-83.48977000
5.92041016,-74.99902000
5.95092773,-72.44574000
5.98144531,-74.71995000
6.01196289,-84.41726000
6.04248047,-88.55280000
6.07299805,-87.17703000
6.10351563,-94.46806000
6.13403320,-94.27908000
6.16455078,-86.40253000
6.19506836,-78.81841000
6.22558594,-76.54153000
6.25610352,-78.68230000
6.28662109,-82.92484000
6.31713867,-82.32974000
6.34765625,-82.91389000
6.37817383,-84.10005000
6.40869141,-83.94302000
6.43920898,-83.06306000
6.46972656,-82.52472000
6.50024414,-82.80112000
6.53076172,-83.73215000
6.56127930,-83.49521000
6.59179688,-81.66832000
6.62231445,-79.14835000
6.65283203,-77.62143000
6.68334961,-77.96800000
6.71386719,-81.12924000
6.74438477,-88.10657000
6.77490234,-89.92555000
6.80541992,-91.42047000
6.83593750,-96.58100000
6.86645508,-90.77935000
6.89697266,-88.05537000
6.92749023,-89.27405000
6.95800781,-88.35029000
6.98852539,-86.84536000
7.01904297,-91.89882000
7.04956055,-88.11221000
7.08007813,-85.10261000
7.11059570,-85.91093000
7.14111328,-87.01282000
7.17163086,-88.68102000
7.20214844,-92.68567000
7.23266602,-108.72060000
7.26318359,-93.72857000
7.29370117,-89.81339000
7.32421875,-86.63704000
7.35473633,-83.73552000
7.38525391,-83.67244000
7.41577148,-85.84136000
7.44628906,-87.18617000
7.47680664,-87.27876000
7.50732422,-89.09843000
7.53784180,-95.74773000
7.56835938,-101.96750000
7.59887695,-97.50761000
7.62939453,-99.93495000
7.65991211,-90.72656000
7.69042969,-88.40605000
7.72094727,-89.48959000
7.75146484,-90.10962000
7.78198242,-91.10754000
7.81250000,-94.64552000
7.84301758,-97.95596000
7.87353516,-96.04882000
7.90405273,-91.85070000
7.93457031,-86.75862000
7.96508789,-84.21609000
7.99560547,-85.41058000
8.02612305,-92.49571000
8.05664063,-95.87577000
8.08715820,-90.65382000
8.11767578,-90.67649000
8.14819336,-92.20100000
8.17871094,-93.94227000
8.20922852,-93.43163000
8.23974609,-92.70873000
8.27026367,-96.36844000
8.30078125,-100.44460000
8.33129883,-88.74801000
8.36181641,-85.57331000
8.39233398,-85.31134000
8.42285156,-86.06040000
8.45336914,-87.62119000
8.48388672,-90.84740000
8.51440430,-96.00844000
8.54492188,-99.47986000
8.57543945,-91.89952000
8.60595703,-87.48116000
8.63647461,-85.41231000
8.66699219,-85.38205000
8.69750977,-87.56629000
8.72802734,-86.88147000
8.75854492,-84.24786000
8.78906250,-85.79144000
8.81958008,-95.96683000
8.85009766,-91.94564000
8.88061523,-86.18957000
8.91113281,-84.91800000
8.94165039,-85.86951000
8.97216797,-89.72743000
9.00268555,-95.70006000
9.03320313,-92.75033000
9.06372070,-94.32446000
9.09423828,-102.69060000
9.12475586,-100.92460000
9.15527344,-105.89390000
9.18579102,-90.57394000
9.21630859,-84.67311000
9.24682617,-82.73464000
9.27734375,-84.57668000
9.30786133,-93.24241000
9.33837891,-98.43105000
9.36889648,-96.09465000
9.39941406,-101.17730000
9.42993164,-89.18160000
9.46044922,-87.21384000
9.49096680,-88.57867000
9.52148438,-92.10883000
9.55200195,-93.91251000
9.58251953,-87.09239000
9.61303711,-83.68974000
9.64355469,-83.19795000
9.67407227,-83.58803000
9.70458984,-83.93907000
9.73510742,-85.86117000
9.76562500,-91.51608000
9.79614258,-98.36057000
9.82666016,-90.72682000
9.85717773,-89.38068000
9.88769531,-87.86454000
9.91821289,-86.19973000
9.94873047,-87.85645000
9.97924805,-91.99738000
10.00976563,-90.00980000
10.04028320,-86.95862000
10.07080078,-86.26437000
10.10131836,-88.90297000
10.13183594,-103.66470000
10.16235352,-87.79485000
10.19287109,-83.27378000
10.22338867,-84.34152000
10.25390625,-91.56607000
10.28442383,-89.18753000
10.31494141,-85.41914000
10.34545898,-85.82103000
10.37597656,-89.55542000
10.40649414,-105.33570000
10.43701172,-87.95251000
10.46752930,-83.34673000
10.49804688,-83.05240000
10.52856445,-84.12724000
10.55908203,-85.99191000
10.58959961,-91.68309000
10.62011719,-87.73711000
10.65063477,-84.67470000
10.68115234,-86.49808000
10.71166992,-92.08136000
10.74218750,-93.20767000
10.77270508,-87.77832000
10.80322266,-83.45181000
10.83374023,-81.43806000
10.86425781,-81.79478000
10.89477539,-84.43445000
10.92529297,-88.69308000
10.95581055,-91.17668000
10.98632813,-90.91045000
11.01684570,-89.31601000
11.04736328,-88.42530000
11.07788086,-87.09888000
11.10839844,-83.80138000
11.13891602,-82.03702000
11.16943359,-83.27938000
11.19995117,-87.72108000
11.23046875,-85.87112000
11.26098633,-82.30696000
11.29150391,-82.52521000
11.32202148,-87.76321000
11.35253906,-93.85803000
11.38305664,-85.82694000
11.41357422,-83.80047000
11.44409180,-84.61838000
11.47460938,-85.60004000
11.50512695,-85.06607000
11.53564453,-87.74399000
11.56616211,-83.00070000
11.59667969,-78.17033000
11.62719727,-77.57555000
11.65771484,-80.20253000
11.68823242,-85.95024000
11.71875000,-86.35784000
11.74926758,-79.01154000
11.77978516,-75.33047000
11.81030273,-74.57355000
11.84082031,-76.49079000
11.87133789,-80.40672000
11.90185547,-82.57280000
11.93237305,-82.05179000
11.96289063,-80.61260000
11.99340820,-79.64305000
12.02392578,-79.94041000
12.05444336,-79.34045000
12.08496094,-77.73391000
12.11547852,-78.25103000
12.14599609,-83.66969000
12.17651367,-94.21085000
12.20703125,-80.70976000
12.23754883,-78.51360000
12.26806641,-80.82831000
12.29858398,-89.27554000
12.32910156,-91.26057000
12.35961914,-84.74452000
12.39013672,-82.70139000
12.42065430,-81.96426000
12.45117188,-81.86583000
12.48168945,-83.62556000
12.51220703,-87.51095000
12.54272461,-87.69121000
12.57324219,-87.59940000
12.60375977,-90.91544000
12.63427734,-97.67123000
12.66479492,-95.99265000
12.69531250,-86.19380000
12.72583008,-80.57388000
12.75634766,-78.24075000
12.78686523,-78.62711000
12.81738281,-81.76801000
12.84790039,-85.05569000
12.87841797,-82.27960000
12.90893555,-79.42023000
12.93945313,-78.05139000
12.96997070,-77.92514000
13.00048828,-78.04800000
13.03100586,-77.48271000
13.06152344,-77.26805000
13.09204102,-79.22318000
13.12255859,-86.39661000
13.15307617,-83.06236000
13.18359375,-76.79974000
13.21411133,-75.85881000
13.24462891,-79.07800000
13.27514648,-86.79247000
13.30566406,-85.04886000
13.33618164,-82.71229000
13.36669922,-82.32552000
13.39721680,-82.00191000
13.42773438,-83.46870000
13.45825195,-98.72734000
13.48876953,-77.21996000
13.51928711,-70.28476000
13.54980469,-68.12837000
13.58032227,-69.52323000
13.61083984,-73.03587000
13.64135742,-74.16183000
13.67187500,-73.50152000
13.70239258,-71.92332000
13.73291016,-69.98767000
13.76342773,-69.68465000
13.79394531,-71.67863000
13.82446289,-74.26976000
13.85498047,-74.07361000
13.88549805,-73.63732000
13.91601563,-75.04465000
13.94653320,-78.22543000
13.97705078,-82.65233000
14.00756836,-90.39063000
14.03808594,-87.84891000
14.06860352,-82.69212000
14.09912109,-82.10448000
14.12963867,-84.96895000
14.16015625,-96.24244000
14.19067383,-88.53532000
14.22119141,-82.85988000
14.25170898,-81.84551000
14.28222656,-82.42096000
14.31274414,-83.12750000
14.34326172,-84.76675000
14.37377930,-88.08028000
14.40429688,-88.26328000
14.43481445,-84.56481000
14.46533203,-82.50803000
14.49584961,-82.60106000
14.52636719,-84.83482000
14.55688477,-88.62415000
14.58740234,-88.33101000
14.61791992,-83.28732000
14.64843750,-80.69953000
14.67895508,-80.72350000
14.70947266,-82.80077000
14.73999023,-88.37547000
14.77050781,-93.28166000
14.80102539,-83.23511000
14.83154297,-80.83508000
14.86206055,-82.81102000
14.89257813,-89.70601000
14.92309570,-89.75671000
14.95361328,-86.53115000
14.98413086,-87.55666000
15.01464844,-88.52703000
15.04516602,-85.49139000
15.07568359,-83.03600000
15.10620117,-82.87215000
15.13671875,-87.02957000
15.16723633,-92.62514000
15.19775391,-78.89441000
15.22827148,-74.57254000
15.25878906,-74.28590000
15.28930664,-77.72523000
15.31982422,-87.11456000
15.35034180,-93.54984000
15.38085938,-86.78116000
15.41137695,-87.18239000
15.44189453,-91.39101000
15.47241211,-93.22485000
15.50292969,-87.22762000
15.53344727,-85.99280000
15.56396484,-87.73865000
15.59448242,-89.08813000
15.62500000,-89.99780000
15.65551758,-92.48366000
15.68603516,-98.75127000
15.71655273,-100.58600000
15.74707031,-91.28192000
15.77758789,-87.89365000
15.80810547,-89.25479000
15.83862305,-95.13017000
15.86914063,-91.61716000
15.89965820,-91.24007000
15.93017578,-94.69837000
15.96069336,-91.89758000
15.99121094,-88.01041000
16.02172852,-86.34045000
16.05224609,-87.60100000
16.08276367,-91.57323000
16.11328125,-95.64223000
16.14379883,-100.11640000
16.17431641,-106.02260000
16.20483398,-106.52450000
16.23535156,-98.33351000
16.26586914,-95.70984000
16.29638672,-94.12453000
16.32690430,-90.84877000
16.35742188,-89.44866000
16.38793945,-91.59491000
16.41845703,-96.21983000
16.44897461,-91.49651000
16.47949219,-89.02966000
16.51000977,-91.16046000
16.54052734,-100.54350000
16.57104492,-101.44170000
16.60156250,-94.27330000
16.63208008,-90.91903000
16.66259766,-88.91118000
16.69311523,-88.99666000
16.72363281,-91.83778000
16.75415039,-101.54390000
16.78466797,-97.39334000
16.81518555,-89.83412000
16.84570313,-88.48316000
16.87622070,-90.87718000
16.90673828,-94.08273000
16.93725586,-91.52942000
16.96777344,-90.13999000
16.99829102,-91.73119000
17.02880859,-95.24979000
17.05932617,-100.70480000
17.08984375,-95.13913000
17.12036133,-90.29335000
17.15087891,-89.89936000
17.18139648,-91.15254000
17.21191406,-90.93800000
17.24243164,-90.70947000
17.27294922,-91.34499000
17.30346680,-92.67185000
17.33398438,-96.16329000
17.36450195,-102.20740000
17.39501953,-98.78874000
17.42553711,-97.04019000
17.45605469,-93.11559000
17.48657227,-89.87595000
17.51708984,-89.54491000
17.54760742,-91.10675000
17.57812500,-92.65547000
17.60864258,-93.72192000
17.63916016,-99.60973000
17.66967773,-93.99588000
17.70019531,-85.60162000
17.73071289,-84.35479000
17.76123047,-90.59601000
17.79174805,-93.40689000
17.82226563,-86.52991000
17.85278320,-87.69615000
17.88330078,-91.98021000
17.91381836,-93.57536000
17.94433594,-92.68516000
17.97485352,-92.64940000
18.00537109,-95.78880000
18.03588867,-103.28520000
18.06640625,-95.77450000
18.09692383,-93.19881000
18.12744141,-94.98340000
18.15795898,-103.01630000
18.18847656,-106.06760000
18.21899414,-99.61234000
18.24951172,-100.64630000
18.28002930,-102.51660000
18.31054688,-104.29970000
18.34106445,-111.06680000
18.37158203,-98.05849000
18.40209961,-94.96912000
18.43261719,-96.67430000
18.46313477,-95.12897000
18.49365234,-92.52633000
18.52416992,-93.93823000
18.55468750,-99.88308000
18.58520508,-113.43030000
18.61572266,-114.37280000
18.64624023,-111.91540000
18.67675781,-114.82260000
18.70727539,-114.66200000
18.73779297,-107.81570000
18.76831055,-101.88690000
18.79882813,-97.77612000
18.82934570,-96.61699000
18.85986328,-97.35955000
18.89038086,-98.30148000
18.92089844,-100.82310000
18.95141602,-105.95090000
18.98193359,-105.74430000
19.01245117,-105.46660000
19.04296875,-106.44240000
19.07348633,-104.73970000
19.10400391,-100.12960000
19.13452148,-96.08872000
19.16503906,-94.79781000
19.19555664,-95.81127000
19.22607422,-97.15893000
19.25659180,-96.32028000
19.28710938,-95.08796000
19.31762695,-95.13252000
19.34814453,-95.54419000
19.37866211,-96.20853000
19.40917969,-98.77220000
19.43969727,-103.83130000
19.47021484,-106.56500000
19.50073242,-104.37790000
19.53125000,-101.41180000
19.56176758,-99.13213000
19.59228516,-96.83775000
19.62280273,-94.80415000
19.65332031,-94.12675000
19.68383789,-94.84071000
19.71435547,-96.64610000
19.74487305,-99.75280000
19.77539063,-101.88980000
19.80590820,-98.79773000
19.83642578,-96.30370000
19.86694336,-95.39516000
19.89746094,-95.35343000
19.92797852,-96.06674000
19.95849609,-97.87256000
19.98901367,-98.38146000
20.01953125,-96.90965000
20.05004883,-97.33707000
20.08056641,-99.69308000
20.11108398,-104.51470000
20.14160156,-98.48521000
20.17211914,-92.41980000
20.20263672,-89.92815000
20.23315430,-89.43787000
20.26367188,-90.06832000
20.29418945,-91.04633000
20.32470703,-92.05044000
20.35522461,-92.31906000
20.38574219,-92.31423000
20.41625977,-94.74946000
20.44677734,-97.17241000
20.47729492,-90.46152000
20.50781250,-86.62347000
20.53833008,-85.47104000
20.56884766,-86.00480000
20.59936523,-87.27078000
20.62988281,-88.50098000
20.66040039,-88.42813000
20.69091797,-87.52104000
20.72143555,-88.35336000
20.75195313,-92.11509000
20.78247070,-98.36618000
20.81298828,-98.25621000
20.84350586,-96.51698000
20.87402344,-100.48320000
20.90454102,-97.83108000
20.93505859,-90.36480000
20.96557617,-89.30870000
20.99609375,-93.83485000
21.02661133,-106.11430000
21.05712891,-93.92462000
21.08764648,-90.60701000
21.11816406,-90.68691000
21.14868164,-93.11490000
21.17919922,-93.08655000
21.20971680,-89.70795000
21.24023438,-87.79874000
21.27075195,-88.47227000
21.30126953,-93.12090000
21.33178711,-97.43969000
21.36230469,-94.37440000
21.39282227,-97.74255000
21.42333984,-97.08423000
21.45385742,-93.86252000
21.48437500,-94.37958000
21.51489258,-95.32723000
21.54541016,-95.98750000
21.57592773,-97.24037000
21.60644531,-97.50543000
21.63696289,-98.26369000
21.66748047,-105.00920000
21.69799805,-104.90280000
21.72851563,-97.37801000
21.75903320,-96.39687000
21.78955078,-100.43280000
21.82006836,-103.47920000
21.85058594,-102.27370000
21.88110352,-96.74744000
21.91162109,-92.42200000
21.94213867,-91.63174000
21.97265625,-92.69218000
22.00317383,-93.88860000
22.03369141,-95.12505000
22.06420898,-98.84935000
22.09472656,-104.88500000
22.12524414,-96.25321000
22.15576172,-91.25633000
22.18627930,-88.93531000
22.21679688,-88.98500000
22.24731445,-91.60409000
22.27783203,-96.35733000
22.30834961,-99.95247000
22.33886719,-99.64867000
22.36938477,-99.84303000
22.39990234,-105.33620000
22.43041992,-112.12290000
22.46093750,-109.03510000
22.49145508,-103.27620000
22.52197266,-98.32915000
22.55249023,-97.03987000
22.58300781,-97.01176000
22.61352539,-95.83840000
22.64404297,-94.17660000
22.67456055,-93.28421000
22.70507813,-93.83997000
22.73559570,-96.86838000
22.76611328,-103.56420000
22.79663086,-105.32070000
22.82714844,-101.49700000
22.85766602,-101.76800000
22.88818359,-108.76650000
22.91870117,-97.50068000
22.94921875,-90.31116000
22.97973633,-87.86686000
23.01025391,-89.00150000
23.04077148,-94.99435000
23.07128906,-109.32030000
23.10180664,-95.07173000
23.13232422,-93.82317000
23.16284180,-96.90405000
23.19335938,-101.70840000
23.22387695,-98.00746000
23.25439453,-92.88281000
23.28491211,-90.05711000
23.31542969,-90.43433000
23.34594727,-94.19902000
23.37646484,-94.16783000
23.40698242,-91.68959000
23.43750000,-92.12112000
23.46801758,-92.82597000
23.49853516,-91.30256000
23.52905273,-90.57594000
23.55957031,-92.21974000
23.59008789,-94.63870000
23.62060547,-91.91658000
23.65112305,-89.28445000
23.68164063,-89.22935000
23.71215820,-91.86023000
23.74267578,-99.18908000
23.77319336,-102.88600000
23.80371094,-93.00246000
23.83422852,-89.97204000
23.86474609,-89.99734000
23.89526367,-91.86397000
23.92578125,-93.17237000
23.95629883,-91.74133000
23.98681641,-89.59985000
24.01733398,-88.78129000
24.04785156,-89.15542000
24.07836914,-89.94073000
24.10888672,-90.86739000
24.13940430,-90.45273000
24.16992188,-89.19971000
24.20043945,-89.55693000
24.23095703,-91.85568000
24.26147461,-92.73720000
24.29199219,-91.00224000
24.32250977,-91.23421000
24.35302734,-93.87638000
24.38354492,-95.72678000
24.41406250,-94.47958000
24.44458008,-92.76161000
24.47509766,-91.24149000
24.50561523,-90.40249000
24.53613281,-90.90448000
24.56665039,-93.16342000
24.59716797,-96.15418000
24.62768555,-96.97530000
24.65820313,-96.07487000
24.68872070,-95.76981000
24.71923828,-97.76199000
24.74975586,-101.38740000
24.78027344,-101.21020000
24.81079102,-96.27690000
24.84130859,-93.41916000
24.87182617,-94.11214000
24.90234375,-95.76163000
24.93286133,-94.72333000
24.96337891,-94.31357000
24.99389648,-95.65617000
25.02441406,-98.66893000
25.05493164,-103.63840000
25.08544922,-108.32320000
25.11596680,-107.86020000
25.14648438,-107.47020000
25.17700195,-105.63710000
25.20751953,-110.34240000
25.23803711,-104.62120000
25.26855469,-98.93436000
25.29907227,-100.00710000
25.32958984,-96.49420000
25.36010742,-92.16221000
25.39062500,-91.81436000
25.42114258,-94.93556000
25.45166016,-100.94360000
25.48217773,-103.97030000
25.51269531,-100.58240000
25.54321289,-100.89340000
25.57373047,-111.44150000
25.60424805,-100.78040000
25.63476563,-94.89315000
25.66528320,-94.15096000
25.69580078,-96.54604000
25.72631836,-98.73031000
25.75683594,-102.03590000
25.78735352,-110.99700000
25.81787109,-100.01050000
25.84838867,-96.75334000
25.87890625,-96.28738000
25.90942383,-96.65658000
25.93994141,-98.32161000
25.97045898,-106.25480000
26.00097656,-103.49100000
26.03149414,-95.74902000
26.06201172,-94.85084000
26.09252930,-98.07290000
26.12304688,-100.03190000
26.15356445,-95.49326000
26.18408203,-94.55238000
26.21459961,-96.76414000
26.24511719,-99.51212000
26.27563477,-99.84775000
26.30615234,-96.61830000
26.33666992,-94.93778000
26.36718750,-96.06053000
26.39770508,-98.92106000
26.42822266,-96.34380000
26.45874023,-94.32188000
26.48925781,-95.37576000
26.51977539,-97.93041000
26.55029297,-99.63785000
26.58081055,-100.58560000
26.61132813,-100.76820000
26.64184570,-95.51489000
26.67236328,-92.87899000
26.70288086,-95.15253000
26.73339844,-106.04090000
26.76391602,-104.95080000
26.79443359,-105.21920000
26.82495117,-105.45830000
26.85546875,-97.97244000
26.88598633,-98.39255000
26.91650391,-105.00450000
26.94702148,-98.61932000
26.97753906,-94.40070000
27.00805664,-92.45866000
27.03857422,-91.03463000
27.06909180,-90.81237000
27.09960938,-94.26620000
27.13012695,-117.53070000
27.16064453,-96.48147000
27.19116211,-93.74139000
27.22167969,-94.77042000
27.25219727,-96.73221000
27.28271484,-98.80258000
27.31323242,-99.71330000
27.34375000,-99.61655000
27.37426758,-101.03750000
27.40478516,-99.34711000
27.43530273,-95.98891000
27.46582031,-96.87361000
27.49633789,-102.53910000
27.52685547,-107.16400000
27.55737305,-100.45680000
27.58789063,-95.73112000
27.61840820,-94.71461000
27.64892578,-94.42998000
27.67944336,-92.97682000
27.70996094,-92.82515000
27.74047852,-94.48703000
27.77099609,-96.02067000
27.80151367,-95.09506000
27.83203125,-93.44582000
27.86254883,-93.26859000
27.89306641,-93.82327000
27.92358398,-92.59421000
27.95410156,-90.54725000
27.98461914,-89.71401000
28.01513672,-90.83741000
28.04565430,-94.54501000
28.07617188,-103.42710000
28.10668945,-96.74973000
28.13720703,-92.52145000
28.16772461,-92.80480000
28.19824219,-96.70274000
28.22875977,-107.70000000
28.25927734,-103.35340000
28.28979492,-99.05415000
28.32031250,-100.65750000
28.35083008,-102.29070000
28.38134766,-97.83783000
28.41186523,-94.85455000
28.44238281,-94.81593000
28.47290039,-97.17431000
28.50341797,-101.22920000
28.53393555,-109.39710000
28.56445313,-109.88160000
28.59497070,-101.57560000
28.62548828,-99.55677000
28.65600586,-99.96181000
28.68652344,-97.56867000
28.71704102,-95.83685000
28.74755859,-96.24714000
28.77807617,-95.38286000
28.80859375,-94.05651000
28.83911133,-92.18500000
28.86962891,-90.10811000
28.90014648,-89.60495000
28.93066406,-90.46887000
28.96118164,-92.39032000
28.99169922,-95.91904000
29.02221680,-100.99690000
29.05273438,-104.71990000
29.08325195,-101.62970000
29.11376953,-98.95397000
29.14428711,-99.37328000
29.17480469,-100.66280000
29.20532227,-99.81033000
29.23583984,-98.76873000
29.26635742,-97.42578000
29.29687500,-95.95813000
29.32739258,-95.89557000
29.35791016,-97.51132000
29.38842773,-101.06630000
29.41894531,-102.65060000
29.44946289,-98.45741000
29.47998047,-98.36725000
29.51049805,-103.46130000
29.54101563,-104.08520000
29.57153320,-98.75461000
29.60205078,-98.61717000
29.63256836,-97.37252000
29.66308594,-92.18477000
29.69360352,-89.78760000
29.72412109,-90.26414000
29.75463867,-93.32156000
29.78515625,-98.47090000
29.81567383,-102.27100000
29.84619141,-100.95050000
29.87670898,-96.49554000
29.90722656,-93.21420000
29.93774414,-91.52979000
29.96826172,-90.81810000
29.99877930,-91.02701000
30.02929688,-92.70748000
30.05981445,-96.36191000
30.09033203,-102.10140000
30.12084961,-102.86360000
30.15136719,-97.66232000
30.18188477,-95.14609000
30.21240234,-94.88476000
30.24291992,-96.86937000
30.27343750,-100.51900000
30.30395508,-99.27803000
30.33447266,-95.46517000
30.36499023,-92.96712000
30.39550781,-91.40682000
30.42602539,-90.97576000
30.45654297,-92.44991000
30.48706055,-97.20954000
30.51757813,-113.83150000
30.54809570,-100.66310000
30.57861328,-94.51604000
30.60913086,-91.33971000
30.63964844,-89.62328000
30.67016602,-89.13107000
30.70068359,-89.98466000
30.73120117,-92.35251000
30.76171875,-94.55786000
30.79223633,-94.70554000
30.82275391,-94.98534000
30.85327148,-93.98083000
30.88378906,-93.76763000
30.91430664,-95.41463000
30.94482422,-96.97630000
30.97534180,-97.58755000
31.00585938,-97.41364000
31.03637695,-99.35213000
31.06689453,-107.86730000
31.09741211,-110.52890000
31.12792969,-111.55510000
31.15844727,-111.04720000
31.18896484,-102.29730000
31.21948242,-102.79920000
31.25000000,-108.44940000
31.28051758,-107.02860000
31.31103516,-109.41070000
31.34155273,-109.53400000
31.37207031,-102.75680000
31.40258789,-99.03352000
31.43310547,-97.03330000
31.46362305,-96.32002000
31.49414063,-96.71107000
31.52465820,-98.38906000
31.55517578,-96.99481000
31.58569336,-92.93854000
31.61621094,-91.08546000
31.64672852,-90.84526000
31.67724609,-90.70941000
31.70776367,-90.55072000
31.73828125,-91.95274000
31.76879883,-97.19814000
31.79931641,-114.95380000
31.82983398,-98.65578000
31.86035156,-95.26905000
31.89086914,-93.72379000
31.92138672,-92.96536000
31.95190430,-95.50170000
31.98242188,-111.80650000
32.01293945,-96.02827000
32.04345703,-93.28918000
32.07397461,-96.37379000
32.10449219,-97.91747000
32.13500977,-95.54543000
32.16552734,-96.41171000
32.19604492,-98.98839000
32.22656250,-99.95253000
32.25708008,-100.96650000
32.28759766,-101.32800000
32.31811523,-95.13602000
32.34863281,-92.05861000
32.37915039,-91.88676000
32.40966797,-93.66093000
32.44018555,-96.92092000
32.47070313,-103.51350000
32.50122070,-106.05910000
32.53173828,-96.33969000
32.56225586,-92.64520000
32.59277344,-91.92209000
32.62329102,-93.85666000
32.65380859,-98.85796000
32.68432617,-98.73120000
32.71484375,-95.25276000
32.74536133,-94.89185000
32.77587891,-96.47102000
32.80639648,-99.13261000
32.83691406,-103.19630000
32.86743164,-110.28240000
32.89794922,-107.35770000
32.92846680,-101.94920000
32.95898438,-98.83060000
32.98950195,-97.44373000
33.02001953,-98.53989000
33.05053711,-100.06170000
33.08105469,-97.70689000
33.11157227,-97.11482000
33.14208984,-99.81719000
33.17260742,-103.98700000
33.20312500,-103.12960000
33.23364258,-100.70280000
33.26416016,-103.19380000
33.29467773,-102.55190000
33.32519531,-95.35703000
33.35571289,-92.76059000
33.38623047,-92.98692000
33.41674805,-94.93262000
33.44726563,-97.35680000
33.47778320,-100.14750000
33.50830078,-103.30180000
33.53881836,-101.11130000
33.56933594,-101.32710000
33.59985352,-105.22520000
33.63037109,-100.25540000
33.66088867,-96.69839000
33.69140625,-96.25088000
33.72192383,-97.98905000
33.75244141,-101.39980000
33.78295898,-108.65840000
33.81347656,-104.23500000
33.84399414,-100.02270000
33.87451172,-100.86230000
33.90502930,-105.60570000
33.93554688,-104.08090000
33.96606445,-101.21910000
33.99658203,-106.13920000
34.02709961,-107.42440000
34.05761719,-98.51434000
34.08813477,-97.38598000
34.11865234,-99.81230000
34.14916992,-103.18190000
34.17968750,-102.00450000
34.21020508,-99.53618000
34.24072266,-98.25530000
34.27124023,-98.32861000
34.30175781,-100.82670000
34.33227539,-110.03310000
34.36279297,-109.36700000
34.39331055,-103.33690000
34.42382813,-101.52750000
34.45434570,-98.25860000
34.48486328,-96.86218000
34.51538086,-99.69276000
34.54589844,-111.19060000
34.57641602,-109.00640000
34.60693359,-103.77910000
34.63745117,-103.55580000
34.66796875,-103.75280000
34.69848633,-101.24400000
34.72900391,-100.42670000
34.75952148,-102.37260000
34.79003906,-100.67810000
34.82055664,-98.76329000
34.85107422,-99.77020000
34.88159180,-98.78963000
34.91210938,-95.77219000
34.94262695,-94.17553000
34.97314453,-93.96472000
35.00366211,-95.05096000
35.03417969,-97.73325000
35.06469727,-100.31030000
35.09521484,-98.82706000
35.12573242,-98.36932000
35.15625000,-101.25080000
35.18676758,-106.95120000
35.21728516,-102.13840000
35.24780273,-98.68401000
35.27832031,-98.35239000
35.30883789,-99.58289000
35.33935547,-101.25720000
35.36987305,-103.50960000
35.40039063,-104.82080000
35.43090820,-101.37650000
35.46142578,-98.21201000
35.49194336,-97.03187000
35.52246094,-97.97403000
35.55297852,-100.34050000
35.58349609,-100.27860000
35.61401367,-97.36289000
35.64453125,-96.79466000
35.67504883,-99.19096000
35.70556641,-96.86552000
35.73608398,-95.24710000
35.76660156,-95.65147000
35.79711914,-93.35356000
35.82763672,-91.94192000
35.85815430,-92.89963000
35.88867188,-95.38933000
35.91918945,-97.50507000
35.94970703,-97.90569000
35.98022461,-97.78218000
36.01074219,-97.99386000
36.04125977,-98.63878000
36.07177734,-101.29480000
36.10229492,-106.97020000
36.13281250,-106.60550000
36.16333008,-100.28320000
36.19384766,-98.49962000
36.22436523,-100.88110000
36.25488281,-104.87570000
36.28540039,-105.23850000
36.31591797,-102.12090000
36.34643555,-101.68110000
36.37695313,-100.08750000
36.40747070,-96.42760000
36.43798828,-95.38103000
36.46850586,-97.10721000
36.49902344,-102.68360000
36.52954102,-106.67010000
36.56005859,-98.19363000
36.59057617,-96.73076000
36.62109375,-100.76080000
36.65161133,-114.15290000
36.68212891,-100.63360000
36.71264648,-96.67728000
36.74316406,-94.81660000
36.77368164,-93.54209000
36.80419922,-93.44652000
36.83471680,-93.92375000
36.86523438,-94.19044000
36.89575195,-94.57519000
36.92626953,-97.02806000
36.95678711,-104.44320000
36.98730469,-106.31120000
37.01782227,-97.78085000
37.04833984,-94.04356000
37.07885742,-94.17339000
37.10937500,-98.20278000
37.13989258,-105.08310000
37.17041016,-101.25160000
37.20092773,-96.11845000
37.23144531,-94.36406000
37.26196289,-96.19185000
37.29248047,-101.20660000
37.32299805,-102.87370000
37.35351563,-98.60916000
37.38403320,-97.66066000
37.41455078,-104.17470000
37.44506836,-105.62790000
37.47558594,-97.35549000
37.50610352,-95.52917000
37.53662109,-95.54213000
37.56713867,-96.46702000
37.59765625,-97.74934000
37.62817383,-97.53848000
37.65869141,-95.33371000
37.68920898,-93.49025000
37.71972656,-93.53238000
37.75024414,-96.20375000
37.78076172,-103.19980000
37.81127930,-106.95500000
37.84179688,-100.30750000
37.87231445,-97.81194000
37.90283203,-96.77276000
37.93334961,-96.48666000
37.96386719,-97.38593000
37.99438477,-99.73389000
38.02490234,-99.87656000
38.05541992,-96.83878000
38.08593750,-95.25138000
38.11645508,-95.52190000
38.14697266,-96.20071000
38.17749023,-95.63244000
38.20800781,-93.92177000
38.23852539,-91.98405000
38.26904297,-90.80567000
38.29956055,-90.26851000
38.33007813,-89.69608000
38.36059570,-90.32144000
38.39111328,-94.30508000
38.42163086,-107.68820000
38.45214844,-103.53900000
38.48266602,-99.68571000
38.51318359,-100.09380000
38.54370117,-101.41210000
38.57421875,-102.42350000
38.60473633,-101.33530000
38.63525391,-97.49519000
38.66577148,-95.30499000
38.69628906,-95.57397000
38.72680664,-96.73280000
38.75732422,-97.18949000
38.78784180,-97.25491000
38.81835938,-96.58217000
38.84887695,-96.30546000
38.87939453,-96.04465000
38.90991211,-92.55954000
38.94042969,-90.55977000
38.97094727,-92.05593000
39.00146484,-98.27208000
39.03198242,-103.98860000
39.06250000,-100.97920000
39.09301758,-103.90070000
39.12353516,-108.76600000
39.15405273,-108.73900000
39.18457031,-106.79560000
39.21508789,-99.07586000
39.24560547,-95.43597000
39.27612305,-98.61507000
39.30664063,-104.25000000
39.33715820,-92.73383000
39.36767578,-90.20527000
39.39819336,-91.74864000
39.42871094,-97.55975000
39.45922852,-94.70711000
39.48974609,-89.71597000
39.52026367,-88.21687000
39.55078125,-88.36572000
39.58129883,-88.55706000
39.61181641,-88.16357000
39.64233398,-88.10318000
39.67285156,-89.30515000
39.70336914,-91.92143000
39.73388672,-94.40945000
39.76440430,-95.26780000
39.79492188,-96.34422000
39.82543945,-96.20316000
39.85595703,-94.61708000
39.88647461,-95.51789000
39.91699219,-101.35020000
39.94750977,-109.91770000
39.97802734,-98.11794000
40.00854492,-94.00748000
40.03906250,-92.47437000
40.06958008,-92.33484000
40.10009766,-93.89124000
40.13061523,-96.77067000
40.16113281,-98.31840000
40.19165039,-96.84394000
40.22216797,-94.99802000
40.25268555,-97.04598000
40.28320313,-105.51030000
40.31372070,-97.21895000
40.34423828,-93.61115000
40.37475586,-94.67110000
40.40527344,-100.27520000
40.43579102,-94.24916000
40.46630859,-89.44324000
40.49682617,-87.91520000
40.52734375,-88.19769000
40.55786133,-89.42344000
40.58837891,-89.93859000
40.61889648,-89.58073000
40.64941406,-89.96398000
40.67993164,-91.05289000
40.71044922,-93.48947000
40.74096680,-98.06663000
40.77148438,-96.58878000
40.80200195,-95.83055000
40.83251953,-97.59286000
40.86303711,-96.41199000
40.89355469,-94.46333000
40.92407227,-96.04227000
40.95458984,-111.68860000
40.98510742,-95.87486000
41.01562500,-91.17299000
41.04614258,-91.02332000
41.07666016,-93.69366000
41.10717773,-100.20950000
41.13769531,-102.15270000
41.16821289,-94.68002000
41.19873047,-94.89233000
41.22924805,-112.77810000
41.25976563,-95.41017000
41.29028320,-92.87083000
41.32080078,-95.70990000
41.35131836,-96.27469000
41.38183594,-101.14030000
41.41235352,-96.33182000
41.44287109,-89.79103000
41.47338867,-88.81103000
41.50390625,-89.08842000
41.53442383,-88.15637000
41.56494141,-87.27446000
41.59545898,-86.42451000
41.62597656,-85.74787000
41.65649414,-86.02197000
41.68701172,-87.87894000
41.71752930,-91.88920000
41.74804688,-98.92743000
41.77856445,-107.88730000
41.80908203,-100.12630000
41.83959961,-92.31926000
41.87011719,-88.62177000
41.90063477,-89.14195000
41.93115234,-95.10294000
41.96166992,-97.65114000
41.99218750,-91.89664000
42.02270508,-91.24917000
42.05322266,-96.14000000
42.08374023,-98.67462000
42.11425781,-91.17296000
42.14477539,-91.34121000
42.17529297,-95.41658000
42.20581055,-92.51175000
42.23632813,-89.57824000
42.26684570,-88.80112000
42.29736328,-88.93791000
42.32788086,-90.24781000
42.35839844,-93.02116000
42.38891602,-95.39104000
42.41943359,-100.04790000
42.44995117,-100.44370000
42.48046875,-92.71897000
42.51098633,-88.87843000
42.54150391,-87.83391000
42.57202148,-88.50328000
42.60253906,-87.81642000
42.63305664,-86.61534000
42.66357422,-86.61666000
42.69409180,-86.91145000
42.72460938,-87.65122000
42.75512695,-90.11070000
42.78564453,-92.81232000
42.81616211,-90.56932000
42.84667969,-88.29115000
42.87719727,-88.16230000
42.90771484,-89.90793000
42.93823242,-92.25798000
42.96875000,-92.64867000
42.99926758,-91.20093000
43.02978516,-90.40294000
43.06030273,-91.88384000
43.09082031,-95.98331000
43.12133789,-95.63358000
43.15185547,-89.14929000
43.18237305,-84.36334000
43.21289063,-82.68513000
43.24340820,-84.22552000
43.27392578,-89.42719000
43.30444336,-101.94650000
43.33496094,-92.18622000
43.36547852,-87.74799000
43.39599609,-88.52707000
43.42651367,-94.50858000
43.45703125,-104.26040000
43.48754883,-112.50390000
43.51806641,-104.52640000
43.54858398,-101.02700000
43.57910156,-105.52600000
43.60961914,-109.21370000
43.64013672,-97.78238000
43.67065430,-91.49825000
43.70117188,-89.59573000
43.73168945,-90.54636000
43.76220703,-93.20863000
43.79272461,-94.14544000
43.82324219,-91.07979000
43.85375977,-88.97507000
43.88427734,-89.27715000
43.91479492,-92.05524000
43.94531250,-98.74564000
43.97583008,-99.89400000
44.00634766,-92.44322000
44.03686523,-91.46530000
44.06738281,-95.83849000
44.09790039,-94.16988000
44.12841797,-90.19800000
44.15893555,-89.69821000
44.18945313,-89.23106000
44.21997070,-89.33373000
44.25048828,-91.18405000
44.28100586,-92.88803000
44.31152344,-93.48167000
44.34204102,-90.54382000
44.37255859,-88.69083000
44.40307617,-90.61790000
44.43359375,-97.07054000
44.46411133,-98.26431000
44.49462891,-91.19917000
44.52514648,-87.81137000
44.55566406,-87.56303000
44.58618164,-90.30117000
44.61669922,-97.15456000
44.64721680,-107.02440000
44.67773438,-94.47780000
44.70825195,-91.04413000
44.73876953,-90.92011000
44.76928711,-93.01579000
44.79980469,-97.72812000
44.83032227,-99.57890000
44.86083984,-92.63503000
44.89135742,-90.23734000
44.92187500,-90.78998000
44.95239258,-92.58511000
44.98291016,-93.74298000
45.01342773,-93.13660000
45.04394531,-92.94823000
45.07446289,-95.38306000
45.10498047,-98.37063000
45.13549805,-95.76896000
45.16601563,-92.36441000
45.19653320,-90.87788000
45.22705078,-92.71542000
45.25756836,-100.79010000
45.28808594,-98.31796000
45.31860352,-91.21429000
45.34912109,-89.25410000
45.37963867,-90.67483000
45.41015625,-95.59922000
45.44067383,-99.75766000
45.47119141,-97.47266000
45.50170898,-97.48833000
45.53222656,-98.70243000
45.56274414,-99.30977000
45.59326172,-98.21041000
45.62377930,-96.89030000
45.65429688,-94.91706000
45.68481445,-92.53229000
45.71533203,-92.57973000
45.74584961,-95.12043000
45.77636719,-96.02142000
45.80688477,-93.50191000
45.83740234,-90.92171000
45.86791992,-90.36617000
45.89843750,-92.75897000
45.92895508,-97.64929000
45.95947266,-100.25350000
45.98999023,-94.11823000
46.02050781,-89.57707000
46.05102539,-88.88053000
46.08154297,-91.50201000
46.11206055,-96.88680000
46.14257813,-100.93910000
46.17309570,-96.47788000
46.20361328,-92.42535000
46.23413086,-90.87905000
46.26464844,-91.13341000
46.29516602,-91.84074000
46.32568359,-91.23280000
46.35620117,-89.14122000
46.38671875,-88.28004000
46.41723633,-90.33781000
46.44775391,-97.02576000
46.47827148,-122.94930000
46.50878906,-103.35490000
46.53930664,-105.02400000
46.56982422,-101.59380000
46.60034180,-95.68839000
46.63085938,-93.17873000
46.66137695,-92.01065000
46.69189453,-91.02994000
46.72241211,-90.91618000
46.75292969,-90.80168000
46.78344727,-90.79062000
46.81396484,-92.17262000
46.84448242,-94.52522000
46.87500000,-96.27528000
46.90551758,-96.30882000
46.93603516,-96.35730000
46.96655273,-98.74338000
46.99707031,-107.11660000
47.02758789,-113.83580000
47.05810547,-109.68350000
47.08862305,-107.51730000
47.11914063,-102.93970000
47.14965820,-106.51340000
47.18017578,-106.94250000
47.21069336,-99.78162000
47.24121094,-98.17473000
47.27172852,-98.51382000
47.30224609,-98.82199000
47.33276367,-98.97037000
47.36328125,-97.92494000
47.39379883,-96.95588000
47.42431641,-98.68699000
47.45483398,-101.66200000
47.48535156,-100.73210000
47.51586914,-100.50610000
47.54638672,-103.14220000
47.57690430,-108.49380000
47.60742188,-109.79920000
47.63793945,-107.85760000
47.66845703,-101.58580000
47.69897461,-97.68929000
47.72949219,-96.27649000
47.76000977,-95.16782000
47.79052734,-93.94070000
47.82104492,-93.45297000
47.85156250,-94.09943000
47.88208008,-96.47942000
47.91259766,-100.25780000
47.94311523,-102.16670000
47.97363281,-103.50280000
48.00415039,-105.33790000
48.03466797,-99.97203000
48.06518555,-94.22599000
48.09570313,-91.61881000
48.12622070,-92.39494000
48.15673828,-96.72827000
48.18725586,-102.11210000
48.21777344,-97.88255000
48.24829102,-93.38403000
48.27880859,-91.08520000
48.30932617,-90.56405000
48.33984375,-90.38400000
48.37036133,-90.59520000
48.40087891,-93.39845000
48.43139648,-101.72890000
48.46191406,-114.51260000
48.49243164,-105.88030000
48.52294922,-106.51180000
48.55346680,-111.98400000
48.58398438,-115.00790000
48.61450195,-112.97480000
48.64501953,-99.58881000
48.67553711,-92.16650000
48.70605469,-89.35481000
48.73657227,-90.36203000
48.76708984,-96.00295000
48.79760742,-112.87520000
48.82812500,-107.13230000
48.85864258,-101.85740000
48.88916016,-96.84036000
48.91967773,-94.85508000
48.95019531,-93.59439000
48.98071289,-90.88676000
49.01123047,-88.32951000
49.04174805,-87.85295000
49.07226563,-90.11969000
49.10278320,-94.68201000
49.13330078,-98.35471000
49.16381836,-102.34150000
49.19433594,-98.17875000
49.22485352,-93.95720000
49.25537109,-92.99682000
49.28588867,-92.24033000
49.31640625,-90.34303000
49.34692383,-88.52757000
49.37744141,-87.76147000
49.40795898,-88.72975000
49.43847656,-91.73669000
49.46899414,-96.28105000
49.49951172,-96.48373000
49.53002930,-94.08744000
49.56054688,-93.81675000
49.59106445,-95.05222000
49.62158203,-96.96886000
49.65209961,-95.18073000
49.68261719,-89.81652000
49.71313477,-87.30015000
49.74365234,-88.29500000
49.77416992,-92.98150000
49.80468750,-101.02980000
49.83520508,-104.08930000
49.86572266,-98.67892000
49.89624023,-95.72327000
49.92675781,-94.50204000
49.95727539,-92.19543000
49.98779297,-89.02732000
50.01831055,-87.08067000
