Frequency,Channel A
(MHz),(dBu)

0.00000000,-26.70173000
0.03051758,-27.00945000
0.06103516,-31.96102000
0.09155273,-40.90611000
0.12207031,-53.83145000
0.15258789,-61.39044000
0.18310547,-62.12039000
0.21362305,-67.50761000
0.24414063,-71.35533000
0.27465820,-71.14754000
0.30517578,-77.83651000
0.33569336,-62.76829000
0.36621094,-55.18726000
0.39672852,-51.52081000
0.42724609,-50.21074000
0.45776367,-50.75569000
0.48828125,-52.52048000
0.51879883,-54.63385000
0.54931641,-60.36042000
0.57983398,-54.35265000
0.61035156,-44.39203000
0.64086914,-40.27663000
0.67138672,-39.80366000
0.70190430,-42.42855000
0.73242188,-47.70020000
0.76293945,-54.23281000
0.79345703,-59.89952000
0.82397461,-61.93913000
0.85449219,-63.38978000
0.88500977,-66.36227000
0.91552734,-63.35909000
0.94604492,-61.59526000
0.97656250,-62.96090000
1.00708008,-61.69323000
1.03759766,-59.75094000
1.06811523,-60.85562000
1.09863281,-65.28685000
1.12915039,-73.77909000
1.15966797,-89.04727000
1.19018555,-86.67022000
1.22070313,-88.56306000
1.25122070,-79.86266000
1.28173828,-71.65536000
1.31225586,-69.87093000
1.34277344,-73.09708000
1.37329102,-76.17361000
1.40380859,-70.84735000
1.43432617,-67.12022000
1.46484375,-64.93279000
1.49536133,-64.13481000
1.52587891,-65.01304000
1.55639648,-68.55460000
1.58691406,-78.13055000
1.61743164,-85.22554000
1.64794922,-82.01763000
1.67846680,-79.72147000
1.70898438,-80.34956000
1.73950195,-81.31547000
1.77001953,-76.33371000
1.80053711,-76.54481000
1.83105469,-77.87698000
1.86157227,-78.68758000
1.89208984,-83.66035000
1.92260742,-77.16463000
1.95312500,-70.87376000
1.98364258,-69.19122000
2.01416016,-70.63600000
2.04467773,-71.76369000
2.07519531,-68.38699000
2.10571289,-65.30127000
2.13623047,-63.76480000
2.16674805,-63.63575000
2.19726563,-64.53554000
2.22778320,-66.47610000
2.25830078,-70.06750000
2.28881836,-75.64347000
2.31933594,-82.21500000
2.34985352,-81.87607000
2.38037109,-78.61075000
2.41088867,-79.05374000
2.44140625,-83.34228000
2.47192383,-79.74194000
2.50244141,-76.01434000
2.53295898,-77.36753000
2.56347656,-87.10190000
2.59399414,-81.85194000
2.62451172,-79.29321000
2.65502930,-86.35641000
2.68554688,-86.63809000
2.71606445,-78.85469000
2.74658203,-76.99792000
2.77709961,-76.96952000
2.80761719,-78.61581000
2.83813477,-82.32968000
2.86865234,-84.87252000
2.89916992,-84.91596000
2.92968750,-88.67125000
2.96020508,-83.72093000
2.99072266,-78.23530000
3.02124023,-76.99445000
3.05175781,-75.62363000
3.08227539,-72.07393000
3.11279297,-71.01354000
3.14331055,-73.46910000
3.17382813,-78.75381000
3.20434570,-79.40192000
3.23486328,-76.87216000
3.26538086,-76.85529000
3.29589844,-79.51507000
3.32641602,-82.45622000
3.35693359,-82.39522000
3.38745117,-81.76814000
3.41796875,-82.36207000
3.44848633,-82.50426000
3.47900391,-79.02510000
3.50952148,-76.02508000
3.54003906,-75.89590000
3.57055664,-77.70016000
3.60107422,-76.98060000
3.63159180,-76.64291000
3.66210938,-79.09439000
3.69262695,-83.64807000
3.72314453,-84.96779000
3.75366211,-78.87466000
3.78417969,-75.26154000
3.81469727,-74.67714000
3.84521484,-76.16417000
3.87573242,-79.91578000
3.90625000,-87.25829000
3.93676758,-87.31976000
3.96728516,-88.26257000
3.99780273,-96.32005000
4.02832031,-93.90491000
4.05883789,-94.97437000
4.08935547,-84.99419000
4.11987305,-77.38076000
4.15039063,-74.68407000
4.18090820,-76.36218000
4.21142578,-83.33479000
4.24194336,-78.23069000
4.27246094,-74.82633000
4.30297852,-75.48194000
4.33349609,-79.14034000
4.36401367,-85.15074000
4.39453125,-87.60149000
4.42504883,-84.56806000
4.45556641,-82.92706000
4.48608398,-80.14394000
4.51660156,-77.59737000
4.54711914,-77.36330000
4.57763672,-79.98936000
4.60815430,-83.08043000
4.63867188,-81.43233000
4.66918945,-82.64813000
4.69970703,-90.43768000
4.73022461,-83.22305000
4.76074219,-80.07198000
4.79125977,-80.51995000
4.82177734,-81.24213000
4.85229492,-80.58580000
4.88281250,-79.02902000
4.91333008,-78.39525000
4.94384766,-79.98128000
4.97436523,-83.09459000
5.00488281,-83.17351000
5.03540039,-83.34904000
5.06591797,-86.59770000
5.09643555,-92.09227000
5.12695313,-91.52930000
5.15747070,-84.26628000
5.18798828,-79.76320000
5.21850586,-78.98931000
5.24902344,-82.91072000
5.27954102,-91.70576000
5.31005859,-83.66483000
5.34057617,-82.19498000
5.37109375,-83.47528000
5.40161133,-83.12459000
5.43212891,-81.96707000
5.46264648,-84.04266000
5.49316406,-94.98715000
5.52368164,-92.09860000
5.55419922,-101.12730000
5.58471680,-85.09223000
5.61523438,-80.87465000
5.64575195,-82.96829000
5.67626953,-87.22088000
5.70678711,-81.12724000
5.73730469,-82.76565000
5.76782227,-90.56067000
5.79833984,-84.25922000
5.82885742,-85.90053000
5.85937500,-90.78046000
5.88989258,-82.21142000
5.92041016,-80.56680000
5.95092773,-82.47316000
5.98144531,-85.55556000
6.01196289,-90.24780000
6.04248047,-89.18105000
6.07299805,-83.17406000
6.10351563,-80.54943000
6.13403320,-82.41894000
6.16455078,-88.46961000
6.19506836,-82.06768000
6.22558594,-78.84452000
6.25610352,-81.03305000
6.28662109,-88.51938000
6.31713867,-85.98683000
6.34765625,-85.38695000
6.37817383,-89.30069000
6.40869141,-84.07053000
6.43920898,-78.79897000
6.46972656,-76.73382000
6.50024414,-77.59708000
6.53076172,-79.65855000
6.56127930,-80.14252000
6.59179688,-80.44884000
6.62231445,-81.59651000
6.65283203,-82.94681000
6.68334961,-81.83308000
6.71386719,-79.62387000
6.74438477,-79.48333000
6.77490234,-82.11964000
6.80541992,-88.21980000
6.83593750,-90.21736000
6.86645508,-87.38527000
6.89697266,-89.87340000
6.92749023,-90.37192000
6.95800781,-81.89063000
6.98852539,-77.78870000
7.01904297,-76.28745000
7.04956055,-76.83851000
7.08007813,-79.52353000
7.11059570,-84.32483000
7.14111328,-84.78004000
7.17163086,-82.91527000
7.20214844,-84.63445000
7.23266602,-86.17641000
7.26318359,-84.04075000
7.29370117,-82.76273000
7.32421875,-82.83219000
7.35473633,-84.98871000
7.38525391,-89.46503000
7.41577148,-94.14961000
7.44628906,-87.92679000
7.47680664,-83.84187000
7.50732422,-83.23659000
7.53784180,-83.10340000
7.56835938,-81.58952000
7.59887695,-81.73305000
7.62939453,-85.47543000
7.65991211,-96.05751000
7.69042969,-94.31763000
7.72094727,-89.96132000
7.75146484,-89.24844000
7.78198242,-90.11498000
7.81250000,-90.60165000
7.84301758,-89.47686000
7.87353516,-89.23637000
7.90405273,-90.74821000
7.93457031,-91.11115000
7.96508789,-91.70277000
7.99560547,-89.94548000
8.02612305,-87.13784000
8.05664063,-85.82634000
8.08715820,-85.47841000
8.11767578,-86.05655000
8.14819336,-88.27588000
8.17871094,-95.69121000
8.20922852,-100.73780000
8.23974609,-94.36774000
8.27026367,-102.17690000
8.30078125,-97.69922000
8.33129883,-92.45457000
8.36181641,-93.75117000
8.39233398,-96.86362000
8.42285156,-95.36919000
8.45336914,-94.54484000
8.48388672,-90.05011000
8.51440430,-84.68856000
8.54492188,-83.58740000
8.57543945,-85.91872000
8.60595703,-86.81807000
8.63647461,-85.07897000
8.66699219,-84.78326000
8.69750977,-85.82732000
8.72802734,-88.43973000
8.75854492,-90.97794000
8.78906250,-90.42513000
8.81958008,-91.02341000
8.85009766,-92.81950000
8.88061523,-93.51823000
8.91113281,-95.65399000
8.94165039,-93.74489000
8.97216797,-89.48672000
9.00268555,-88.00110000
9.03320313,-87.28648000
9.06372070,-87.19273000
9.09423828,-90.68348000
9.12475586,-100.31830000
9.15527344,-92.77846000
9.18579102,-92.72174000
9.21630859,-91.22680000
9.24682617,-89.26700000
9.27734375,-92.95792000
9.30786133,-95.47774000
9.33837891,-93.48244000
9.36889648,-100.05250000
9.39941406,-102.76370000
9.42993164,-99.49826000
9.46044922,-96.91721000
9.49096680,-90.80374000
9.52148438,-85.31685000
9.55200195,-81.70914000
9.58251953,-80.88596000
9.61303711,-83.01321000
9.64355469,-88.06777000
9.67407227,-92.98979000
9.70458984,-93.26814000
9.73510742,-91.85838000
9.76562500,-93.62366000
9.79614258,-104.49610000
9.82666016,-92.40701000
9.85717773,-90.36388000
9.88769531,-89.50722000
9.91821289,-87.53339000
9.94873047,-89.07378000
9.97924805,-88.39088000
10.00976563,-85.18777000
10.04028320,-86.58642000
10.07080078,-94.56319000
10.10131836,-92.97871000
10.13183594,-87.23304000
10.16235352,-85.63705000
10.19287109,-87.31691000
10.22338867,-89.23677000
10.25390625,-90.20750000
10.28442383,-96.29918000
10.31494141,-97.62272000
10.34545898,-94.39021000
10.37597656,-97.12165000
10.40649414,-108.44790000
10.43701172,-95.12452000
10.46752930,-88.96527000
10.49804688,-87.56232000
10.52856445,-91.71295000
10.55908203,-94.48853000
10.58959961,-86.27863000
10.62011719,-85.76453000
10.65063477,-88.97958000
10.68115234,-88.12094000
10.71166992,-91.13271000
10.74218750,-96.57254000
10.77270508,-86.07192000
10.80322266,-85.63181000
10.83374023,-92.68387000
10.86425781,-94.88907000
10.89477539,-88.23612000
10.92529297,-86.83261000
10.95581055,-86.74010000
10.98632813,-86.26872000
11.01684570,-84.35410000
11.04736328,-82.36882000
11.07788086,-81.69518000
11.10839844,-82.00019000
11.13891602,-81.93511000
11.16943359,-81.45992000
11.19995117,-81.89385000
11.23046875,-82.48677000
11.26098633,-82.64265000
11.29150391,-86.30665000
11.32202148,-104.88320000
11.35253906,-90.82773000
11.38305664,-91.55033000
11.41357422,-97.83618000
11.44409180,-86.16378000
11.47460938,-82.17384000
11.50512695,-81.51185000
11.53564453,-82.17738000
11.56616211,-82.96942000
11.59667969,-84.61373000
11.62719727,-85.20558000
11.65771484,-80.60769000
11.68823242,-78.39946000
11.71875000,-79.68099000
11.74926758,-83.34869000
11.77978516,-80.87524000
11.81030273,-75.69705000
11.84082031,-74.42538000
11.87133789,-77.24004000
11.90185547,-84.18552000
11.93237305,-90.24433000
11.96289063,-96.03970000
11.99340820,-91.36812000
12.02392578,-89.65878000
12.05444336,-84.17354000
12.08496094,-79.82235000
12.11547852,-78.69511000
12.14599609,-80.11136000
12.17651367,-83.23100000
12.20703125,-82.16025000
12.23754883,-78.42526000
12.26806641,-77.28197000
12.29858398,-79.25016000
12.32910156,-85.85464000
12.35961914,-93.41498000
12.39013672,-84.80452000
12.42065430,-82.55558000
12.45117188,-83.52238000
12.48168945,-85.33856000
12.51220703,-85.14078000
12.54272461,-86.13336000
12.57324219,-89.14175000
12.60375977,-90.31686000
12.63427734,-87.15169000
12.66479492,-83.13976000
12.69531250,-79.43267000
12.72583008,-77.05335000
12.75634766,-76.00871000
12.78686523,-76.32050000
12.81738281,-78.59557000
12.84790039,-82.80791000
12.87841797,-85.63354000
12.90893555,-85.34371000
12.93945313,-83.88052000
12.96997070,-83.02530000
13.00048828,-82.27563000
13.03100586,-81.07197000
13.06152344,-81.21146000
13.09204102,-84.56633000
13.12255859,-93.33785000
13.15307617,-93.06474000
13.18359375,-87.12613000
13.21411133,-81.55750000
13.24462891,-77.98209000
13.27514648,-77.01830000
13.30566406,-78.66463000
13.33618164,-82.72546000
13.36669922,-85.82231000
13.39721680,-82.11484000
13.42773438,-78.78638000
13.45825195,-76.13017000
13.48876953,-72.68273000
13.51928711,-69.06628000
13.54980469,-66.84738000
13.58032227,-66.75864000
13.61083984,-68.78513000
13.64135742,-72.68079000
13.67187500,-79.52880000
13.70239258,-75.31364000
13.73291016,-68.90639000
13.76342773,-67.15170000
13.79394531,-69.04918000
13.82446289,-74.76279000
13.85498047,-85.64063000
13.88549805,-88.43649000
13.91601563,-84.58156000
13.94653320,-83.62975000
13.97705078,-83.82656000
14.00756836,-83.03178000
14.03808594,-82.91237000
14.06860352,-85.51780000
14.09912109,-87.91073000
14.12963867,-88.49939000
14.16015625,-92.66185000
14.19067383,-101.56190000
14.22119141,-102.78600000
14.25170898,-92.69215000
14.28222656,-84.33501000
14.31274414,-79.67396000
14.34326172,-77.80456000
14.37377930,-78.03484000
14.40429688,-79.94972000
14.43481445,-83.17888000
14.46533203,-86.10460000
14.49584961,-86.70212000
14.52636719,-88.95015000
14.55688477,-97.68968000
14.58740234,-102.01830000
14.61791992,-95.66177000
14.64843750,-87.17397000
14.67895508,-82.99320000
14.70947266,-82.75206000
14.73999023,-85.39410000
14.77050781,-82.50725000
14.80102539,-79.08167000
14.83154297,-78.93793000
14.86206055,-81.60069000
14.89257813,-87.20155000
14.92309570,-97.12131000
14.95361328,-93.25317000
14.98413086,-84.80948000
15.01464844,-81.56503000
15.04516602,-81.23038000
15.07568359,-81.83296000
15.10620117,-81.55964000
15.13671875,-81.45085000
15.16723633,-81.44278000
15.19775391,-80.69909000
15.22827148,-80.67258000
15.25878906,-84.28928000
15.28930664,-102.65320000
15.31982422,-84.59415000
15.35034180,-82.54832000
15.38085938,-84.52005000
15.41137695,-87.13462000
15.44189453,-89.93522000
15.47241211,-91.94076000
15.50292969,-89.75357000
15.53344727,-89.49441000
15.56396484,-88.64288000
15.59448242,-83.28810000
15.62500000,-80.39821000
15.65551758,-80.38171000
15.68603516,-82.07364000
15.71655273,-83.06773000
15.74707031,-83.49574000
15.77758789,-85.74965000
15.80810547,-90.04292000
15.83862305,-89.65202000
15.86914063,-87.14806000
15.89965820,-85.02603000
15.93017578,-82.72137000
15.96069336,-81.60851000
15.99121094,-82.27408000
16.02172852,-83.98536000
16.05224609,-84.06076000
16.08276367,-83.93626000
16.11328125,-86.30395000
16.14379883,-90.61044000
16.17431641,-97.14537000
16.20483398,-91.99547000
16.23535156,-86.53226000
16.26586914,-85.58753000
16.29638672,-87.88128000
16.32690430,-90.14779000
16.35742188,-87.47688000
16.38793945,-86.93291000
16.41845703,-89.32545000
16.44897461,-90.05650000
16.47949219,-89.66646000
16.51000977,-90.63870000
16.54052734,-88.17654000
16.57104492,-86.22238000
16.60156250,-87.49809000
16.63208008,-92.52469000
16.66259766,-96.42101000
16.69311523,-95.38239000
16.72363281,-93.82102000
16.75415039,-91.84846000
16.78466797,-93.99818000
16.81518555,-101.08990000
16.84570313,-99.63469000
16.87622070,-96.11757000
16.90673828,-92.97271000
16.93725586,-90.31541000
16.96777344,-88.89058000
16.99829102,-89.26316000
17.02880859,-92.21877000
17.05932617,-100.02540000
17.08984375,-98.84698000
17.12036133,-94.05763000
17.15087891,-94.13628000
17.18139648,-93.80652000
17.21191406,-92.51112000
17.24243164,-91.42287000
17.27294922,-89.77059000
17.30346680,-89.12377000
17.33398438,-90.25931000
17.36450195,-92.25685000
17.39501953,-91.78886000
17.42553711,-90.85098000
17.45605469,-92.09511000
17.48657227,-95.25629000
17.51708984,-97.55550000
17.54760742,-98.08389000
17.57812500,-100.97980000
17.60864258,-109.91910000
17.63916016,-104.29290000
17.66967773,-92.90945000
17.70019531,-84.96935000
17.73071289,-81.32161000
17.76123047,-80.76051000
17.79174805,-82.23148000
17.82226563,-84.39337000
17.85278320,-86.91232000
17.88330078,-90.66876000
17.91381836,-94.96857000
17.94433594,-95.11893000
17.97485352,-92.66869000
18.00537109,-92.18494000
18.03588867,-95.17127000
18.06640625,-105.85300000
18.09692383,-96.86916000
18.12744141,-92.55252000
18.15795898,-93.07108000
18.18847656,-96.13997000
18.21899414,-95.85561000
18.24951172,-94.10393000
18.28002930,-93.51050000
18.31054688,-93.57095000
18.34106445,-95.22946000
18.37158203,-101.40220000
18.40209961,-99.49777000
18.43261719,-93.69870000
18.46313477,-93.28971000
18.49365234,-97.93050000
18.52416992,-112.67680000
18.55468750,-99.43027000
18.58520508,-96.56883000
18.61572266,-97.67242000
18.64624023,-102.00580000
18.67675781,-101.44140000
18.70727539,-95.84987000
18.73779297,-93.10555000
18.76831055,-93.32626000
18.79882813,-96.67706000
18.82934570,-103.12480000
18.85986328,-108.04610000
18.89038086,-102.66930000
18.92089844,-98.56244000
18.95141602,-96.92526000
18.98193359,-95.54355000
19.01245117,-93.71726000
19.04296875,-92.88959000
19.07348633,-94.32948000
19.10400391,-97.47836000
19.13452148,-98.12573000
19.16503906,-99.53078000
19.19555664,-108.08580000
19.22607422,-105.28770000
19.25659180,-98.31116000
19.28710938,-97.33299000
19.31762695,-101.92220000
19.34814453,-112.19720000
19.37866211,-103.97610000
19.40917969,-101.81890000
19.43969727,-100.66360000
19.47021484,-101.28970000
19.50073242,-102.79410000
19.53125000,-103.86650000
19.56176758,-106.44950000
19.59228516,-112.49340000
19.62280273,-113.21040000
19.65332031,-105.22700000
19.68383789,-100.55710000
19.71435547,-98.28090000
19.74487305,-98.22145000
19.77539063,-100.29430000
19.80590820,-102.85600000
19.83642578,-100.81980000
19.86694336,-97.34643000
19.89746094,-95.70540000
19.92797852,-96.72549000
19.95849609,-102.16760000
19.98901367,-105.05030000
20.01953125,-101.41130000
20.05004883,-104.02550000
20.08056641,-103.19220000
20.11108398,-100.36000000
20.14160156,-93.12383000
20.17211914,-88.56475000
20.20263672,-87.23461000
20.23315430,-88.57733000
20.26367188,-92.78775000
20.29418945,-96.64516000
20.32470703,-94.24153000
20.35522461,-94.24446000
20.38574219,-93.92714000
20.41625977,-93.01487000
20.44677734,-95.76653000
20.47729492,-105.05920000
20.50781250,-98.66860000
20.53833008,-94.49113000
20.56884766,-93.53815000
20.59936523,-95.50378000
20.62988281,-98.74611000
20.66040039,-95.77827000
20.69091797,-92.90370000
20.72143555,-90.94665000
20.75195313,-91.55173000
20.78247070,-98.12038000
20.81298828,-101.95750000
20.84350586,-93.17134000
20.87402344,-90.84879000
20.90454102,-89.91656000
20.93505859,-89.82420000
20.96557617,-90.37981000
20.99609375,-90.83183000
21.02661133,-90.93332000
21.05712891,-90.89866000
21.08764648,-90.33807000
21.11816406,-89.05743000
21.14868164,-89.19081000
21.17919922,-92.53010000
21.20971680,-100.86430000
21.24023438,-96.43526000
21.27075195,-91.75531000
21.30126953,-88.95748000
21.33178711,-87.23863000
21.36230469,-87.51693000
21.39282227,-90.23885000
21.42333984,-94.19353000
21.45385742,-96.24376000
21.48437500,-98.75519000
21.51489258,-103.61600000
21.54541016,-113.11630000
21.57592773,-101.84330000
21.60644531,-96.70284000
21.63696289,-97.37456000
21.66748047,-101.85670000
21.69799805,-105.31090000
21.72851563,-100.91240000
21.75903320,-93.72206000
21.78955078,-90.74889000
21.82006836,-90.85847000
21.85058594,-93.40913000
21.88110352,-98.54762000
21.91162109,-106.33370000
21.94213867,-103.05730000
21.97265625,-104.27880000
22.00317383,-106.35730000
22.03369141,-98.42584000
22.06420898,-95.73709000
22.09472656,-94.43565000
22.12524414,-92.54037000
22.15576172,-90.93323000
22.18627930,-91.17189000
22.21679688,-94.29031000
22.24731445,-98.06939000
22.27783203,-94.47346000
22.30834961,-92.03484000
22.33886719,-91.99554000
22.36938477,-93.24190000
22.39990234,-94.50932000
22.43041992,-96.50311000
22.46093750,-97.18362000
22.49145508,-94.63329000
22.52197266,-93.52810000
22.55249023,-92.94325000
22.58300781,-92.33433000
22.61352539,-92.92932000
22.64404297,-94.33059000
22.67456055,-96.04686000
22.70507813,-98.72596000
22.73559570,-100.16230000
22.76611328,-96.41362000
22.79663086,-91.37704000
22.82714844,-88.19805000
22.85766602,-87.10320000
22.88818359,-87.84046000
22.91870117,-90.09897000
22.94921875,-93.16090000
22.97973633,-94.51227000
23.01025391,-92.83894000
23.04077148,-91.56091000
23.07128906,-91.47548000
23.10180664,-91.85812000
23.13232422,-92.48936000
23.16284180,-93.71632000
23.19335938,-96.15648000
23.22387695,-101.32490000
23.25439453,-119.10870000
23.28491211,-107.33370000
23.31542969,-104.52410000
23.34594727,-105.93960000
23.37646484,-107.52610000
23.40698242,-114.28460000
23.43750000,-104.97320000
23.46801758,-96.36692000
23.49853516,-92.58774000
23.52905273,-91.67665000
23.55957031,-93.59406000
23.59008789,-101.81290000
23.62060547,-98.61752000
23.65112305,-91.36566000
23.68164063,-90.45215000
23.71215820,-93.96156000
23.74267578,-101.43500000
23.77319336,-101.59290000
23.80371094,-95.36424000
23.83422852,-92.16641000
23.86474609,-91.77682000
23.89526367,-92.12656000
23.92578125,-90.42610000
23.95629883,-88.72254000
23.98681641,-89.27016000
24.01733398,-92.38777000
24.04785156,-95.95826000
24.07836914,-96.50582000
24.10888672,-95.47005000
24.13940430,-91.96542000
24.16992188,-89.23495000
24.20043945,-89.25179000
24.23095703,-92.29366000
24.26147461,-97.34962000
24.29199219,-104.89310000
24.32250977,-100.64230000
24.35302734,-95.57379000
24.38354492,-97.48347000
24.41406250,-107.85490000
24.44458008,-93.55117000
24.47509766,-88.15993000
24.50561523,-85.81213000
24.53613281,-85.68699000
24.56665039,-87.88765000
24.59716797,-92.48940000
24.62768555,-95.30582000
24.65820313,-93.13951000
24.68872070,-92.52441000
24.71923828,-93.80692000
24.74975586,-96.60474000
24.78027344,-104.79640000
24.81079102,-99.91902000
24.84130859,-93.31334000
24.87182617,-92.51955000
24.90234375,-95.97012000
24.93286133,-106.12820000
24.96337891,-101.57380000
24.99389648,-95.96447000
25.02441406,-95.60143000
25.05493164,-97.55943000
25.08544922,-96.46741000
25.11596680,-95.29198000
25.14648438,-94.51824000
25.17700195,-92.81677000
25.20751953,-91.73169000
25.23803711,-92.19726000
25.26855469,-94.13231000
25.29907227,-95.99137000
25.32958984,-96.11034000
25.36010742,-96.38179000
25.39062500,-98.24171000
25.42114258,-101.47530000
25.45166016,-102.93070000
25.48217773,-98.98618000
25.51269531,-94.45674000
25.54321289,-92.05994000
25.57373047,-91.86706000
25.60424805,-93.01468000
25.63476563,-94.05391000
25.66528320,-94.27544000
25.69580078,-94.53538000
25.72631836,-95.59167000
25.75683594,-97.93524000
25.78735352,-100.80350000
25.81787109,-98.56403000
25.84838867,-98.16367000
25.87890625,-101.58190000
25.90942383,-102.87680000
25.93994141,-98.34830000
25.97045898,-93.87429000
26.00097656,-91.27313000
26.03149414,-91.56538000
26.06201172,-96.04732000
26.09252930,-104.75460000
26.12304688,-101.24950000
26.15356445,-100.23990000
26.18408203,-96.16718000
26.21459961,-93.44212000
26.24511719,-93.29663000
26.27563477,-95.15915000
26.30615234,-96.89517000
26.33666992,-94.87151000
26.36718750,-93.25117000
26.39770508,-94.20509000
26.42822266,-99.93842000
26.45874023,-104.85090000
26.48925781,-92.98981000
26.51977539,-89.80002000
26.55029297,-90.57272000
26.58081055,-94.75493000
26.61132813,-101.72720000
26.64184570,-98.42039000
26.67236328,-92.29000000
26.70288086,-90.51651000
26.73339844,-91.52802000
26.76391602,-94.69539000
26.79443359,-101.04360000
26.82495117,-94.53064000
26.85546875,-90.34541000
26.88598633,-90.38644000
26.91650391,-93.67274000
26.94702148,-97.00673000
26.97753906,-95.19312000
27.00805664,-94.46443000
27.03857422,-96.80385000
27.06909180,-99.73091000
27.09960938,-96.11565000
27.13012695,-93.96832000
27.16064453,-93.61064000
27.19116211,-94.50882000
27.22167969,-98.92279000
27.25219727,-116.03630000
27.28271484,-103.56890000
27.31323242,-103.12760000
27.34375000,-101.96620000
27.37426758,-95.89882000
27.40478516,-92.12988000
27.43530273,-90.37741000
27.46582031,-89.79961000
27.49633789,-89.94592000
27.52685547,-91.13113000
27.55737305,-94.09091000
27.58789063,-98.96605000
27.61840820,-104.12900000
27.64892578,-101.35030000
27.67944336,-95.86033000
27.70996094,-94.10710000
27.74047852,-94.86360000
27.77099609,-96.66932000
27.80151367,-98.40233000
27.83203125,-98.56846000
27.86254883,-96.13863000
27.89306641,-93.13297000
27.92358398,-91.88150000
27.95410156,-92.43175000
27.98461914,-92.00485000
28.01513672,-90.90494000
28.04565430,-91.44149000
28.07617188,-91.85257000
28.10668945,-91.52160000
28.13720703,-93.37188000
28.16772461,-98.39169000
28.19824219,-104.17680000
28.22875977,-105.87130000
28.25927734,-106.59430000
28.28979492,-98.90256000
28.32031250,-93.86302000
28.35083008,-93.06517000
28.38134766,-95.49163000
28.41186523,-98.42467000
28.44238281,-103.37240000
28.47290039,-101.74250000
28.50341797,-92.04838000
28.53393555,-89.03510000
28.56445313,-89.10976000
28.59497070,-90.52383000
28.62548828,-91.16220000
28.65600586,-90.84149000
28.68652344,-91.52240000
28.71704102,-95.24265000
28.74755859,-104.90810000
28.77807617,-100.73750000
28.80859375,-99.64717000
28.83911133,-102.85390000
28.86962891,-100.86590000
28.90014648,-98.21150000
28.93066406,-98.89924000
28.96118164,-105.06460000
28.99169922,-99.10638000
29.02221680,-92.47166000
29.05273438,-89.70185000
29.08325195,-88.69182000
29.11376953,-87.87839000
29.14428711,-87.18530000
29.17480469,-87.96576000
29.20532227,-91.02875000
29.23583984,-96.29941000
29.26635742,-102.99530000
29.29687500,-108.02220000
29.32739258,-104.60520000
29.35791016,-105.90670000
29.38842773,-111.33700000
29.41894531,-107.07460000
29.44946289,-101.97100000
29.47998047,-102.66930000
29.51049805,-108.20560000
29.54101563,-99.11534000
29.57153320,-94.59062000
29.60205078,-94.19861000
29.63256836,-99.59571000
29.66308594,-105.74030000
29.69360352,-94.85892000
29.72412109,-93.23369000
29.75463867,-95.00188000
29.78515625,-97.42303000
29.81567383,-99.02789000
29.84619141,-101.59620000
29.87670898,-102.63430000
29.90722656,-98.92773000
29.93774414,-96.40222000
29.96826172,-94.66691000
29.99877930,-93.53947000
30.02929688,-94.68126000
30.05981445,-99.39506000
30.09033203,-106.05900000
30.12084961,-105.16360000
30.15136719,-102.50460000
30.18188477,-97.24403000
30.21240234,-94.36714000
30.24291992,-94.21387000
30.27343750,-96.85998000
30.30395508,-104.73420000
30.33447266,-105.37060000
30.36499023,-97.24107000
30.39550781,-95.39902000
30.42602539,-98.07042000
30.45654297,-114.63890000
30.48706055,-99.56585000
30.51757813,-95.15616000
30.54809570,-94.63895000
30.57861328,-94.63093000
30.60913086,-93.81453000
30.63964844,-94.38153000
30.67016602,-100.00250000
30.70068359,-103.63850000
30.73120117,-93.15570000
30.76171875,-90.85532000
30.79223633,-92.93875000
30.82275391,-97.15285000
30.85327148,-93.50803000
30.88378906,-91.79893000
30.91430664,-94.08202000
30.94482422,-101.38860000
30.97534180,-109.34310000
31.00585938,-114.55240000
31.03637695,-101.87140000
31.06689453,-94.35490000
31.09741211,-91.55109000
31.12792969,-91.09956000
31.15844727,-92.32700000
31.18896484,-94.19508000
31.21948242,-93.63553000
31.25000000,-92.11494000
31.28051758,-92.09273000
31.31103516,-94.34729000
31.34155273,-100.33040000
31.37207031,-95.05818000
31.40258789,-89.06540000
31.43310547,-86.63880000
31.46362305,-86.44894000
31.49414063,-87.81292000
31.52465820,-90.47757000
31.55517578,-95.57449000
31.58569336,-97.71680000
31.61621094,-90.95041000
31.64672852,-87.46127000
31.67724609,-86.08755000
31.70776367,-86.32178000
31.73828125,-88.13271000
31.76879883,-91.63168000
31.79931641,-96.77455000
31.82983398,-101.01230000
31.86035156,-97.34081000
31.89086914,-93.69930000
31.92138672,-92.79681000
31.95190430,-94.61749000
31.98242188,-98.85513000
32.01293945,-102.55830000
32.04345703,-100.72550000
32.07397461,-97.85247000
32.10449219,-96.90820000
32.13500977,-98.36297000
32.16552734,-99.86496000
32.19604492,-98.68448000
32.22656250,-98.67389000
32.25708008,-99.40940000
32.28759766,-98.91306000
32.31811523,-98.70419000
32.34863281,-100.80830000
32.37915039,-99.02713000
32.40966797,-94.23542000
32.44018555,-91.65694000
32.47070313,-90.15245000
32.50122070,-89.57016000
32.53173828,-89.25453000
32.56225586,-88.42843000
32.59277344,-88.89621000
32.62329102,-93.18482000
32.65380859,-108.97280000
32.68432617,-93.33932000
32.71484375,-89.51495000
32.74536133,-89.03019000
32.77587891,-90.47250000
32.80639648,-93.35153000
32.83691406,-97.08734000
32.86743164,-99.58583000
32.89794922,-97.29542000
32.92846680,-94.54970000
32.95898438,-94.32670000
32.98950195,-95.35754000
33.02001953,-94.23039000
33.05053711,-93.66962000
33.08105469,-95.68109000
33.11157227,-100.26790000
33.14208984,-100.17220000
33.17260742,-95.34119000
33.20312500,-92.67849000
33.23364258,-91.59990000
33.26416016,-92.25642000
33.29467773,-95.37149000
33.32519531,-99.81544000
33.35571289,-96.03311000
33.38623047,-92.74976000
33.41674805,-92.82142000
33.44726563,-97.41001000
33.47778320,-102.14740000
33.50830078,-94.91311000
33.53881836,-93.72443000
33.56933594,-95.55688000
33.59985352,-95.54459000
33.63037109,-93.59526000
33.66088867,-92.71706000
33.69140625,-93.64896000
33.72192383,-97.58434000
33.75244141,-103.73050000
33.78295898,-101.24690000
33.81347656,-100.33190000
33.84399414,-98.76431000
33.87451172,-96.23613000
33.90502930,-94.64542000
33.93554688,-93.04444000
33.96606445,-92.31216000
33.99658203,-93.36094000
34.02709961,-95.01768000
34.05761719,-95.25954000
34.08813477,-95.95975000
34.11865234,-100.98990000
34.14916992,-101.13710000
34.17968750,-93.34825000
34.21020508,-91.37675000
34.24072266,-93.42098000
34.27124023,-100.59590000
34.30175781,-102.15110000
34.33227539,-99.70295000
34.36279297,-108.08160000
34.39331055,-101.17080000
34.42382813,-93.12143000
34.45434570,-90.22008000
34.48486328,-90.20486000
34.51538086,-93.17917000
34.54589844,-99.64467000
34.57641602,-98.97475000
34.60693359,-94.52844000
34.63745117,-92.00215000
34.66796875,-90.64648000
34.69848633,-90.23676000
34.72900391,-90.28206000
34.75952148,-90.70123000
34.79003906,-92.28252000
34.82055664,-94.72434000
34.85107422,-94.43158000
34.88159180,-92.59898000
34.91210938,-91.74969000
34.94262695,-91.76304000
34.97314453,-92.74040000
35.00366211,-95.19316000
35.03417969,-99.41389000
35.06469727,-102.29630000
35.09521484,-99.02314000
35.12573242,-95.57204000
35.15625000,-94.57666000
35.18676758,-95.72074000
35.21728516,-94.89353000
35.24780273,-92.71214000
35.27832031,-92.95234000
35.30883789,-95.90965000
35.33935547,-96.02024000
35.36987305,-92.70575000
35.40039063,-91.52003000
35.43090820,-92.62409000
35.46142578,-95.32813000
35.49194336,-95.53017000
35.52246094,-93.38657000
35.55297852,-92.65764000
35.58349609,-93.54880000
35.61401367,-96.97107000
35.64453125,-110.20380000
35.67504883,-100.87670000
35.70556641,-95.96693000
35.73608398,-95.86275000
35.76660156,-97.62551000
35.79711914,-97.78949000
35.82763672,-96.49974000
35.85815430,-97.33961000
35.88867188,-99.75243000
35.91918945,-94.75670000
35.94970703,-90.90896000
35.98022461,-90.04638000
36.01074219,-90.96819000
36.04125977,-92.19281000
36.07177734,-93.46355000
36.10229492,-95.30015000
36.13281250,-96.55263000
36.16333008,-96.27351000
36.19384766,-96.59502000
36.22436523,-99.75857000
36.25488281,-100.50700000
36.28540039,-96.98804000
36.31591797,-96.36738000
36.34643555,-98.29850000
36.37695313,-101.91970000
36.40747070,-105.34820000
36.43798828,-106.25020000
36.46850586,-104.45400000
36.49902344,-100.98960000
36.52954102,-97.59087000
36.56005859,-95.48158000
36.59057617,-94.84615000
36.62109375,-94.78432000
36.65161133,-94.46442000
36.68212891,-95.03209000
36.71264648,-97.76756000
36.74316406,-100.01770000
36.77368164,-97.05150000
36.80419922,-94.67526000
36.83471680,-94.18548000
36.86523438,-96.32957000
36.89575195,-105.98880000
36.92626953,-99.70477000
36.95678711,-92.65034000
36.98730469,-90.89921000
37.01782227,-92.18230000
37.04833984,-95.42615000
37.07885742,-97.64138000
37.10937500,-98.95729000
37.13989258,-102.03660000
37.17041016,-103.63610000
37.20092773,-102.55250000
37.23144531,-100.70890000
37.26196289,-96.86327000
37.29248047,-93.69961000
37.32299805,-92.91077000
37.35351563,-93.52479000
37.38403320,-93.87245000
37.41455078,-94.25556000
37.44506836,-96.94373000
37.47558594,-105.26690000
37.50610352,-107.29090000
37.53662109,-103.31270000
37.56713867,-98.14069000
37.59765625,-94.65793000
37.62817383,-94.01286000
37.65869141,-94.99565000
37.68920898,-95.72475000
37.71972656,-94.61044000
37.75024414,-93.02077000
37.78076172,-92.07036000
37.81127930,-92.13010000
37.84179688,-93.49524000
37.87231445,-95.63503000
37.90283203,-96.03159000
37.93334961,-94.72488000
37.96386719,-95.00719000
37.99438477,-98.51647000
38.02490234,-107.09250000
38.05541992,-121.66820000
38.08593750,-108.32530000
38.11645508,-99.73096000
38.14697266,-95.65017000
38.17749023,-94.38358000
38.20800781,-95.36910000
38.23852539,-98.69843000
38.26904297,-102.45700000
38.29956055,-100.59960000
38.33007813,-97.99659000
38.36059570,-96.75819000
38.39111328,-97.86065000
38.42163086,-104.56090000
38.45214844,-103.11470000
38.48266602,-96.18054000
38.51318359,-93.23814000
38.54370117,-91.62052000
38.57421875,-91.42247000
38.60473633,-92.57574000
38.63525391,-94.27492000
38.66577148,-95.56100000
38.69628906,-96.87244000
38.72680664,-99.62714000
38.75732422,-101.79680000
38.78784180,-101.33480000
38.81835938,-102.40540000
38.84887695,-100.30280000
38.87939453,-98.64655000
38.90991211,-101.23380000
38.94042969,-98.81023000
38.97094727,-95.90485000
39.00146484,-99.27132000
39.03198242,-114.41350000
39.06250000,-101.07680000
39.09301758,-99.45384000
39.12353516,-101.20760000
39.15405273,-108.57650000
39.18457031,-113.67890000
39.21508789,-104.68960000
39.24560547,-101.00640000
39.27612305,-97.25066000
39.30664063,-94.51087000
39.33715820,-93.03745000
39.36767578,-91.33995000
39.39819336,-90.12598000
39.42871094,-91.03973000
39.45922852,-93.71418000
39.48974609,-95.10390000
39.52026367,-95.64632000
39.55078125,-97.14786000
39.58129883,-96.52765000
39.61181641,-93.29353000
39.64233398,-91.85398000
39.67285156,-93.61553000
39.70336914,-97.62280000
39.73388672,-95.42556000
39.76440430,-92.30976000
39.79492188,-90.71405000
39.82543945,-89.54446000
39.85595703,-88.67530000
39.88647461,-88.43632000
39.91699219,-89.01622000
39.94750977,-90.71453000
39.97802734,-94.30434000
40.00854492,-98.73531000
40.03906250,-96.03011000
40.06958008,-91.67725000
40.10009766,-88.80837000
40.13061523,-87.79768000
40.16113281,-88.60530000
40.19165039,-91.73543000
40.22216797,-99.71917000
40.25268555,-106.51630000
40.28320313,-106.55450000
40.31372070,-97.02071000
40.34423828,-89.93158000
40.37475586,-87.33746000
40.40527344,-86.98274000
40.43579102,-87.99547000
40.46630859,-90.77867000
40.49682617,-90.79570000
40.52734375,-86.35120000
40.55786133,-84.63825000
40.58837891,-85.38943000
40.61889648,-86.73199000
40.64941406,-86.40865000
40.67993164,-85.88695000
40.71044922,-87.52610000
40.74096680,-93.24893000
40.77148438,-111.63870000
40.80200195,-92.81533000
40.83251953,-88.67332000
40.86303711,-87.50014000
40.89355469,-87.87177000
40.92407227,-88.40881000
40.95458984,-88.45570000
40.98510742,-89.77840000
41.01562500,-95.23981000
41.04614258,-123.93480000
41.07666016,-101.37940000
41.10717773,-96.11227000
41.13769531,-88.56268000
41.16821289,-84.85035000
41.19873047,-84.37748000
41.22924805,-86.65004000
41.25976563,-88.80373000
41.29028320,-89.06775000
41.32080078,-93.41452000
41.35131836,-94.42412000
41.38183594,-87.97660000
41.41235352,-86.35261000
41.44287109,-86.75285000
41.47338867,-86.37101000
41.50390625,-85.03822000
41.53442383,-84.77809000
41.56494141,-85.93533000
41.59545898,-88.15537000
41.62597656,-90.84756000
41.65649414,-90.49458000
41.68701172,-88.11835000
41.71752930,-87.94384000
41.74804688,-91.09888000
41.77856445,-99.17870000
41.80908203,-137.64780000
41.83959961,-107.85660000
41.87011719,-101.09580000
41.90063477,-96.00658000
41.93115234,-92.97284000
41.96166992,-90.56694000
41.99218750,-88.77460000
42.02270508,-88.60872000
42.05322266,-90.58577000
42.08374023,-94.63371000
42.11425781,-97.93332000
42.14477539,-93.29073000
42.17529297,-89.06375000
42.20581055,-86.61746000
42.23632813,-84.81657000
42.26684570,-83.63003000
42.29736328,-84.05678000
42.32788086,-87.05093000
42.35839844,-92.33919000
42.38891602,-94.08906000
42.41943359,-90.95727000
42.44995117,-88.13765000
42.48046875,-85.93329000
42.51098633,-83.94939000
42.54150391,-83.32550000
42.57202148,-85.16624000
42.60253906,-89.13161000
42.63305664,-92.98022000
42.66357422,-97.64058000
42.69409180,-100.57680000
42.72460938,-100.57950000
42.75512695,-92.33514000
42.78564453,-89.57191000
42.81616211,-88.07952000
42.84667969,-85.32738000
42.87719727,-84.87268000
42.90771484,-88.50201000
42.93823242,-96.91596000
42.96875000,-97.72231000
42.99926758,-104.09660000
43.02978516,-100.20190000
43.06030273,-92.45572000
43.09082031,-90.74675000
43.12133789,-92.27471000
43.15185547,-93.73311000
43.18237305,-90.79509000
43.21289063,-90.42717000
43.24340820,-93.89995000
43.27392578,-99.91695000
43.30444336,-102.51420000
43.33496094,-92.17068000
43.36547852,-89.56158000
43.39599609,-91.98347000
43.42651367,-101.82700000
43.45703125,-97.20695000
43.48754883,-90.37807000
43.51806641,-88.40424000
43.54858398,-89.03420000
43.57910156,-89.53867000
43.60961914,-90.01235000
43.64013672,-93.27972000
43.67065430,-94.20335000
43.70117188,-90.40141000
43.73168945,-89.57500000
43.76220703,-91.70112000
43.79272461,-99.26350000
43.82324219,-93.99327000
43.85375977,-88.06747000
43.88427734,-87.03289000
43.91479492,-89.23570000
43.94531250,-93.82973000
43.97583008,-98.26196000
44.00634766,-98.28018000
44.03686523,-97.60147000
44.06738281,-100.59300000
44.09790039,-106.60390000
44.12841797,-101.83390000
44.15893555,-95.76592000
44.18945313,-92.69949000
44.21997070,-93.02380000
44.25048828,-95.61110000
44.28100586,-96.10047000
44.31152344,-93.26600000
44.34204102,-89.37214000
44.37255859,-86.67390000
44.40307617,-86.12466000
44.43359375,-88.06445000
44.46411133,-93.71781000
44.49462891,-117.25660000
44.52514648,-95.95091000
44.55566406,-94.32494000
44.58618164,-98.98412000
44.61669922,-106.31650000
44.64721680,-95.27322000
44.67773438,-90.32903000
44.70825195,-88.61958000
44.73876953,-89.69197000
44.76928711,-93.48904000
44.79980469,-99.26215000
44.83032227,-96.81247000
44.86083984,-92.34984000
44.89135742,-90.53918000
44.92187500,-90.51822000
44.95239258,-91.17274000
44.98291016,-91.61147000
45.01342773,-92.07847000
45.04394531,-93.71857000
45.07446289,-97.72846000
45.10498047,-105.45820000
45.13549805,-109.88420000
45.16601563,-106.13710000
45.19653320,-102.68090000
45.22705078,-98.54522000
45.25756836,-96.20434000
45.28808594,-96.98081000
45.31860352,-96.14127000
45.34912109,-91.10158000
45.37963867,-88.94028000
45.41015625,-90.07875000
45.44067383,-95.13462000
45.47119141,-112.67270000
45.50170898,-99.56405000
45.53222656,-95.86890000
45.56274414,-96.41113000
45.59326172,-100.61300000
45.62377930,-117.08230000
45.65429688,-95.80971000
45.68481445,-89.95322000
45.71533203,-88.98306000
45.74584961,-93.68356000
45.77636719,-102.54570000
45.80688477,-91.75430000
45.83740234,-90.49771000
45.86791992,-92.74147000
45.89843750,-97.15279000
45.92895508,-105.95330000
45.95947266,-104.07210000
45.98999023,-97.07410000
46.02050781,-93.39858000
46.05102539,-92.95506000
46.08154297,-96.08414000
46.11206055,-100.17260000
46.14257813,-96.29259000
46.17309570,-92.19853000
46.20361328,-90.23566000
46.23413086,-90.70827000
46.26464844,-93.57201000
46.29516602,-97.10748000
46.32568359,-96.65199000
46.35620117,-93.38803000
46.38671875,-91.99062000
46.41723633,-93.57674000
46.44775391,-96.62946000
46.47827148,-94.29134000
46.50878906,-91.21062000
46.53930664,-90.26743000
46.56982422,-90.98218000
46.60034180,-93.26058000
46.63085938,-101.26500000
46.66137695,-99.79799000
46.69189453,-92.27998000
46.72241211,-92.58525000
46.75292969,-99.88419000
46.78344727,-98.71331000
46.81396484,-93.57147000
46.84448242,-92.81490000
46.87500000,-94.14911000
46.90551758,-97.56142000
46.93603516,-102.15570000
46.96655273,-98.22202000
46.99707031,-93.78035000
47.02758789,-91.49260000
47.05810547,-90.90672000
47.08862305,-91.67661000
47.11914063,-92.86602000
47.14965820,-92.96230000
47.18017578,-92.57928000
47.21069336,-92.68141000
47.24121094,-92.24532000
47.27172852,-90.92121000
47.30224609,-89.80294000
47.33276367,-90.00571000
47.36328125,-92.43005000
47.39379883,-97.58990000
47.42431641,-102.80550000
47.45483398,-101.88910000
47.48535156,-100.69600000
47.51586914,-99.01335000
47.54638672,-96.23326000
47.57690430,-95.03529000
47.60742188,-96.40014000
47.63793945,-99.86035000
47.66845703,-102.69670000
47.69897461,-103.46290000
47.72949219,-101.38890000
47.76000977,-100.22900000
47.79052734,-101.51700000
47.82104492,-101.24280000
47.85156250,-98.72040000
47.88208008,-98.29416000
47.91259766,-101.04450000
47.94311523,-101.50490000
47.97363281,-100.16890000
48.00415039,-104.76130000
48.03466797,-99.58307000
48.06518555,-96.02647000
48.09570313,-97.42841000
48.12622070,-102.48820000
48.15673828,-111.88020000
48.18725586,-110.48420000
48.21777344,-108.01500000
48.24829102,-111.82430000
48.27880859,-102.90340000
48.30932617,-97.19312000
48.33984375,-92.66495000
48.37036133,-89.57433000
48.40087891,-88.23829000
48.43139648,-88.08717000
48.46191406,-88.72514000
48.49243164,-90.17226000
48.52294922,-92.28448000
48.55346680,-94.80472000
48.58398438,-97.86160000
48.61450195,-101.32060000
48.64501953,-100.69790000
48.67553711,-95.82732000
48.70605469,-92.35902000
48.73657227,-91.38169000
48.76708984,-93.07094000
48.79760742,-96.37737000
48.82812500,-94.89685000
48.85864258,-90.73341000
48.88916016,-87.90386000
48.91967773,-86.99948000
48.95019531,-88.04485000
48.98071289,-89.96152000
49.01123047,-90.03046000
49.04174805,-88.18588000
49.07226563,-86.78128000
49.10278320,-86.65527000
49.13330078,-87.55639000
49.16381836,-88.95387000
49.19433594,-90.74011000
49.22485352,-93.20181000
49.25537109,-96.35472000
49.28588867,-104.03470000
49.31640625,-98.98759000
49.34692383,-90.26012000
49.37744141,-87.36275000
49.40795898,-87.15662000
49.43847656,-87.99786000
49.46899414,-88.59505000
49.49951172,-88.86993000
49.53002930,-89.48335000
49.56054688,-90.91450000
49.59106445,-92.72922000
49.62158203,-94.86077000
49.65209961,-97.34649000
49.68261719,-90.47481000
49.71313477,-87.29987000
49.74365234,-89.01681000
49.77416992,-97.05975000
49.80468750,-99.62619000
49.83520508,-97.49579000
49.86572266,-103.81510000
49.89624023,-118.38900000
49.92675781,-105.17410000
49.95727539,-98.51140000
49.98779297,-93.26505000
50.01831055,-89.47449000
